%OpenBCI Raw EEG Data
%
%Sample Rate = 250.0 Hz
%First Column = SampleIndex
%Other Columns = EEG data in microvolts followed by Accel Data (in G) interleaved with Aux Data
0, -187500.02, 18589.68, -187500.02, 42524.41, 38114.64, -187500.02, -187500.02, -187500.02, 0.00, 0.00, 0.00
1, -187500.02, 20683.05, -187500.02, 42071.10, 39948.31, -187500.02, -187500.02, -187500.02, 0.00, 0.00, 0.00
2, -187500.02, 23275.74, -187500.02, 41894.63, 42579.42, -187500.02, -187500.02, -187500.02, 0.00, 0.00, 0.00
3, -187500.02, 21358.59, -187500.02, 42273.85, 40950.25, -187500.02, -187500.02, -187500.02, 0.00, 0.00, 0.00
4, -187500.02, 18521.95, -187500.02, 42423.68, 38089.29, -187500.02, -187500.02, -187500.02, 0.00, 0.00, 0.00
5, -187500.02, 19947.70, -187500.02, 42039.70, 39246.49, -187500.02, -187500.02, -187500.02, 0.00, 0.00, 0.00
6, -187500.02, 22943.13, -187500.02, 41752.88, 42209.03, -187500.02, -187500.02, -187500.02, 0.00, 0.00, 0.00
7, -187500.02, 21848.52, -187500.02, 42012.14, 41388.59, -187500.02, -187500.02, -187500.02, 0.00, 0.00, 0.00
8, -187500.02, 18651.32, -187500.02, 42313.32, 38251.01, -187500.02, -187500.02, -187500.02, 0.00, 0.00, 0.00
9, -187500.02, 19262.02, -187500.02, 42028.68, 38602.51, -187500.02, -187500.02, -187500.02, 0.00, 0.00, 0.00
10, -187500.02, 22449.06, -187500.02, 41645.07, 41681.51, -187500.02, -187500.02, -187500.02, 0.00, 0.00, 0.00
11, -187500.02, 22294.66, -187500.02, 41822.59, 41781.80, -187500.02, -187500.02, -187500.02, 0.00, 0.00, 0.00
12, -187500.02, 18962.28, -187500.02, 42212.59, 38586.51, -187500.02, -187500.02, -187500.02, 0.00, 0.00, 0.00
13, -187500.02, 18732.39, -187500.02, 42040.07, 38121.48, -187500.02, -187500.02, -187500.02, 0.00, 0.00, 0.00
14, -187500.02, 21866.91, -187500.02, 41591.66, 41083.85, -187500.02, -187500.02, -187500.02, 0.00, 0.00, 0.00
15, -187500.02, 22623.63, -187500.02, 41653.95, 42050.87, -187500.02, -187500.02, -187500.02, 0.00, 0.00, 0.00
16, -187500.02, 19370.00, -187500.02, 42063.68, 38999.75, -187500.02, -187500.02, -187500.02, 0.00, 0.00, 0.00
17, -187500.02, 18248.84, -187500.02, 41957.48, 37692.04, -187500.02, -187500.02, -187500.02, 0.00, 0.00, 0.00
18, -187500.02, 21162.83, -187500.02, 41536.38, 40387.50, -187500.02, -187500.02, -187500.02, 0.00, 0.00, 0.00
19, -187500.02, 22786.15, -187500.02, 41514.05, 42154.02, -187500.02, -187500.02, -187500.02, 0.00, 0.00, 0.00
20, -187500.02, 19872.33, -187500.02, 41921.48, 39492.25, -187500.02, -187500.02, -187500.02, 0.00, 0.00, 0.00
21, -187500.02, 17969.93, -187500.02, 41928.21, 37460.09, -187500.02, -187500.02, -187500.02, 0.00, 0.00, 0.00
22, -187500.02, 20394.42, -187500.02, 41489.26, 39636.53, -187500.02, -187500.02, -187500.02, 0.00, 0.00, 0.00
23, -187500.02, 22680.07, -187500.02, 41317.96, 41991.35, -187500.02, -187500.02, -187500.02, 0.00, 0.00, 0.00
24, -187500.02, 20360.20, -187500.02, 41707.79, 39958.12, -187500.02, -187500.02, -187500.02, 0.00, 0.00, 0.00
25, -187500.02, 17820.98, -187500.02, 41847.00, 37360.70, -187500.02, -187500.02, -187500.02, 0.00, 0.00, 0.00
26, -187500.02, 19602.59, -187500.02, 41417.29, 38874.06, -187500.02, -187500.02, -187500.02, 0.00, 0.00, 0.00
27, -187500.02, 22438.49, -187500.02, 41192.63, 41714.01, -187500.02, -187500.02, -187500.02, 0.00, 0.00, 0.00
28, -187500.02, 20883.70, -187500.02, 41511.08, 40447.74, -187500.02, -187500.02, -187500.02, 0.00, 0.00, 0.00
29, -187500.02, 17836.94, -187500.02, 41730.30, 37420.75, -187500.02, -187500.02, -187500.02, 0.00, 0.00, 0.00
30, -187500.02, 18873.72, -187500.02, 41381.13, 38189.09, -187500.02, -187500.02, -187500.02, 0.00, 0.00, 0.00
31, -187500.02, 21979.45, -187500.02, 41050.07, 41223.54, -187500.02, -187500.02, -187500.02, 0.00, 0.00, 0.00
32, -187500.02, 21309.44, -187500.02, 41284.59, 40822.42, -187500.02, -187500.02, -187500.02, 0.00, 0.00, 0.00
33, -187500.02, 17989.76, -187500.02, 41583.92, 37595.48, -187500.02, -187500.02, -187500.02, 0.00, 0.00, 0.00
34, -187500.02, 18175.52, -187500.02, 41281.95, 37528.76, -187500.02, -187500.02, -187500.02, 0.00, 0.00, 0.00
35, -187500.02, 21359.17, -187500.02, 40881.63, 40580.57, -187500.02, -187500.02, -187500.02, 0.00, 0.00, 0.00
36, -187500.02, 21610.98, -187500.02, 41014.22, 41069.77, -187500.02, -187500.02, -187500.02, 0.00, 0.00, 0.00
37, -187500.02, 18282.63, -187500.02, 41395.96, 37906.03, -187500.02, -187500.02, -187500.02, 0.00, 0.00, 0.00
38, -187500.02, 17629.29, -187500.02, 41205.62, 37037.00, -187500.02, -187500.02, -187500.02, 0.00, 0.00, 0.00
39, -187500.02, 20670.74, -187500.02, 40750.61, 39885.41, -187500.02, -187500.02, -187500.02, 0.00, 0.00, 0.00
40, -187500.02, 21837.52, -187500.02, 40777.94, 41236.02, -187500.02, -187500.02, -187500.02, 0.00, 0.00, 0.00
41, -187500.02, 18714.94, -187500.02, 41182.84, 38344.06, -187500.02, -187500.02, -187500.02, 0.00, 0.00, 0.00
42, -187500.02, 17251.93, -187500.02, 41129.96, 36712.92, -187500.02, -187500.02, -187500.02, 0.00, 0.00, 0.00
43, -187500.02, 19971.10, -187500.02, 40706.32, 39191.91, -187500.02, -187500.02, -187500.02, 0.00, 0.00, 0.00
44, -187500.02, 21898.52, -187500.02, 40594.14, 41230.50, -187500.02, -187500.02, -187500.02, 0.00, 0.00, 0.00
45, -187500.02, 19259.94, -187500.02, 40999.27, 38856.85, -187500.02, -187500.02, -187500.02, 0.00, 0.00, 0.00
46, -187500.02, 17073.85, -187500.02, 41069.70, 36566.47, -187500.02, -187500.02, -187500.02, 0.00, 0.00, 0.00
47, -187500.02, 19241.74, -187500.02, 40645.93, 38478.64, -187500.02, -187500.02, -187500.02, 0.00, 0.00, 0.00
48, -187500.02, 21802.36, -187500.02, 40436.50, 41088.41, -187500.02, -187500.02, -187500.02, 0.00, 0.00, 0.00
49, -187500.02, 19821.26, -187500.02, 40789.32, 39396.36, -187500.02, -187500.02, -187500.02, 0.00, 0.00, 0.00
50, -187500.02, 17042.42, -187500.02, 40983.31, 36589.00, -187500.02, -187500.02, -187500.02, 0.00, 0.00, 0.00
51, -187500.02, 18511.96, -187500.02, 40597.56, 37788.02, -187500.02, -187500.02, -187500.02, 0.00, 0.00, 0.00
52, -187500.02, 21517.02, -187500.02, 40317.54, 40763.72, -187500.02, -187500.02, -187500.02, 0.00, 0.00, 0.00
53, -187500.02, 20361.07, -187500.02, 40601.88, 39894.82, -187500.02, -187500.02, -187500.02, 0.00, 0.00, 0.00
54, -187500.02, 17155.84, -187500.02, 40874.95, 36739.98, -187500.02, -187500.02, -187500.02, 0.00, 0.00, 0.00
55, -187500.02, 17829.40, -187500.02, 40564.70, 37145.54, -187500.02, -187500.02, -187500.02, 0.00, 0.00, 0.00
56, -187500.02, 20996.96, -187500.02, 40157.34, 40210.79, -187500.02, -187500.02, -187500.02, 0.00, 0.00, 0.00
57, -187500.02, 20785.89, -187500.02, 40365.10, 40261.19, -187500.02, -187500.02, -187500.02, 0.00, 0.00, 0.00
58, -187500.02, 17427.68, -187500.02, 40718.86, 37031.63, -187500.02, -187500.02, -187500.02, 0.00, 0.00, 0.00
59, -187500.02, 17285.65, -187500.02, 40525.57, 36650.47, -187500.02, -187500.02, -187500.02, 0.00, 0.00, 0.00
60, -187500.02, 20482.42, -187500.02, 40118.16, 39690.13, -187500.02, -187500.02, -187500.02, 0.00, 0.00, 0.00
61, -187500.02, 21170.45, -187500.02, 40189.02, 40590.86, -187500.02, -187500.02, -187500.02, 0.00, 0.00, 0.00
62, -187500.02, 17936.34, -187500.02, 40624.20, 37549.03, -187500.02, -187500.02, -187500.02, 0.00, 0.00, 0.00
63, -187500.02, 16924.70, -187500.02, 40520.76, 36341.57, -187500.02, -187500.02, -187500.02, 0.00, 0.00, 0.00
64, -187500.02, 19850.20, -187500.02, 40053.18, 39052.18, -187500.02, -187500.02, -187500.02, 0.00, 0.00, 0.00
65, -187500.02, 21419.68, -187500.02, 40026.70, 40776.49, -187500.02, -187500.02, -187500.02, 0.00, 0.00, 0.00
66, -187500.02, 18519.78, -187500.02, 40469.04, 38126.75, -187500.02, -187500.02, -187500.02, 0.00, 0.00, 0.00
67, -187500.02, 16745.17, -187500.02, 40504.18, 36211.90, -187500.02, -187500.02, -187500.02, 0.00, 0.00, 0.00
68, -187500.02, 19277.37, -187500.02, 40083.80, 38490.46, -187500.02, -187500.02, -187500.02, 0.00, 0.00, 0.00
69, -187500.02, 21564.81, -187500.02, 39935.14, 40858.56, -187500.02, -187500.02, -187500.02, 0.00, 0.00, 0.00
70, -187500.02, 19210.27, -187500.02, 40328.89, 38786.15, -187500.02, -187500.02, -187500.02, 0.00, 0.00, 0.00
71, -187500.02, 16771.36, -187500.02, 40487.97, 36282.94, -187500.02, -187500.02, -187500.02, 0.00, 0.00, 0.00
72, -187500.02, 18673.74, -187500.02, 40094.02, 37920.47, -187500.02, -187500.02, -187500.02, 0.00, 0.00, 0.00
73, -187500.02, 21500.41, -187500.02, 39866.37, 40754.67, -187500.02, -187500.02, -187500.02, 0.00, 0.00, 0.00
74, -187500.02, 19927.16, -187500.02, 40227.75, 39471.86, -187500.02, -187500.02, -187500.02, 0.00, 0.00, 0.00
75, -187500.02, 16942.76, -187500.02, 40465.95, 36498.07, -187500.02, -187500.02, -187500.02, 0.00, 0.00, 0.00
76, -187500.02, 18111.42, -187500.02, 40137.36, 37396.61, -187500.02, -187500.02, -187500.02, 0.00, 0.00, 0.00
77, -187500.02, 21277.50, -187500.02, 39827.48, 40497.89, -187500.02, -187500.02, -187500.02, 0.00, 0.00, 0.00
78, -187500.02, 20599.32, -187500.02, 40104.64, 40099.25, -187500.02, -187500.02, -187500.02, 0.00, 0.00, 0.00
79, -187500.02, 17345.60, -187500.02, 40465.11, 36937.35, -187500.02, -187500.02, -187500.02, 0.00, 0.00, 0.00
80, -187500.02, 17644.04, -187500.02, 40197.15, 36974.99, -187500.02, -187500.02, -187500.02, 0.00, 0.00, 0.00
81, -187500.02, 20891.97, -187500.02, 39813.84, 40090.04, -187500.02, -187500.02, -187500.02, 0.00, 0.00, 0.00
82, -187500.02, 21109.88, -187500.02, 39980.14, 40555.63, -187500.02, -187500.02, -187500.02, 0.00, 0.00, 0.00
83, -187500.02, 17778.82, -187500.02, 40410.10, 37390.15, -187500.02, -187500.02, -187500.02, 0.00, 0.00, 0.00
84, -187500.02, 17204.36, -187500.02, 40263.34, 36590.14, -187500.02, -187500.02, -187500.02, 0.00, 0.00, 0.00
85, -187500.02, 20303.79, -187500.02, 39842.54, 39502.86, -187500.02, -187500.02, -187500.02, 0.00, 0.00, 0.00
86, -187500.02, 21420.30, -187500.02, 39905.04, 40815.54, -187500.02, -187500.02, -187500.02, 0.00, 0.00, 0.00
87, -187500.02, 18249.66, -187500.02, 40327.93, 37871.10, -187500.02, -187500.02, -187500.02, 0.00, 0.00, 0.00
88, -187500.02, 16838.33, -187500.02, 40294.74, 36286.02, -187500.02, -187500.02, -187500.02, 0.00, 0.00, 0.00
89, -187500.02, 19583.17, -187500.02, 39853.56, 38792.34, -187500.02, -187500.02, -187500.02, 0.00, 0.00, 0.00
90, -187500.02, 21477.63, -187500.02, 39775.46, 40808.27, -187500.02, -187500.02, -187500.02, 0.00, 0.00, 0.00
91, -187500.02, 18788.79, -187500.02, 40231.55, 38388.49, -187500.02, -187500.02, -187500.02, 0.00, 0.00, 0.00
92, -187500.02, 16634.68, -187500.02, 40317.72, 36124.22, -187500.02, -187500.02, -187500.02, 0.00, 0.00, 0.00
93, -187500.02, 18837.24, -187500.02, 39887.25, 38066.14, -187500.02, -187500.02, -187500.02, 0.00, 0.00, 0.00
94, -187500.02, 21350.23, -187500.02, 39686.44, 40623.31, -187500.02, -187500.02, -187500.02, 0.00, 0.00, 0.00
95, -187500.02, 19285.93, -187500.02, 40068.72, 38854.59, -187500.02, -187500.02, -187500.02, 0.00, 0.00, 0.00
96, -187500.02, 16492.17, -187500.02, 40245.84, 36028.93, -187500.02, -187500.02, -187500.02, 0.00, 0.00, 0.00
97, -187500.02, 18035.35, -187500.02, 39893.48, 37300.68, -187500.02, -187500.02, -187500.02, 0.00, 0.00, 0.00
98, -187500.02, 20981.83, -187500.02, 39602.75, 40225.72, -187500.02, -187500.02, -187500.02, 0.00, 0.00, 0.00
99, -187500.02, 19749.51, -187500.02, 39913.87, 39284.46, -187500.02, -187500.02, -187500.02, 0.00, 0.00, 0.00
100, -187500.02, 16533.72, -187500.02, 40176.21, 36112.89, -187500.02, -187500.02, -187500.02, 0.00, 0.00, 0.00
101, -187500.02, 17239.05, -187500.02, 39838.70, 36546.13, -187500.02, -187500.02, -187500.02, 0.00, 0.00, 0.00
102, -187500.02, 20403.19, -187500.02, 39454.09, 39612.23, -187500.02, -187500.02, -187500.02, 0.00, 0.00, 0.00
103, -187500.02, 20092.65, -187500.02, 39668.69, 39568.33, -187500.02, -187500.02, -187500.02, 0.00, 0.00, 0.00
104, -187500.02, 16707.44, -187500.02, 40034.95, 36310.09, -187500.02, -187500.02, -187500.02, 0.00, 0.00, 0.00
105, -187500.02, 16568.68, -187500.02, 39812.75, 35930.27, -187500.02, -187500.02, -187500.02, 0.00, 0.00, 0.00
106, -187500.02, 19731.20, -187500.02, 39386.70, 38935.57, -187500.02, -187500.02, -187500.02, 0.00, 0.00, 0.00
107, -187500.02, 20300.10, -187500.02, 39434.60, 39720.23, -187500.02, -187500.02, -187500.02, 0.00, 0.00, 0.00
108, -187500.02, 16997.45, -187500.02, 39832.13, 36607.26, -187500.02, -187500.02, -187500.02, 0.00, 0.00, 0.00
109, -187500.02, 16020.77, -187500.02, 39722.69, 35423.89, -187500.02, -187500.02, -187500.02, 0.00, 0.00, 0.00
110, -187500.02, 18978.93, -187500.02, 39279.12, 38164.80, -187500.02, -187500.02, -187500.02, 0.00, 0.00, 0.00
111, -187500.02, 20459.42, -187500.02, 39264.32, 39809.89, -187500.02, -187500.02, -187500.02, 0.00, 0.00, 0.00
112, -187500.02, 17458.90, -187500.02, 39673.88, 37061.65, -187500.02, -187500.02, -187500.02, 0.00, 0.00, 0.00
113, -187500.02, 15665.87, -187500.02, 39660.44, 35128.52, -187500.02, -187500.02, -187500.02, 0.00, 0.00, 0.00
114, -187500.02, 18170.31, -187500.02, 39189.02, 37374.11, -187500.02, -187500.02, -187500.02, 0.00, 0.00, 0.00
115, -187500.02, 20362.53, -187500.02, 39035.27, 39648.51, -187500.02, -187500.02, -187500.02, 0.00, 0.00, 0.00
116, -187500.02, 17906.32, -187500.02, 39422.31, 37480.50, -187500.02, -187500.02, -187500.02, 0.00, 0.00, 0.00
117, -187500.02, 15421.79, -187500.02, 39526.96, 34924.11, -187500.02, -187500.02, -187500.02, 0.00, 0.00, 0.00
118, -187500.02, 17298.75, -187500.02, 39070.65, 36533.43, -187500.02, -187500.02, -187500.02, 0.00, 0.00, 0.00
119, -187500.02, 20054.41, -187500.02, 38838.03, 39306.97, -187500.02, -187500.02, -187500.02, 0.00, 0.00, 0.00
120, -187500.02, 18362.56, -187500.02, 39187.79, 37902.54, -187500.02, -187500.02, -187500.02, 0.00, 0.00, 0.00
121, -187500.02, 15366.58, -187500.02, 39408.23, 34905.40, -187500.02, -187500.02, -187500.02, 0.00, 0.00, 0.00
122, -187500.02, 16537.45, -187500.02, 39042.37, 35808.88, -187500.02, -187500.02, -187500.02, 0.00, 0.00, 0.00
123, -187500.02, 19590.99, -187500.02, 38666.89, 38802.49, -187500.02, -187500.02, -187500.02, 0.00, 0.00, 0.00
124, -187500.02, 18790.13, -187500.02, 38928.33, 38275.44, -187500.02, -187500.02, -187500.02, 0.00, 0.00, 0.00
125, -187500.02, 15502.10, -187500.02, 39257.11, 35074.54, -187500.02, -187500.02, -187500.02, 0.00, 0.00, 0.00
126, -187500.02, 15853.33, -187500.02, 38965.53, 35164.39, -187500.02, -187500.02, -187500.02, 0.00, 0.00, 0.00
127, -187500.02, 19043.48, -187500.02, 38530.81, 38228.77, -187500.02, -187500.02, -187500.02, 0.00, 0.00, 0.00
128, -187500.02, 19173.13, -187500.02, 38679.02, 38605.21, -187500.02, -187500.02, -187500.02, 0.00, 0.00, 0.00
129, -187500.02, 15802.03, -187500.02, 39043.67, 35392.06, -187500.02, -187500.02, -187500.02, 0.00, 0.00, 0.00
130, -187500.02, 15291.23, -187500.02, 38858.06, 34654.21, -187500.02, -187500.02, -187500.02, 0.00, 0.00, 0.00
131, -187500.02, 18406.28, -187500.02, 38418.27, 37579.54, -187500.02, -187500.02, -187500.02, 0.00, 0.00, 0.00
132, -187500.02, 19435.80, -187500.02, 38452.62, 38799.30, -187500.02, -187500.02, -187500.02, 0.00, 0.00, 0.00
133, -187500.02, 16274.17, -187500.02, 38880.99, 35858.63, -187500.02, -187500.02, -187500.02, 0.00, 0.00, 0.00
134, -187500.02, 14933.18, -187500.02, 38834.12, 34342.00, -187500.02, -187500.02, -187500.02, 0.00, 0.00, 0.00
135, -187500.02, 17708.06, -187500.02, 38361.05, 36881.14, -187500.02, -187500.02, -187500.02, 0.00, 0.00, 0.00
136, -187500.02, 19541.01, -187500.02, 38275.30, 38843.33, -187500.02, -187500.02, -187500.02, 0.00, 0.00, 0.00
137, -187500.02, 16776.37, -187500.02, 38670.13, 36346.08, -187500.02, -187500.02, -187500.02, 0.00, 0.00, 0.00
138, -187500.02, 14672.82, -187500.02, 38726.09, 34134.60, -187500.02, -187500.02, -187500.02, 0.00, 0.00, 0.00
139, -187500.02, 16958.71, -187500.02, 38305.77, 36161.19, -187500.02, -187500.02, -187500.02, 0.00, 0.00, 0.00
140, -187500.02, 19430.57, -187500.02, 38106.50, 38685.26, -187500.02, -187500.02, -187500.02, 0.00, 0.00, 0.00
141, -187500.02, 17296.03, -187500.02, 38455.50, 36836.30, -187500.02, -187500.02, -187500.02, 0.00, 0.00, 0.00
142, -187500.02, 14581.96, -187500.02, 38633.16, 34084.13, -187500.02, -187500.02, -187500.02, 0.00, 0.00, 0.00
143, -187500.02, 16179.67, -187500.02, 38236.64, 35404.58, -187500.02, -187500.02, -187500.02, 0.00, 0.00, 0.00
144, -187500.02, 19105.78, -187500.02, 37939.87, 38313.39, -187500.02, -187500.02, -187500.02, 0.00, 0.00, 0.00
145, -187500.02, 17826.28, -187500.02, 38262.25, 37323.48, -187500.02, -187500.02, -187500.02, 0.00, 0.00, 0.00
146, -187500.02, 14680.71, -187500.02, 38526.65, 34211.11, -187500.02, -187500.02, -187500.02, 0.00, 0.00, 0.00
147, -187500.02, 15502.23, -187500.02, 38197.01, 34763.60, -187500.02, -187500.02, -187500.02, 0.00, 0.00, 0.00
148, -187500.02, 18673.68, -187500.02, 37818.77, 37848.92, -187500.02, -187500.02, -187500.02, 0.00, 0.00, 0.00
149, -187500.02, 18308.83, -187500.02, 38048.37, 37757.55, -187500.02, -187500.02, -187500.02, 0.00, 0.00, 0.00
150, -187500.02, 14984.45, -187500.02, 38431.30, 34551.35, -187500.02, -187500.02, -187500.02, 0.00, 0.00, 0.00
151, -187500.02, 14930.07, -187500.02, 38170.56, 34252.13, -187500.02, -187500.02, -187500.02, 0.00, 0.00, 0.00
152, -187500.02, 18129.07, -187500.02, 37747.71, 37290.13, -187500.02, -187500.02, -187500.02, 0.00, 0.00, 0.00
153, -187500.02, 18689.01, -187500.02, 37869.80, 38069.49, -187500.02, -187500.02, -187500.02, 0.00, 0.00, 0.00
154, -187500.02, 15384.95, -187500.02, 38279.15, 34959.67, -187500.02, -187500.02, -187500.02, 0.00, 0.00, 0.00
155, -187500.02, 14496.58, -187500.02, 38151.63, 33864.21, -187500.02, -187500.02, -187500.02, 0.00, 0.00, 0.00
156, -187500.02, 17493.50, -187500.02, 37711.04, 36648.41, -187500.02, -187500.02, -187500.02, 0.00, 0.00, 0.00
157, -187500.02, 18920.77, -187500.02, 37717.29, 38238.00, -187500.02, -187500.02, -187500.02, 0.00, 0.00, 0.00
158, -187500.02, 15920.63, -187500.02, 38142.85, 35479.14, -187500.02, -187500.02, -187500.02, 0.00, 0.00, 0.00
159, -187500.02, 14202.77, -187500.02, 38115.42, 33620.78, -187500.02, -187500.02, -187500.02, 0.00, 0.00, 0.00
160, -187500.02, 16786.47, -187500.02, 37684.28, 35960.07, -187500.02, -187500.02, -187500.02, 0.00, 0.00, 0.00
161, -187500.02, 18945.88, -187500.02, 37582.80, 38207.80, -187500.02, -187500.02, -187500.02, 0.00, 0.00, 0.00
162, -187500.02, 16473.75, -187500.02, 37996.20, 36012.59, -187500.02, -187500.02, -187500.02, 0.00, 0.00, 0.00
163, -187500.02, 14078.80, -187500.02, 38087.37, 33539.93, -187500.02, -187500.02, -187500.02, 0.00, 0.00, 0.00
164, -187500.02, 16049.51, -187500.02, 37646.55, 35243.52, -187500.02, -187500.02, -187500.02, 0.00, 0.00, 0.00
165, -187500.02, 18760.38, -187500.02, 37437.90, 37981.00, -187500.02, -187500.02, -187500.02, 0.00, 0.00, 0.00
166, -187500.02, 17010.44, -187500.02, 37805.58, 36527.82, -187500.02, -187500.02, -187500.02, 0.00, 0.00, 0.00
167, -187500.02, 14069.48, -187500.02, 37989.20, 33581.30, -187500.02, -187500.02, -187500.02, 0.00, 0.00, 0.00
168, -187500.02, 15343.33, -187500.02, 37625.20, 34580.34, -187500.02, -187500.02, -187500.02, 0.00, 0.00, 0.00
169, -187500.02, 18426.89, -187500.02, 37334.54, 37605.29, -187500.02, -187500.02, -187500.02, 0.00, 0.00, 0.00
170, -187500.02, 17525.24, -187500.02, 37610.70, 36988.07, -187500.02, -187500.02, -187500.02, 0.00, 0.00, 0.00
171, -187500.02, 14288.62, -187500.02, 37926.64, 33826.79, -187500.02, -187500.02, -187500.02, 0.00, 0.00, 0.00
172, -187500.02, 14757.47, -187500.02, 37651.80, 34037.30, -187500.02, -187500.02, -187500.02, 0.00, 0.00, 0.00
173, -187500.02, 17954.40, -187500.02, 37268.65, 37114.67, -187500.02, -187500.02, -187500.02, 0.00, 0.00, 0.00
174, -187500.02, 17969.97, -187500.02, 37447.04, 37378.06, -187500.02, -187500.02, -187500.02, 0.00, 0.00, 0.00
175, -187500.02, 14620.14, -187500.02, 37818.55, 34176.51, -187500.02, -187500.02, -187500.02, 0.00, 0.00, 0.00
176, -187500.02, 14220.18, -187500.02, 37625.43, 33553.75, -187500.02, -187500.02, -187500.02, 0.00, 0.00, 0.00
177, -187500.02, 17346.72, -187500.02, 37220.32, 36497.34, -187500.02, -187500.02, -187500.02, 0.00, 0.00, 0.00
178, -187500.02, 18232.25, -187500.02, 37255.71, 37578.15, -187500.02, -187500.02, -187500.02, 0.00, 0.00, 0.00
179, -187500.02, 15033.76, -187500.02, 37651.09, 34595.00, -187500.02, -187500.02, -187500.02, 0.00, 0.00, 0.00
180, -187500.02, 13829.52, -187500.02, 37584.19, 33211.81, -187500.02, -187500.02, -187500.02, 0.00, 0.00, 0.00
181, -187500.02, 16666.94, -187500.02, 37156.02, 35823.32, -187500.02, -187500.02, -187500.02, 0.00, 0.00, 0.00
182, -187500.02, 18406.88, -187500.02, 37138.67, 37696.93, -187500.02, -187500.02, -187500.02, 0.00, 0.00, 0.00
183, -187500.02, 15635.89, -187500.02, 37574.20, 35179.03, -187500.02, -187500.02, -187500.02, 0.00, 0.00, 0.00
184, -187500.02, 13658.32, -187500.02, 37577.33, 33083.71, -187500.02, -187500.02, -187500.02, 0.00, 0.00, 0.00
185, -187500.02, 16002.24, -187500.02, 37137.31, 35172.75, -187500.02, -187500.02, -187500.02, 0.00, 0.00, 0.00
186, -187500.02, 18380.26, -187500.02, 37009.97, 37619.84, -187500.02, -187500.02, -187500.02, 0.00, 0.00, 0.00
187, -187500.02, 16215.01, -187500.02, 37416.33, 35738.83, -187500.02, -187500.02, -187500.02, 0.00, 0.00, 0.00
188, -187500.02, 13646.77, -187500.02, 37531.71, 33116.50, -187500.02, -187500.02, -187500.02, 0.00, 0.00, 0.00
189, -187500.02, 15391.39, -187500.02, 37138.16, 34590.57, -187500.02, -187500.02, -187500.02, 0.00, 0.00, 0.00
190, -187500.02, 18246.35, -187500.02, 36905.32, 37445.27, -187500.02, -187500.02, -187500.02, 0.00, 0.00, 0.00
191, -187500.02, 16852.50, -187500.02, 37262.79, 36339.49, -187500.02, -187500.02, -187500.02, 0.00, 0.00, 0.00
192, -187500.02, 13819.97, -187500.02, 37520.22, 33332.84, -187500.02, -187500.02, -187500.02, 0.00, 0.00, 0.00
193, -187500.02, 14743.68, -187500.02, 37155.08, 33988.78, -187500.02, -187500.02, -187500.02, 0.00, 0.00, 0.00
194, -187500.02, 17858.80, -187500.02, 36834.87, 37029.20, -187500.02, -187500.02, -187500.02, 0.00, 0.00, 0.00
195, -187500.02, 17315.43, -187500.02, 37069.45, 36753.60, -187500.02, -187500.02, -187500.02, 0.00, 0.00, 0.00
196, -187500.02, 14006.45, -187500.02, 37378.22, 33549.25, -187500.02, -187500.02, -187500.02, 0.00, 0.00, 0.00
197, -187500.02, 14119.91, -187500.02, 37118.73, 33414.00, -187500.02, -187500.02, -187500.02, 0.00, 0.00, 0.00
198, -187500.02, 17296.79, -187500.02, 36742.78, 36444.23, -187500.02, -187500.02, -187500.02, 0.00, 0.00, 0.00
199, -187500.02, 17702.38, -187500.02, 36911.00, 37086.17, -187500.02, -187500.02, -187500.02, 0.00, 0.00, 0.00
200, -187500.02, 14402.66, -187500.02, 37293.04, 33963.45, -187500.02, -187500.02, -187500.02, 0.00, 0.00, 0.00
201, -187500.02, 13655.04, -187500.02, 37125.38, 33002.37, -187500.02, -187500.02, -187500.02, 0.00, 0.00, 0.00
202, -187500.02, 16661.53, -187500.02, 36704.49, 35809.93, -187500.02, -187500.02, -187500.02, 0.00, 0.00, 0.00
203, -187500.02, 17943.82, -187500.02, 36748.93, 37259.86, -187500.02, -187500.02, -187500.02, 0.00, 0.00, 0.00
204, -187500.02, 14920.91, -187500.02, 37169.90, 34469.79, -187500.02, -187500.02, -187500.02, 0.00, 0.00, 0.00
205, -187500.02, 13369.43, -187500.02, 37120.10, 32765.94, -187500.02, -187500.02, -187500.02, 0.00, 0.00, 0.00
206, -187500.02, 16022.94, -187500.02, 36704.20, 35186.99, -187500.02, -187500.02, -187500.02, 0.00, 0.00, 0.00
207, -187500.02, 18055.20, -187500.02, 36639.85, 37326.05, -187500.02, -187500.02, -187500.02, 0.00, 0.00, 0.00
208, -187500.02, 15523.49, -187500.02, 37062.97, 35064.77, -187500.02, -187500.02, -187500.02, 0.00, 0.00, 0.00
209, -187500.02, 13270.48, -187500.02, 37117.73, 32721.12, -187500.02, -187500.02, -187500.02, 0.00, 0.00, 0.00
210, -187500.02, 15379.63, -187500.02, 36717.25, 34563.11, -187500.02, -187500.02, -187500.02, 0.00, 0.00, 0.00
211, -187500.02, 17992.84, -187500.02, 36559.72, 37211.54, -187500.02, -187500.02, -187500.02, 0.00, 0.00, 0.00
212, -187500.02, 16130.78, -187500.02, 36934.94, 35634.96, -187500.02, -187500.02, -187500.02, 0.00, 0.00, 0.00
213, -187500.02, 13338.22, -187500.02, 37101.88, 32826.62, -187500.02, -187500.02, -187500.02, 0.00, 0.00, 0.00
214, -187500.02, 14732.79, -187500.02, 36707.82, 33955.88, -187500.02, -187500.02, -187500.02, 0.00, 0.00, 0.00
215, -187500.02, 17748.58, -187500.02, 36475.63, 36934.09, -187500.02, -187500.02, -187500.02, 0.00, 0.00, 0.00
216, -187500.02, 16730.26, -187500.02, 36809.43, 36193.75, -187500.02, -187500.02, -187500.02, 0.00, 0.00, 0.00
217, -187500.02, 13538.38, -187500.02, 37050.16, 33060.04, -187500.02, -187500.02, -187500.02, 0.00, 0.00, 0.00
218, -187500.02, 14149.35, -187500.02, 36737.80, 33417.53, -187500.02, -187500.02, -187500.02, 0.00, 0.00, 0.00
219, -187500.02, 17347.66, -187500.02, 36434.30, 36515.55, -187500.02, -187500.02, -187500.02, 0.00, 0.00, 0.00
220, -187500.02, 17253.36, -187500.02, 36691.86, 36676.15, -187500.02, -187500.02, -187500.02, 0.00, 0.00, 0.00
221, -187500.02, 13933.70, -187500.02, 37036.30, 33491.79, -187500.02, -187500.02, -187500.02, 0.00, 0.00, 0.00
222, -187500.02, 13693.80, -187500.02, 36815.78, 33018.98, -187500.02, -187500.02, -187500.02, 0.00, 0.00, 0.00
223, -187500.02, 16830.39, -187500.02, 36433.10, 35986.75, -187500.02, -187500.02, -187500.02, 0.00, 0.00, 0.00
224, -187500.02, 17638.43, -187500.02, 36564.19, 36996.07, -187500.02, -187500.02, -187500.02, 0.00, 0.00, 0.00
225, -187500.02, 14429.26, -187500.02, 36962.63, 33986.34, -187500.02, -187500.02, -187500.02, 0.00, 0.00, 0.00
226, -187500.02, 13335.99, -187500.02, 36858.72, 32704.31, -187500.02, -187500.02, -187500.02, 0.00, 0.00, 0.00
227, -187500.02, 16204.28, -187500.02, 36442.98, 35358.56, -187500.02, -187500.02, -187500.02, 0.00, 0.00, 0.00
228, -187500.02, 17831.97, -187500.02, 36439.73, 37133.64, -187500.02, -187500.02, -187500.02, 0.00, 0.00, 0.00
229, -187500.02, 14982.91, -187500.02, 36855.70, 34539.21, -187500.02, -187500.02, -187500.02, 0.00, 0.00, 0.00
230, -187500.02, 13090.14, -187500.02, 36883.28, 32521.07, -187500.02, -187500.02, -187500.02, 0.00, 0.00, 0.00
231, -187500.02, 15472.32, -187500.02, 36452.09, 34658.19, -187500.02, -187500.02, -187500.02, 0.00, 0.00, 0.00
232, -187500.02, 17793.62, -187500.02, 36325.63, 37051.73, -187500.02, -187500.02, -187500.02, 0.00, 0.00, 0.00
233, -187500.02, 15555.90, -187500.02, 36741.30, 35096.35, -187500.02, -187500.02, -187500.02, 0.00, 0.00, 0.00
234, -187500.02, 13009.18, -187500.02, 36899.98, 32496.51, -187500.02, -187500.02, -187500.02, 0.00, 0.00, 0.00
235, -187500.02, 14768.49, -187500.02, 36518.12, 33988.62, -187500.02, -187500.02, -187500.02, 0.00, 0.00, 0.00
236, -187500.02, 17604.14, -187500.02, 36288.82, 36817.99, -187500.02, -187500.02, -187500.02, 0.00, 0.00, 0.00
237, -187500.02, 16128.21, -187500.02, 36630.77, 35629.77, -187500.02, -187500.02, -187500.02, 0.00, 0.00, 0.00
238, -187500.02, 13061.26, -187500.02, 36858.00, 32584.95, -187500.02, -187500.02, -187500.02, 0.00, 0.00, 0.00
239, -187500.02, 14061.04, -187500.02, 36533.34, 33317.17, -187500.02, -187500.02, -187500.02, 0.00, 0.00, 0.00
240, -187500.02, 17166.05, -187500.02, 36187.52, 36351.96, -187500.02, -187500.02, -187500.02, 0.00, 0.00, 0.00
241, -187500.02, 16604.13, -187500.02, 36452.59, 36066.86, -187500.02, -187500.02, -187500.02, 0.00, 0.00, 0.00
242, -187500.02, 13298.91, -187500.02, 36795.69, 32862.41, -187500.02, -187500.02, -187500.02, 0.00, 0.00, 0.00
243, -187500.02, 13424.93, -187500.02, 36514.17, 32735.56, -187500.02, -187500.02, -187500.02, 0.00, 0.00, 0.00
244, -187500.02, 16625.99, -187500.02, 36119.66, 35792.50, -187500.02, -187500.02, -187500.02, 0.00, 0.00, 0.00
245, -187500.02, 16996.96, -187500.02, 36273.17, 36397.69, -187500.02, -187500.02, -187500.02, 0.00, 0.00, 0.00
246, -187500.02, 13684.81, -187500.02, 36677.09, 33254.68, -187500.02, -187500.02, -187500.02, 0.00, 0.00, 0.00
247, -187500.02, 12982.05, -187500.02, 36533.52, 32337.90, -187500.02, -187500.02, -187500.02, 0.00, 0.00, 0.00
248, -187500.02, 16012.88, -187500.02, 36095.68, 35179.05, -187500.02, -187500.02, -187500.02, 0.00, 0.00, 0.00
249, -187500.02, 17250.54, -187500.02, 36103.30, 36596.35, -187500.02, -187500.02, -187500.02, 0.00, 0.00, 0.00
250, -187500.02, 14155.69, -187500.02, 36499.19, 33730.14, -187500.02, -187500.02, -187500.02, 0.00, 0.00, 0.00
251, -187500.02, 12642.79, -187500.02, 36483.34, 32051.46, -187500.02, -187500.02, -187500.02, 0.00, 0.00, 0.00
252, -187500.02, 15331.28, -187500.02, 36060.79, 34498.11, -187500.02, -187500.02, -187500.02, 0.00, 0.00, 0.00
253, -187500.02, 17347.05, -187500.02, 35972.72, 36628.20, -187500.02, -187500.02, -187500.02, 0.00, 0.00, 0.00
254, -187500.02, 14778.15, -187500.02, 36402.79, 34335.61, -187500.02, -187500.02, -187500.02, 0.00, 0.00, 0.00
255, -187500.02, 12551.53, -187500.02, 36496.62, 32016.57, -187500.02, -187500.02, -187500.02, 0.00, 0.00, 0.00
0, -187500.02, 14671.10, -187500.02, 36094.22, 33874.47, -187500.02, -187500.02, -187500.02, 0.00, 0.00, 0.00
1, -187500.02, 17240.97, -187500.02, 35906.98, 36482.96, -187500.02, -187500.02, -187500.02, 0.00, 0.00, 0.00
2, -187500.02, 15341.54, -187500.02, 36265.01, 34871.83, -187500.02, -187500.02, -187500.02, 0.00, 0.00, 0.00
3, -187500.02, 12566.58, -187500.02, 36410.19, 32069.41, -187500.02, -187500.02, -187500.02, 0.00, 0.00, 0.00
4, -187500.02, 14030.84, -187500.02, 36040.31, 33257.72, -187500.02, -187500.02, -187500.02, 0.00, 0.00, 0.00
5, -187500.02, 16975.99, -187500.02, 35820.26, 36181.21, -187500.02, -187500.02, -187500.02, 0.00, 0.00, 0.00
6, -187500.02, 15831.20, -187500.02, 36147.31, 35327.24, -187500.02, -187500.02, -187500.02, 0.00, 0.00, 0.00
7, -187500.02, 12696.71, -187500.02, 36391.30, 32239.11, -187500.02, -187500.02, -187500.02, 0.00, 0.00, 0.00
8, -187500.02, 13408.21, -187500.02, 36053.68, 32683.64, -187500.02, -187500.02, -187500.02, 0.00, 0.00, 0.00
9, -187500.02, 16556.54, -187500.02, 35738.92, 35739.68, -187500.02, -187500.02, -187500.02, 0.00, 0.00, 0.00
10, -187500.02, 16303.23, -187500.02, 35981.25, 35746.76, -187500.02, -187500.02, -187500.02, 0.00, 0.00, 0.00
11, -187500.02, 13006.21, -187500.02, 36327.42, 32574.09, -187500.02, -187500.02, -187500.02, 0.00, 0.00, 0.00
12, -187500.02, 12866.98, -187500.02, 36061.77, 32192.88, -187500.02, -187500.02, -187500.02, 0.00, 0.00, 0.00
13, -187500.02, 16000.96, -187500.02, 35690.91, 35175.21, -187500.02, -187500.02, -187500.02, 0.00, 0.00, 0.00
14, -187500.02, 16658.29, -187500.02, 35846.70, 36050.90, -187500.02, -187500.02, -187500.02, 0.00, 0.00, 0.00
15, -187500.02, 13429.91, -187500.02, 36243.75, 33011.69, -187500.02, -187500.02, -187500.02, 0.00, 0.00, 0.00
16, -187500.02, 12434.50, -187500.02, 36063.33, 31816.57, -187500.02, -187500.02, -187500.02, 0.00, 0.00, 0.00
17, -187500.02, 15312.62, -187500.02, 35622.27, 34490.39, -187500.02, -187500.02, -187500.02, 0.00, 0.00, 0.00
18, -187500.02, 16827.87, -187500.02, 35674.86, 36161.79, -187500.02, -187500.02, -187500.02, 0.00, 0.00, 0.00
19, -187500.02, 13928.80, -187500.02, 36086.76, 33502.94, -187500.02, -187500.02, -187500.02, 0.00, 0.00, 0.00
20, -187500.02, 12160.89, -187500.02, 36021.36, 31596.22, -187500.02, -187500.02, -187500.02, 0.00, 0.00, 0.00
21, -187500.02, 14636.41, -187500.02, 35573.31, 33821.63, -187500.02, -187500.02, -187500.02, 0.00, 0.00, 0.00
22, -187500.02, 16849.33, -187500.02, 35504.61, 36125.94, -187500.02, -187500.02, -187500.02, 0.00, 0.00, 0.00
23, -187500.02, 14527.25, -187500.02, 35930.56, 34086.52, -187500.02, -187500.02, -187500.02, 0.00, 0.00, 0.00
24, -187500.02, 12086.66, -187500.02, 35980.23, 31577.20, -187500.02, -187500.02, -187500.02, 0.00, 0.00, 0.00
25, -187500.02, 13982.83, -187500.02, 35571.93, 33213.26, -187500.02, -187500.02, -187500.02, 0.00, 0.00, 0.00
26, -187500.02, 16730.91, -187500.02, 35409.32, 35972.65, -187500.02, -187500.02, -187500.02, 0.00, 0.00, 0.00
27, -187500.02, 15110.32, -187500.02, 35758.45, 34636.35, -187500.02, -187500.02, -187500.02, 0.00, 0.00, 0.00
28, -187500.02, 12172.27, -187500.02, 35935.77, 31699.98, -187500.02, -187500.02, -187500.02, 0.00, 0.00, 0.00
29, -187500.02, 13319.16, -187500.02, 35556.13, 32579.34, -187500.02, -187500.02, -187500.02, 0.00, 0.00, 0.00
30, -187500.02, 16374.91, -187500.02, 35297.05, 35581.81, -187500.02, -187500.02, -187500.02, 0.00, 0.00, 0.00
31, -187500.02, 15635.18, -187500.02, 35609.12, 35115.89, -187500.02, -187500.02, -187500.02, 0.00, 0.00, 0.00
32, -187500.02, 12407.23, -187500.02, 35901.62, 31963.57, -187500.02, -187500.02, -187500.02, 0.00, 0.00, 0.00
33, -187500.02, 12720.27, -187500.02, 35574.97, 32023.59, -187500.02, -187500.02, -187500.02, 0.00, 0.00, 0.00
34, -187500.02, 15859.88, -187500.02, 35223.35, 35042.26, -187500.02, -187500.02, -187500.02, 0.00, 0.00, 0.00
35, -187500.02, 16044.04, -187500.02, 35474.30, 35464.13, -187500.02, -187500.02, -187500.02, 0.00, 0.00, 0.00
36, -187500.02, 12727.78, -187500.02, 35833.38, 32297.44, -187500.02, -187500.02, -187500.02, 0.00, 0.00, 0.00
37, -187500.02, 12149.67, -187500.02, 35554.94, 31495.53, -187500.02, -187500.02, -187500.02, 0.00, 0.00, 0.00
38, -187500.02, 15162.13, -187500.02, 35135.29, 34339.23, -187500.02, -187500.02, -187500.02, 0.00, 0.00, 0.00
39, -187500.02, 16224.77, -187500.02, 35263.50, 35590.64, -187500.02, -187500.02, -187500.02, 0.00, 0.00, 0.00
40, -187500.02, 13121.28, -187500.02, 35671.15, 32696.64, -187500.02, -187500.02, -187500.02, 0.00, 0.00, 0.00
41, -187500.02, 11774.21, -187500.02, 35546.65, 31175.83, -187500.02, -187500.02, -187500.02, 0.00, 0.00, 0.00
42, -187500.02, 14511.36, -187500.02, 35133.25, 33690.00, -187500.02, -187500.02, -187500.02, 0.00, 0.00, 0.00
43, -187500.02, 16343.01, -187500.02, 35129.32, 35648.66, -187500.02, -187500.02, -187500.02, 0.00, 0.00, 0.00
44, -187500.02, 13657.99, -187500.02, 35530.85, 33226.22, -187500.02, -187500.02, -187500.02, 0.00, 0.00, 0.00
45, -187500.02, 11558.15, -187500.02, 35508.45, 31015.48, -187500.02, -187500.02, -187500.02, 0.00, 0.00, 0.00
46, -187500.02, 13755.24, -187500.02, 35045.72, 32955.21, -187500.02, -187500.02, -187500.02, 0.00, 0.00, 0.00
47, -187500.02, 16215.25, -187500.02, 34923.17, 35468.04, -187500.02, -187500.02, -187500.02, 0.00, 0.00, 0.00
48, -187500.02, 14196.24, -187500.02, 35320.65, 33737.23, -187500.02, -187500.02, -187500.02, 0.00, 0.00, 0.00
49, -187500.02, 11516.24, -187500.02, 35443.92, 31020.22, -187500.02, -187500.02, -187500.02, 0.00, 0.00, 0.00
50, -187500.02, 13057.87, -187500.02, 35017.85, 32290.20, -187500.02, -187500.02, -187500.02, 0.00, 0.00, 0.00
51, -187500.02, 15964.51, -187500.02, 34806.38, 35174.71, -187500.02, -187500.02, -187500.02, 0.00, 0.00, 0.00
52, -187500.02, 14741.56, -187500.02, 35148.99, 34235.63, -187500.02, -187500.02, -187500.02, 0.00, 0.00, 0.00
53, -187500.02, 11652.70, -187500.02, 35382.09, 31193.94, -187500.02, -187500.02, -187500.02, 0.00, 0.00, 0.00
54, -187500.02, 12445.09, -187500.02, 35036.05, 31721.53, -187500.02, -187500.02, -187500.02, 0.00, 0.00, 0.00
55, -187500.02, 15579.97, -187500.02, 34737.79, 34762.75, -187500.02, -187500.02, -187500.02, 0.00, 0.00, 0.00
56, -187500.02, 15248.05, -187500.02, 35005.98, 34688.59, -187500.02, -187500.02, -187500.02, 0.00, 0.00, 0.00
57, -187500.02, 11939.52, -187500.02, 35306.39, 31493.03, -187500.02, -187500.02, -187500.02, 0.00, 0.00, 0.00
58, -187500.02, 11880.44, -187500.02, 35021.07, 31191.97, -187500.02, -187500.02, -187500.02, 0.00, 0.00, 0.00
59, -187500.02, 15015.25, -187500.02, 34650.28, 34180.96, -187500.02, -187500.02, -187500.02, 0.00, 0.00, 0.00
60, -187500.02, 15590.36, -187500.02, 34826.50, 34981.42, -187500.02, -187500.02, -187500.02, 0.00, 0.00, 0.00
61, -187500.02, 12344.22, -187500.02, 35196.44, 31915.83, -187500.02, -187500.02, -187500.02, 0.00, 0.00, 0.00
62, -187500.02, 11446.46, -187500.02, 35006.56, 30815.88, -187500.02, -187500.02, -187500.02, 0.00, 0.00, 0.00
63, -187500.02, 14373.51, -187500.02, 34594.22, 33540.80, -187500.02, -187500.02, -187500.02, 0.00, 0.00, 0.00
64, -187500.02, 15781.96, -187500.02, 34655.08, 35109.96, -187500.02, -187500.02, -187500.02, 0.00, 0.00, 0.00
65, -187500.02, 12835.31, -187500.02, 35065.37, 32404.98, -187500.02, -187500.02, -187500.02, 0.00, 0.00, 0.00
66, -187500.02, 11152.18, -187500.02, 34993.20, 30576.13, -187500.02, -187500.02, -187500.02, 0.00, 0.00, 0.00
67, -187500.02, 13648.33, -187500.02, 34531.43, 32827.40, -187500.02, -187500.02, -187500.02, 0.00, 0.00, 0.00
68, -187500.02, 15781.58, -187500.02, 34484.36, 35055.80, -187500.02, -187500.02, -187500.02, 0.00, 0.00, 0.00
69, -187500.02, 13371.24, -187500.02, 34898.52, 32922.29, -187500.02, -187500.02, -187500.02, 0.00, 0.00, 0.00
70, -187500.02, 10954.79, -187500.02, 34887.90, 30428.57, -187500.02, -187500.02, -187500.02, 0.00, 0.00, 0.00
71, -187500.02, 12912.36, -187500.02, 34475.17, 32121.65, -187500.02, -187500.02, -187500.02, 0.00, 0.00, 0.00
72, -187500.02, 15585.22, -187500.02, 34310.84, 34814.14, -187500.02, -187500.02, -187500.02, 0.00, 0.00, 0.00
73, -187500.02, 13874.64, -187500.02, 34655.53, 33387.71, -187500.02, -187500.02, -187500.02, 0.00, 0.00, 0.00
74, -187500.02, 11001.21, -187500.02, 34836.29, 30513.48, -187500.02, -187500.02, -187500.02, 0.00, 0.00, 0.00
75, -187500.02, 12217.98, -187500.02, 34439.43, 31456.26, -187500.02, -187500.02, -187500.02, 0.00, 0.00, 0.00
76, -187500.02, 15252.85, -187500.02, 34183.24, 34439.81, -187500.02, -187500.02, -187500.02, 0.00, 0.00, 0.00
77, -187500.02, 14434.38, -187500.02, 34495.42, 33899.70, -187500.02, -187500.02, -187500.02, 0.00, 0.00, 0.00
78, -187500.02, 11202.05, -187500.02, 34725.20, 30739.28, -187500.02, -187500.02, -187500.02, 0.00, 0.00, 0.00
79, -187500.02, 11629.81, -187500.02, 34415.45, 30908.79, -187500.02, -187500.02, -187500.02, 0.00, 0.00, 0.00
80, -187500.02, 14786.30, -187500.02, 34072.75, 33952.84, -187500.02, -187500.02, -187500.02, 0.00, 0.00, 0.00
81, -187500.02, 14863.89, -187500.02, 34292.36, 34280.94, -187500.02, -187500.02, -187500.02, 0.00, 0.00, 0.00
82, -187500.02, 11578.36, -187500.02, 34639.48, 31136.74, -187500.02, -187500.02, -187500.02, 0.00, 0.00, 0.00
83, -187500.02, 11162.21, -187500.02, 34416.57, 30493.34, -187500.02, -187500.02, -187500.02, 0.00, 0.00, 0.00
84, -187500.02, 14243.67, -187500.02, 34031.67, 33402.20, -187500.02, -187500.02, -187500.02, 0.00, 0.00, 0.00
85, -187500.02, 15199.10, -187500.02, 34138.00, 34551.91, -187500.02, -187500.02, -187500.02, 0.00, 0.00, 0.00
86, -187500.02, 12072.80, -187500.02, 34535.43, 31633.15, -187500.02, -187500.02, -187500.02, 0.00, 0.00, 0.00
87, -187500.02, 10815.63, -187500.02, 34400.72, 30200.33, -187500.02, -187500.02, -187500.02, 0.00, 0.00, 0.00
88, -187500.02, 13605.71, -187500.02, 33999.66, 32771.97, -187500.02, -187500.02, -187500.02, 0.00, 0.00, 0.00
89, -187500.02, 15375.45, -187500.02, 34017.21, 34671.11, -187500.02, -187500.02, -187500.02, 0.00, 0.00, 0.00
90, -187500.02, 12659.31, -187500.02, 34455.61, 32212.80, -187500.02, -187500.02, -187500.02, 0.00, 0.00, 0.00
91, -187500.02, 10633.91, -187500.02, 34430.87, 30070.11, -187500.02, -187500.02, -187500.02, 0.00, 0.00, 0.00
92, -187500.02, 12889.27, -187500.02, 33976.77, 32071.69, -187500.02, -187500.02, -187500.02, 0.00, 0.00, 0.00
93, -187500.02, 15276.48, -187500.02, 33856.88, 34522.78, -187500.02, -187500.02, -187500.02, 0.00, 0.00, 0.00
94, -187500.02, 13179.86, -187500.02, 34273.52, 32713.95, -187500.02, -187500.02, -187500.02, 0.00, 0.00, 0.00
95, -187500.02, 10534.20, -187500.02, 34366.72, 30025.28, -187500.02, -187500.02, -187500.02, 0.00, 0.00, 0.00
96, -187500.02, 12145.78, -187500.02, 33939.02, 31368.08, -187500.02, -187500.02, -187500.02, 0.00, 0.00, 0.00
97, -187500.02, 14989.26, -187500.02, 33705.34, 34202.77, -187500.02, -187500.02, -187500.02, 0.00, 0.00, 0.00
98, -187500.02, 13692.99, -187500.02, 34070.96, 33192.29, -187500.02, -187500.02, -187500.02, 0.00, 0.00, 0.00
99, -187500.02, 10637.66, -187500.02, 34299.36, 30161.96, -187500.02, -187500.02, -187500.02, 0.00, 0.00, 0.00
100, -187500.02, 11498.32, -187500.02, 33939.94, 30752.18, -187500.02, -187500.02, -187500.02, 0.00, 0.00, 0.00
101, -187500.02, 14607.96, -187500.02, 33632.56, 33784.41, -187500.02, -187500.02, -187500.02, 0.00, 0.00, 0.00
102, -187500.02, 14218.86, -187500.02, 33939.56, 33664.09, -187500.02, -187500.02, -187500.02, 0.00, 0.00, 0.00
103, -187500.02, 10928.17, -187500.02, 34247.30, 30482.39, -187500.02, -187500.02, -187500.02, 0.00, 0.00, 0.00
104, -187500.02, 10938.81, -187500.02, 33963.56, 30244.32, -187500.02, -187500.02, -187500.02, 0.00, 0.00, 0.00
105, -187500.02, 14080.21, -187500.02, 33600.19, 33240.20, -187500.02, -187500.02, -187500.02, 0.00, 0.00, 0.00
106, -187500.02, 14572.80, -187500.02, 33790.41, 33960.23, -187500.02, -187500.02, -187500.02, 0.00, 0.00, 0.00
107, -187500.02, 11318.86, -187500.02, 34184.40, 30884.72, -187500.02, -187500.02, -187500.02, 0.00, 0.00, 0.00
108, -187500.02, 10476.58, -187500.02, 33987.14, 29834.24, -187500.02, -187500.02, -187500.02, 0.00, 0.00, 0.00
109, -187500.02, 13437.60, -187500.02, 33587.83, 32595.19, -187500.02, -187500.02, -187500.02, 0.00, 0.00, 0.00
110, -187500.02, 14770.21, -187500.02, 33647.96, 34095.64, -187500.02, -187500.02, -187500.02, 0.00, 0.00, 0.00
111, -187500.02, 11793.52, -187500.02, 34080.62, 31356.72, -187500.02, -187500.02, -187500.02, 0.00, 0.00, 0.00
112, -187500.02, 10175.52, -187500.02, 34028.05, 29589.51, -187500.02, -187500.02, -187500.02, 0.00, 0.00, 0.00
113, -187500.02, 12740.81, -187500.02, 33616.17, 31917.91, -187500.02, -187500.02, -187500.02, 0.00, 0.00, 0.00
114, -187500.02, 14804.28, -187500.02, 33566.33, 34081.47, -187500.02, -187500.02, -187500.02, 0.00, 0.00, 0.00
115, -187500.02, 12323.05, -187500.02, 33979.01, 31868.29, -187500.02, -187500.02, -187500.02, 0.00, 0.00, 0.00
116, -187500.02, 9978.80, -187500.02, 34005.47, 29437.98, -187500.02, -187500.02, -187500.02, 0.00, 0.00, 0.00
117, -187500.02, 11969.58, -187500.02, 33584.34, 31168.23, -187500.02, -187500.02, -187500.02, 0.00, 0.00, 0.00
118, -187500.02, 14596.81, -187500.02, 33417.04, 33819.64, -187500.02, -187500.02, -187500.02, 0.00, 0.00, 0.00
119, -187500.02, 12846.73, -187500.02, 33809.61, 32357.19, -187500.02, -187500.02, -187500.02, 0.00, 0.00, 0.00
120, -187500.02, 9996.79, -187500.02, 33975.23, 29497.66, -187500.02, -187500.02, -187500.02, 0.00, 0.00, 0.00
121, -187500.02, 11277.04, -187500.02, 33581.64, 30507.47, -187500.02, -187500.02, -187500.02, 0.00, 0.00, 0.00
122, -187500.02, 14271.05, -187500.02, 33328.59, 33459.53, -187500.02, -187500.02, -187500.02, 0.00, 0.00, 0.00
123, -187500.02, 13373.50, -187500.02, 33669.19, 32844.21, -187500.02, -187500.02, -187500.02, 0.00, 0.00, 0.00
124, -187500.02, 10178.49, -187500.02, 33940.72, 29716.11, -187500.02, -187500.02, -187500.02, 0.00, 0.00, 0.00
125, -187500.02, 10656.06, -187500.02, 33615.30, 29935.11, -187500.02, -187500.02, -187500.02, 0.00, 0.00, 0.00
126, -187500.02, 13796.52, -187500.02, 33273.12, 32969.00, -187500.02, -187500.02, -187500.02, 0.00, 0.00, 0.00
127, -187500.02, 13773.93, -187500.02, 33480.50, 33194.84, -187500.02, -187500.02, -187500.02, 0.00, 0.00, 0.00
128, -187500.02, 10467.95, -187500.02, 33811.80, 30025.97, -187500.02, -187500.02, -187500.02, 0.00, 0.00, 0.00
129, -187500.02, 10110.10, -187500.02, 33579.88, 29439.62, -187500.02, -187500.02, -187500.02, 0.00, 0.00, 0.00
130, -187500.02, 13204.81, -187500.02, 33206.00, 32363.56, -187500.02, -187500.02, -187500.02, 0.00, 0.00, 0.00
131, -187500.02, 14100.91, -187500.02, 33346.81, 33463.87, -187500.02, -187500.02, -187500.02, 0.00, 0.00, 0.00
132, -187500.02, 10943.57, -187500.02, 33741.34, 30508.77, -187500.02, -187500.02, -187500.02, 0.00, 0.00, 0.00
133, -187500.02, 9751.13, -187500.02, 33603.30, 29128.66, -187500.02, -187500.02, -187500.02, 0.00, 0.00, 0.00
134, -187500.02, 12540.58, -187500.02, 33173.41, 31704.70, -187500.02, -187500.02, -187500.02, 0.00, 0.00, 0.00
135, -187500.02, 14250.33, -187500.02, 33199.56, 33552.96, -187500.02, -187500.02, -187500.02, 0.00, 0.00, 0.00
136, -187500.02, 11505.90, -187500.02, 33636.27, 31058.60, -187500.02, -187500.02, -187500.02, 0.00, 0.00, 0.00
137, -187500.02, 9589.39, -187500.02, 33638.68, 29020.19, -187500.02, -187500.02, -187500.02, 0.00, 0.00, 0.00
138, -187500.02, 11909.66, -187500.02, 33214.47, 31099.48, -187500.02, -187500.02, -187500.02, 0.00, 0.00, 0.00
139, -187500.02, 14230.53, -187500.02, 33092.81, 33488.48, -187500.02, -187500.02, -187500.02, 0.00, 0.00, 0.00
140, -187500.02, 12069.25, -187500.02, 33490.40, 31605.90, -187500.02, -187500.02, -187500.02, 0.00, 0.00, 0.00
141, -187500.02, 9512.10, -187500.02, 33595.81, 28991.22, -187500.02, -187500.02, -187500.02, 0.00, 0.00, 0.00
142, -187500.02, 11188.14, -187500.02, 33170.19, 30399.82, -187500.02, -187500.02, -187500.02, 0.00, 0.00, 0.00
143, -187500.02, 13995.50, -187500.02, 32957.31, 33204.68, -187500.02, -187500.02, -187500.02, 0.00, 0.00, 0.00
144, -187500.02, 12626.39, -187500.02, 33326.25, 32121.69, -187500.02, -187500.02, -187500.02, 0.00, 0.00, 0.00
145, -187500.02, 9613.04, -187500.02, 33534.16, 29127.85, -187500.02, -187500.02, -187500.02, 0.00, 0.00, 0.00
146, -187500.02, 10543.70, -187500.02, 33154.74, 29789.58, -187500.02, -187500.02, -187500.02, 0.00, 0.00, 0.00
147, -187500.02, 13633.96, -187500.02, 32871.17, 32801.72, -187500.02, -187500.02, -187500.02, 0.00, 0.00, 0.00
148, -187500.02, 13133.46, -187500.02, 33160.24, 32565.02, -187500.02, -187500.02, -187500.02, 0.00, 0.00, 0.00
149, -187500.02, 9874.31, -187500.02, 33455.49, 29411.30, -187500.02, -187500.02, -187500.02, 0.00, 0.00, 0.00
150, -187500.02, 9985.78, -187500.02, 33154.50, 29276.52, -187500.02, -187500.02, -187500.02, 0.00, 0.00, 0.00
151, -187500.02, 13130.11, -187500.02, 32805.52, 32280.79, -187500.02, -187500.02, -187500.02, 0.00, 0.00, 0.00
152, -187500.02, 13532.04, -187500.02, 33001.93, 32913.79, -187500.02, -187500.02, -187500.02, 0.00, 0.00, 0.00
153, -187500.02, 10255.94, -187500.02, 33344.24, 29813.16, -187500.02, -187500.02, -187500.02, 0.00, 0.00, 0.00
154, -187500.02, 9528.77, -187500.02, 33139.01, 28870.96, -187500.02, -187500.02, -187500.02, 0.00, 0.00, 0.00
155, -187500.02, 12503.21, -187500.02, 32737.68, 31652.06, -187500.02, -187500.02, -187500.02, 0.00, 0.00, 0.00
156, -187500.02, 13767.58, -187500.02, 32823.94, 33088.05, -187500.02, -187500.02, -187500.02, 0.00, 0.00, 0.00
157, -187500.02, 10782.10, -187500.02, 33242.05, 30334.27, -187500.02, -187500.02, -187500.02, 0.00, 0.00, 0.00
158, -187500.02, 9256.39, -187500.02, 33141.38, 28652.92, -187500.02, -187500.02, -187500.02, 0.00, 0.00, 0.00
159, -187500.02, 11884.51, -187500.02, 32752.59, 31050.35, -187500.02, -187500.02, -187500.02, 0.00, 0.00, 0.00
160, -187500.02, 13864.74, -187500.02, 32711.02, 33139.97, -187500.02, -187500.02, -187500.02, 0.00, 0.00, 0.00
161, -187500.02, 11359.33, -187500.02, 33134.98, 30900.73, -187500.02, -187500.02, -187500.02, 0.00, 0.00, 0.00
162, -187500.02, 9145.73, -187500.02, 33168.09, 28593.65, -187500.02, -187500.02, -187500.02, 0.00, 0.00, 0.00
163, -187500.02, 11182.93, -187500.02, 32723.94, 30371.91, -187500.02, -187500.02, -187500.02, 0.00, 0.00, 0.00
164, -187500.02, 13743.39, -187500.02, 32581.40, 32966.90, -187500.02, -187500.02, -187500.02, 0.00, 0.00, 0.00
165, -187500.02, 11923.40, -187500.02, 32974.03, 31431.16, -187500.02, -187500.02, -187500.02, 0.00, 0.00, 0.00
166, -187500.02, 9146.54, -187500.02, 33109.91, 28634.82, -187500.02, -187500.02, -187500.02, 0.00, 0.00, 0.00
167, -187500.02, 10518.31, -187500.02, 32714.08, 29740.09, -187500.02, -187500.02, -187500.02, 0.00, 0.00, 0.00
168, -187500.02, 13474.28, -187500.02, 32492.80, 32660.99, -187500.02, -187500.02, -187500.02, 0.00, 0.00, 0.00
169, -187500.02, 12474.60, -187500.02, 32822.08, 31948.15, -187500.02, -187500.02, -187500.02, 0.00, 0.00, 0.00
170, -187500.02, 9353.15, -187500.02, 33072.91, 28884.33, -187500.02, -187500.02, -187500.02, 0.00, 0.00, 0.00
171, -187500.02, 9933.50, -187500.02, 32716.98, 29204.52, -187500.02, -187500.02, -187500.02, 0.00, 0.00, 0.00
172, -187500.02, 13061.24, -187500.02, 32405.20, 32231.15, -187500.02, -187500.02, -187500.02, 0.00, 0.00, 0.00
173, -187500.02, 12998.34, -187500.02, 32691.15, 32418.23, -187500.02, -187500.02, -187500.02, 0.00, 0.00, 0.00
174, -187500.02, 9735.59, -187500.02, 33018.75, 29289.93, -187500.02, -187500.02, -187500.02, 0.00, 0.00, 0.00
175, -187500.02, 9473.07, -187500.02, 32741.97, 28792.62, -187500.02, -187500.02, -187500.02, 0.00, 0.00, 0.00
176, -187500.02, 12577.08, -187500.02, 32393.82, 31731.54, -187500.02, -187500.02, -187500.02, 0.00, 0.00, 0.00
177, -187500.02, 13365.74, -187500.02, 32554.80, 32727.83, -187500.02, -187500.02, -187500.02, 0.00, 0.00, 0.00
178, -187500.02, 10199.01, -187500.02, 32926.55, 29757.46, -187500.02, -187500.02, -187500.02, 0.00, 0.00, 0.00
179, -187500.02, 9131.60, -187500.02, 32777.07, 28502.74, -187500.02, -187500.02, -187500.02, 0.00, 0.00, 0.00
180, -187500.02, 11951.12, -187500.02, 32371.11, 31113.56, -187500.02, -187500.02, -187500.02, 0.00, 0.00, 0.00
181, -187500.02, 13551.24, -187500.02, 32435.29, 32854.00, -187500.02, -187500.02, -187500.02, 0.00, 0.00, 0.00
182, -187500.02, 10726.40, -187500.02, 32846.98, 30278.77, -187500.02, -187500.02, -187500.02, 0.00, 0.00, 0.00
183, -187500.02, 8909.25, -187500.02, 32822.30, 28327.95, -187500.02, -187500.02, -187500.02, 0.00, 0.00, 0.00
184, -187500.02, 11289.89, -187500.02, 32408.04, 30461.18, -187500.02, -187500.02, -187500.02, 0.00, 0.00, 0.00
185, -187500.02, 13562.39, -187500.02, 32365.95, 32812.23, -187500.02, -187500.02, -187500.02, 0.00, 0.00, 0.00
186, -187500.02, 11326.99, -187500.02, 32762.43, 30857.83, -187500.02, -187500.02, -187500.02, 0.00, 0.00, 0.00
187, -187500.02, 8853.06, -187500.02, 32821.34, 28320.62, -187500.02, -187500.02, -187500.02, 0.00, 0.00, 0.00
188, -187500.02, 10621.71, -187500.02, 32408.40, 29824.91, -187500.02, -187500.02, -187500.02, 0.00, 0.00, 0.00
189, -187500.02, 13343.83, -187500.02, 32207.05, 32548.45, -187500.02, -187500.02, -187500.02, 0.00, 0.00, 0.00
190, -187500.02, 11876.89, -187500.02, 32565.73, 31367.21, -187500.02, -187500.02, -187500.02, 0.00, 0.00, 0.00
191, -187500.02, 8924.47, -187500.02, 32732.09, 28427.26, -187500.02, -187500.02, -187500.02, 0.00, 0.00, 0.00
192, -187500.02, 9967.80, -187500.02, 32358.06, 29204.41, -187500.02, -187500.02, -187500.02, 0.00, 0.00, 0.00
193, -187500.02, 13018.91, -187500.02, 32107.83, 32198.27, -187500.02, -187500.02, -187500.02, 0.00, 0.00, 0.00
194, -187500.02, 12432.73, -187500.02, 32419.82, 31881.32, -187500.02, -187500.02, -187500.02, 0.00, 0.00, 0.00
195, -187500.02, 9195.91, -187500.02, 32669.55, 28734.28, -187500.02, -187500.02, -187500.02, 0.00, 0.00, 0.00
196, -187500.02, 9424.63, -187500.02, 32368.81, 28716.13, -187500.02, -187500.02, -187500.02, 0.00, 0.00, 0.00
197, -187500.02, 12554.50, -187500.02, 32039.46, 31715.43, -187500.02, -187500.02, -187500.02, 0.00, 0.00, 0.00
198, -187500.02, 12870.87, -187500.02, 32268.41, 32268.45, -187500.02, -187500.02, -187500.02, 0.00, 0.00, 0.00
199, -187500.02, 9628.04, -187500.02, 32610.61, 29186.73, -187500.02, -187500.02, -187500.02, 0.00, 0.00, 0.00
200, -187500.02, 9002.57, -187500.02, 32394.45, 28341.61, -187500.02, -187500.02, -187500.02, 0.00, 0.00, 0.00
201, -187500.02, 12005.97, -187500.02, 32023.05, 31158.91, -187500.02, -187500.02, -187500.02, 0.00, 0.00, 0.00
202, -187500.02, 13172.89, -187500.02, 32139.01, 32508.94, -187500.02, -187500.02, -187500.02, 0.00, 0.00, 0.00
203, -187500.02, 10172.30, -187500.02, 32554.15, 29729.56, -187500.02, -187500.02, -187500.02, 0.00, 0.00, 0.00
204, -187500.02, 8727.01, -187500.02, 32437.21, 28118.47, -187500.02, -187500.02, -187500.02, 0.00, 0.00, 0.00
205, -187500.02, 11372.39, -187500.02, 32025.56, 30538.83, -187500.02, -187500.02, -187500.02, 0.00, 0.00, 0.00
206, -187500.02, 13300.76, -187500.02, 32042.45, 32580.08, -187500.02, -187500.02, -187500.02, 0.00, 0.00, 0.00
207, -187500.02, 10716.61, -187500.02, 32435.42, 30260.60, -187500.02, -187500.02, -187500.02, 0.00, 0.00, 0.00
208, -187500.02, 8578.84, -187500.02, 32447.09, 28027.28, -187500.02, -187500.02, -187500.02, 0.00, 0.00, 0.00
209, -187500.02, 10707.87, -187500.02, 32039.12, 29899.55, -187500.02, -187500.02, -187500.02, 0.00, 0.00, 0.00
210, -187500.02, 13206.73, -187500.02, 31928.17, 32442.95, -187500.02, -187500.02, -187500.02, 0.00, 0.00, 0.00
211, -187500.02, 11302.85, -187500.02, 32314.25, 30822.63, -187500.02, -187500.02, -187500.02, 0.00, 0.00, 0.00
212, -187500.02, 8596.70, -187500.02, 32443.69, 28090.13, -187500.02, -187500.02, -187500.02, 0.00, 0.00, 0.00
213, -187500.02, 10045.23, -187500.02, 32053.25, 29271.46, -187500.02, -187500.02, -187500.02, 0.00, 0.00, 0.00
214, -187500.02, 12947.31, -187500.02, 31849.80, 32144.76, -187500.02, -187500.02, -187500.02, 0.00, 0.00, 0.00
215, -187500.02, 11859.08, -187500.02, 32191.56, 31333.68, -187500.02, -187500.02, -187500.02, 0.00, 0.00, 0.00
216, -187500.02, 8729.92, -187500.02, 32383.01, 28256.47, -187500.02, -187500.02, -187500.02, 0.00, 0.00, 0.00
217, -187500.02, 9402.78, -187500.02, 32034.45, 28671.19, -187500.02, -187500.02, -187500.02, 0.00, 0.00, 0.00
218, -187500.02, 12513.60, -187500.02, 31761.27, 31693.05, -187500.02, -187500.02, -187500.02, 0.00, 0.00, 0.00
219, -187500.02, 12330.07, -187500.02, 32038.72, 31759.82, -187500.02, -187500.02, -187500.02, 0.00, 0.00, 0.00
220, -187500.02, 9073.47, -187500.02, 32345.77, 28622.71, -187500.02, -187500.02, -187500.02, 0.00, 0.00, 0.00
221, -187500.02, 8898.36, -187500.02, 32047.57, 28213.35, -187500.02, -187500.02, -187500.02, 0.00, 0.00, 0.00
222, -187500.02, 12012.03, -187500.02, 31725.39, 31175.03, -187500.02, -187500.02, -187500.02, 0.00, 0.00, 0.00
223, -187500.02, 12702.56, -187500.02, 31896.77, 32076.50, -187500.02, -187500.02, -187500.02, 0.00, 0.00, 0.00
224, -187500.02, 9514.94, -187500.02, 32236.94, 29077.45, -187500.02, -187500.02, -187500.02, 0.00, 0.00, 0.00
225, -187500.02, 8534.83, -187500.02, 32072.94, 27902.75, -187500.02, -187500.02, -187500.02, 0.00, 0.00, 0.00
226, -187500.02, 11407.79, -187500.02, 31695.46, 30576.76, -187500.02, -187500.02, -187500.02, 0.00, 0.00, 0.00
227, -187500.02, 12921.83, -187500.02, 31763.30, 32245.79, -187500.02, -187500.02, -187500.02, 0.00, 0.00, 0.00
228, -187500.02, 10096.60, -187500.02, 32168.16, 29656.99, -187500.02, -187500.02, -187500.02, 0.00, 0.00, 0.00
229, -187500.02, 8323.25, -187500.02, 32095.03, 27747.77, -187500.02, -187500.02, -187500.02, 0.00, 0.00, 0.00
230, -187500.02, 10773.14, -187500.02, 31702.46, 29961.98, -187500.02, -187500.02, -187500.02, 0.00, 0.00, 0.00
231, -187500.02, 12979.43, -187500.02, 31666.99, 32248.78, -187500.02, -187500.02, -187500.02, 0.00, 0.00, 0.00
232, -187500.02, 10694.15, -187500.02, 32065.83, 30234.49, -187500.02, -187500.02, -187500.02, 0.00, 0.00, 0.00
233, -187500.02, 8285.63, -187500.02, 32119.32, 27757.47, -187500.02, -187500.02, -187500.02, 0.00, 0.00, 0.00
234, -187500.02, 10124.18, -187500.02, 31711.60, 29336.28, -187500.02, -187500.02, -187500.02, 0.00, 0.00, 0.00
235, -187500.02, 12827.84, -187500.02, 31559.16, 32050.81, -187500.02, -187500.02, -187500.02, 0.00, 0.00, 0.00
236, -187500.02, 11278.20, -187500.02, 31924.97, 30781.84, -187500.02, -187500.02, -187500.02, 0.00, 0.00, 0.00
237, -187500.02, 8388.70, -187500.02, 32103.83, 27902.96, -187500.02, -187500.02, -187500.02, 0.00, 0.00, 0.00
238, -187500.02, 9497.32, -187500.02, 31730.51, 28751.18, -187500.02, -187500.02, -187500.02, 0.00, 0.00, 0.00
239, -187500.02, 12515.37, -187500.02, 31528.45, 31711.56, -187500.02, -187500.02, -187500.02, 0.00, 0.00, 0.00
240, -187500.02, 11812.47, -187500.02, 31879.40, 31275.10, -187500.02, -187500.02, -187500.02, 0.00, 0.00, 0.00
241, -187500.02, 8621.47, -187500.02, 32199.45, 28163.29, -187500.02, -187500.02, -187500.02, 0.00, 0.00, 0.00
242, -187500.02, 8895.73, -187500.02, 31901.50, 28189.53, -187500.02, -187500.02, -187500.02, 0.00, 0.00, 0.00
243, -187500.02, 11990.12, -187500.02, 31606.35, 31163.16, -187500.02, -187500.02, -187500.02, 0.00, 0.00, 0.00
244, -187500.02, 12186.10, -187500.02, 31868.58, 31598.17, -187500.02, -187500.02, -187500.02, 0.00, 0.00, 0.00
245, -187500.02, 8925.97, -187500.02, 32235.08, 28491.34, -187500.02, -187500.02, -187500.02, 0.00, 0.00, 0.00
246, -187500.02, 8379.02, -187500.02, 32017.22, 27723.49, -187500.02, -187500.02, -187500.02, 0.00, 0.00, 0.00
247, -187500.02, 11338.57, -187500.02, 31620.32, 30505.75, -187500.02, -187500.02, -187500.02, 0.00, 0.00, 0.00
248, -187500.02, 12403.45, -187500.02, 31758.05, 31752.31, -187500.02, -187500.02, -187500.02, 0.00, 0.00, 0.00
249, -187500.02, 9369.87, -187500.02, 32161.68, 28935.27, -187500.02, -187500.02, -187500.02, 0.00, 0.00, 0.00
250, -187500.02, 8042.29, -187500.02, 32055.82, 27437.35, -187500.02, -187500.02, -187500.02, 0.00, 0.00, 0.00
251, -187500.02, 10725.95, -187500.02, 31656.15, 29899.66, -187500.02, -187500.02, -187500.02, 0.00, 0.00, 0.00
252, -187500.02, 12574.08, -187500.02, 31692.36, 31872.22, -187500.02, -187500.02, -187500.02, 0.00, 0.00, 0.00
253, -187500.02, 10004.44, -187500.02, 32127.48, 29558.59, -187500.02, -187500.02, -187500.02, 0.00, 0.00, 0.00
254, -187500.02, 7938.27, -187500.02, 32118.09, 27380.89, -187500.02, -187500.02, -187500.02, 0.00, 0.00, 0.00
255, -187500.02, 10099.64, -187500.02, 31696.56, 29293.50, -187500.02, -187500.02, -187500.02, 0.00, 0.00, 0.00
0, -187500.02, 12548.56, -187500.02, 31618.11, 31791.27, -187500.02, -187500.02, -187500.02, 0.00, 0.00, 0.00
1, -187500.02, 10591.04, -187500.02, 32012.35, 30116.31, -187500.02, -187500.02, -187500.02, 0.00, 0.00, 0.00
2, -187500.02, 7933.53, -187500.02, 32101.60, 27421.41, -187500.02, -187500.02, -187500.02, 0.00, 0.00, 0.00
3, -187500.02, 9459.50, -187500.02, 31720.83, 28684.02, -187500.02, -187500.02, -187500.02, 0.00, 0.00, 0.00
4, -187500.02, 12335.28, -187500.02, 31554.58, 31542.47, -187500.02, -187500.02, -187500.02, 0.00, 0.00, 0.00
5, -187500.02, 11168.29, -187500.02, 31928.08, 30656.00, -187500.02, -187500.02, -187500.02, 0.00, 0.00, 0.00
6, -187500.02, 8045.87, -187500.02, 32174.31, 27576.53, -187500.02, -187500.02, -187500.02, 0.00, 0.00, 0.00
7, -187500.02, 8788.15, -187500.02, 31817.35, 28057.07, -187500.02, -187500.02, -187500.02, 0.00, 0.00, 0.00
8, -187500.02, 11879.86, -187500.02, 31549.91, 31064.43, -187500.02, -187500.02, -187500.02, 0.00, 0.00, 0.00
9, -187500.02, 11594.36, -187500.02, 31816.39, 31030.84, -187500.02, -187500.02, -187500.02, 0.00, 0.00, 0.00
10, -187500.02, 8399.76, -187500.02, 32126.94, 27948.89, -187500.02, -187500.02, -187500.02, 0.00, 0.00, 0.00
11, -187500.02, 8342.59, -187500.02, 31844.98, 27655.59, -187500.02, -187500.02, -187500.02, 0.00, 0.00, 0.00
12, -187500.02, 11401.33, -187500.02, 31489.83, 30568.27, -187500.02, -187500.02, -187500.02, 0.00, 0.00, 0.00
13, -187500.02, 12002.89, -187500.02, 31685.16, 31384.06, -187500.02, -187500.02, -187500.02, 0.00, 0.00, 0.00
14, -187500.02, 8828.83, -187500.02, 32035.17, 28390.60, -187500.02, -187500.02, -187500.02, 0.00, 0.00, 0.00
15, -187500.02, 7917.23, -187500.02, 31817.77, 27283.79, -187500.02, -187500.02, -187500.02, 0.00, 0.00, 0.00
16, -187500.02, 10800.00, -187500.02, 31447.14, 29969.42, -187500.02, -187500.02, -187500.02, 0.00, 0.00, 0.00
17, -187500.02, 12219.59, -187500.02, 31534.94, 31545.33, -187500.02, -187500.02, -187500.02, 0.00, 0.00, 0.00
18, -187500.02, 9367.37, -187500.02, 31944.91, 28923.98, -187500.02, -187500.02, -187500.02, 0.00, 0.00, 0.00
19, -187500.02, 7679.17, -187500.02, 31842.32, 27090.56, -187500.02, -187500.02, -187500.02, 0.00, 0.00, 0.00
20, -187500.02, 10166.87, -187500.02, 31456.19, 29343.17, -187500.02, -187500.02, -187500.02, 0.00, 0.00, 0.00
21, -187500.02, 12293.64, -187500.02, 31448.30, 31559.34, -187500.02, -187500.02, -187500.02, 0.00, 0.00, 0.00
22, -187500.02, 9976.54, -187500.02, 31867.80, 29510.81, -187500.02, -187500.02, -187500.02, 0.00, 0.00, 0.00
23, -187500.02, 7656.01, -187500.02, 31922.00, 27115.55, -187500.02, -187500.02, -187500.02, 0.00, 0.00, 0.00
24, -187500.02, 9510.11, -187500.02, 31472.08, 28712.65, -187500.02, -187500.02, -187500.02, 0.00, 0.00, 0.00
25, -187500.02, 12164.02, -187500.02, 31343.52, 31384.17, -187500.02, -187500.02, -187500.02, 0.00, 0.00, 0.00
26, -187500.02, 10554.38, -187500.02, 31725.53, 30056.52, -187500.02, -187500.02, -187500.02, 0.00, 0.00, 0.00
27, -187500.02, 7714.50, -187500.02, 31867.39, 27207.46, -187500.02, -187500.02, -187500.02, 0.00, 0.00, 0.00
28, -187500.02, 8912.27, -187500.02, 31503.11, 28140.53, -187500.02, -187500.02, -187500.02, 0.00, 0.00, 0.00
29, -187500.02, 11886.75, -187500.02, 31288.08, 31072.34, -187500.02, -187500.02, -187500.02, 0.00, 0.00, 0.00
30, -187500.02, 11134.70, -187500.02, 31639.59, 30590.80, -187500.02, -187500.02, -187500.02, 0.00, 0.00, 0.00
31, -187500.02, 7961.22, -187500.02, 31865.74, 27489.09, -187500.02, -187500.02, -187500.02, 0.00, 0.00, 0.00
32, -187500.02, 8334.03, -187500.02, 31519.89, 27606.95, -187500.02, -187500.02, -187500.02, 0.00, 0.00, 0.00
33, -187500.02, 11431.64, -187500.02, 31226.50, 30591.36, -187500.02, -187500.02, -187500.02, 0.00, 0.00, 0.00
34, -187500.02, 11545.53, -187500.02, 31478.43, 30950.77, -187500.02, -187500.02, -187500.02, 0.00, 0.00, 0.00
35, -187500.02, 8314.80, -187500.02, 31806.44, 27865.18, -187500.02, -187500.02, -187500.02, 0.00, 0.00, 0.00
36, -187500.02, 7863.32, -187500.02, 31557.26, 27189.31, -187500.02, -187500.02, -187500.02, 0.00, 0.00, 0.00
37, -187500.02, 10863.91, -187500.02, 31205.20, 30024.83, -187500.02, -187500.02, -187500.02, 0.00, 0.00, 0.00
38, -187500.02, 11864.71, -187500.02, 31373.09, 31213.23, -187500.02, -187500.02, -187500.02, 0.00, 0.00, 0.00
39, -187500.02, 8788.57, -187500.02, 31731.07, 28339.02, -187500.02, -187500.02, -187500.02, 0.00, 0.00, 0.00
40, -187500.02, 7509.25, -187500.02, 31551.90, 26882.17, -187500.02, -187500.02, -187500.02, 0.00, 0.00, 0.00
41, -187500.02, 10210.63, -187500.02, 31147.36, 29368.25, -187500.02, -187500.02, -187500.02, 0.00, 0.00, 0.00
42, -187500.02, 11987.82, -187500.02, 31206.39, 31275.88, -187500.02, -187500.02, -187500.02, 0.00, 0.00, 0.00
43, -187500.02, 9359.48, -187500.02, 31632.81, 28902.28, -187500.02, -187500.02, -187500.02, 0.00, 0.00, 0.00
44, -187500.02, 7363.31, -187500.02, 31602.93, 26792.34, -187500.02, -187500.02, -187500.02, 0.00, 0.00, 0.00
45, -187500.02, 9575.31, -187500.02, 31188.86, 28754.78, -187500.02, -187500.02, -187500.02, 0.00, 0.00, 0.00
46, -187500.02, 11957.60, -187500.02, 31121.18, 31193.85, -187500.02, -187500.02, -187500.02, 0.00, 0.00, 0.00
47, -187500.02, 9939.91, -187500.02, 31521.28, 29451.46, -187500.02, -187500.02, -187500.02, 0.00, 0.00, 0.00
48, -187500.02, 7315.03, -187500.02, 31575.06, 26782.87, -187500.02, -187500.02, -187500.02, 0.00, 0.00, 0.00
49, -187500.02, 8889.56, -187500.02, 31181.22, 28102.15, -187500.02, -187500.02, -187500.02, 0.00, 0.00, 0.00
50, -187500.02, 11700.22, -187500.02, 31001.96, 30901.69, -187500.02, -187500.02, -187500.02, 0.00, 0.00, 0.00
51, -187500.02, 10474.03, -187500.02, 31375.46, 29949.64, -187500.02, -187500.02, -187500.02, 0.00, 0.00, 0.00
52, -187500.02, 7454.08, -187500.02, 31564.48, 26961.21, -187500.02, -187500.02, -187500.02, 0.00, 0.00, 0.00
53, -187500.02, 8273.32, -187500.02, 31199.97, 27520.09, -187500.02, -187500.02, -187500.02, 0.00, 0.00, 0.00
54, -187500.02, 11335.35, -187500.02, 30950.93, 30502.62, -187500.02, -187500.02, -187500.02, 0.00, 0.00, 0.00
55, -187500.02, 10978.57, -187500.02, 31261.42, 30406.20, -187500.02, -187500.02, -187500.02, 0.00, 0.00, 0.00
56, -187500.02, 7743.20, -187500.02, 31541.30, 27284.51, -187500.02, -187500.02, -187500.02, 0.00, 0.00, 0.00
57, -187500.02, 7722.15, -187500.02, 31218.75, 27021.25, -187500.02, -187500.02, -187500.02, 0.00, 0.00, 0.00
58, -187500.02, 10800.79, -187500.02, 30892.26, 29956.28, -187500.02, -187500.02, -187500.02, 0.00, 0.00, 0.00
59, -187500.02, 11308.33, -187500.02, 31087.32, 30684.03, -187500.02, -187500.02, -187500.02, 0.00, 0.00, 0.00
60, -187500.02, 8123.58, -187500.02, 31445.37, 27672.42, -187500.02, -187500.02, -187500.02, 0.00, 0.00, 0.00
61, -187500.02, 7279.47, -187500.02, 31220.56, 26625.08, -187500.02, -187500.02, -187500.02, 0.00, 0.00, 0.00
62, -187500.02, 10162.89, -187500.02, 30832.84, 29313.66, -187500.02, -187500.02, -187500.02, 0.00, 0.00, 0.00
63, -187500.02, 11524.29, -187500.02, 30942.10, 30839.97, -187500.02, -187500.02, -187500.02, 0.00, 0.00, 0.00
64, -187500.02, 8634.32, -187500.02, 31342.78, 28176.61, -187500.02, -187500.02, -187500.02, 0.00, 0.00, 0.00
65, -187500.02, 7045.02, -187500.02, 31240.83, 26437.06, -187500.02, -187500.02, -187500.02, 0.00, 0.00, 0.00
66, -187500.02, 9562.05, -187500.02, 30831.08, 28726.97, -187500.02, -187500.02, -187500.02, 0.00, 0.00, 0.00
67, -187500.02, 11624.05, -187500.02, 30802.36, 30890.62, -187500.02, -187500.02, -187500.02, 0.00, 0.00, 0.00
68, -187500.02, 9261.98, -187500.02, 31210.10, 28791.42, -187500.02, -187500.02, -187500.02, 0.00, 0.00, 0.00
69, -187500.02, 6999.18, -187500.02, 31229.03, 26441.46, -187500.02, -187500.02, -187500.02, 0.00, 0.00, 0.00
70, -187500.02, 8961.35, -187500.02, 30827.55, 28147.84, -187500.02, -187500.02, -187500.02, 0.00, 0.00, 0.00
71, -187500.02, 11588.62, -187500.02, 30726.67, 30799.74, -187500.02, -187500.02, -187500.02, 0.00, 0.00, 0.00
72, -187500.02, 9908.57, -187500.02, 31097.40, 29400.23, -187500.02, -187500.02, -187500.02, 0.00, 0.00, 0.00
73, -187500.02, 7125.87, -187500.02, 31238.10, 26606.20, -187500.02, -187500.02, -187500.02, 0.00, 0.00, 0.00
74, -187500.02, 8377.97, -187500.02, 30848.63, 27594.21, -187500.02, -187500.02, -187500.02, 0.00, 0.00, 0.00
75, -187500.02, 11338.10, -187500.02, 30640.49, 30511.11, -187500.02, -187500.02, -187500.02, 0.00, 0.00, 0.00
76, -187500.02, 10490.77, -187500.02, 30979.29, 29937.84, -187500.02, -187500.02, -187500.02, 0.00, 0.00, 0.00
77, -187500.02, 7335.26, -187500.02, 31204.55, 26850.17, -187500.02, -187500.02, -187500.02, 0.00, 0.00, 0.00
78, -187500.02, 7788.02, -187500.02, 30884.75, 27051.53, -187500.02, -187500.02, -187500.02, 0.00, 0.00, 0.00
79, -187500.02, 10883.09, -187500.02, 30591.96, 30042.22, -187500.02, -187500.02, -187500.02, 0.00, 0.00, 0.00
80, -187500.02, 10917.44, -187500.02, 30831.77, 30321.97, -187500.02, -187500.02, -187500.02, 0.00, 0.00, 0.00
81, -187500.02, 7640.61, -187500.02, 31129.92, 27185.29, -187500.02, -187500.02, -187500.02, 0.00, 0.00, 0.00
82, -187500.02, 7244.74, -187500.02, 30874.75, 26563.44, -187500.02, -187500.02, -187500.02, 0.00, 0.00, 0.00
83, -187500.02, 10256.39, -187500.02, 30504.83, 29415.34, -187500.02, -187500.02, -187500.02, 0.00, 0.00, 0.00
84, -187500.02, 11196.68, -187500.02, 30660.96, 30553.18, -187500.02, -187500.02, -187500.02, 0.00, 0.00, 0.00
85, -187500.02, 8152.71, -187500.02, 31094.18, 27707.45, -187500.02, -187500.02, -187500.02, 0.00, 0.00, 0.00
86, -187500.02, 6936.39, -187500.02, 30938.08, 26311.15, -187500.02, -187500.02, -187500.02, 0.00, 0.00, 0.00
87, -187500.02, 9694.42, -187500.02, 30551.99, 28852.99, -187500.02, -187500.02, -187500.02, 0.00, 0.00, 0.00
88, -187500.02, 11429.07, -187500.02, 30601.82, 30719.10, -187500.02, -187500.02, -187500.02, 0.00, 0.00, 0.00
89, -187500.02, 8739.22, -187500.02, 31007.17, 28282.98, -187500.02, -187500.02, -187500.02, 0.00, 0.00, 0.00
90, -187500.02, 6781.90, -187500.02, 30961.32, 26207.38, -187500.02, -187500.02, -187500.02, 0.00, 0.00, 0.00
91, -187500.02, 9064.28, -187500.02, 30549.34, 28239.93, -187500.02, -187500.02, -187500.02, 0.00, 0.00, 0.00
92, -187500.02, 11451.78, -187500.02, 30499.38, 30692.28, -187500.02, -187500.02, -187500.02, 0.00, 0.00, 0.00
93, -187500.02, 9371.39, -187500.02, 30892.70, 28891.04, -187500.02, -187500.02, -187500.02, 0.00, 0.00, 0.00
94, -187500.02, 6823.76, -187500.02, 30999.70, 26293.76, -187500.02, -187500.02, -187500.02, 0.00, 0.00, 0.00
95, -187500.02, 8466.91, -187500.02, 30618.40, 27674.79, -187500.02, -187500.02, -187500.02, 0.00, 0.00, 0.00
96, -187500.02, 11275.18, -187500.02, 30442.54, 30476.71, -187500.02, -187500.02, -187500.02, 0.00, 0.00, 0.00
97, -187500.02, 9953.25, -187500.02, 30780.36, 29437.85, -187500.02, -187500.02, -187500.02, 0.00, 0.00, 0.00
98, -187500.02, 6936.93, -187500.02, 30969.32, 26445.76, -187500.02, -187500.02, -187500.02, 0.00, 0.00, 0.00
99, -187500.02, 7833.75, -187500.02, 30640.20, 27078.98, -187500.02, -187500.02, -187500.02, 0.00, 0.00, 0.00
100, -187500.02, 10901.24, -187500.02, 30386.68, 30072.04, -187500.02, -187500.02, -187500.02, 0.00, 0.00, 0.00
101, -187500.02, 10487.80, -187500.02, 30694.76, 29919.91, -187500.02, -187500.02, -187500.02, 0.00, 0.00, 0.00
102, -187500.02, 7269.59, -187500.02, 31005.18, 26799.92, -187500.02, -187500.02, -187500.02, 0.00, 0.00, 0.00
103, -187500.02, 7313.18, -187500.02, 30708.48, 26606.09, -187500.02, -187500.02, -187500.02, 0.00, 0.00, 0.00
104, -187500.02, 10401.96, -187500.02, 30367.86, 29560.29, -187500.02, -187500.02, -187500.02, 0.00, 0.00, 0.00
105, -187500.02, 10854.77, -187500.02, 30552.58, 30234.18, -187500.02, -187500.02, -187500.02, 0.00, 0.00, 0.00
106, -187500.02, 7649.39, -187500.02, 30922.05, 27197.22, -187500.02, -187500.02, -187500.02, 0.00, 0.00, 0.00
107, -187500.02, 6889.72, -187500.02, 30745.45, 26234.91, -187500.02, -187500.02, -187500.02, 0.00, 0.00, 0.00
108, -187500.02, 9795.96, -187500.02, 30346.49, 28954.70, -187500.02, -187500.02, -187500.02, 0.00, 0.00, 0.00
109, -187500.02, 11121.07, -187500.02, 30464.42, 30446.96, -187500.02, -187500.02, -187500.02, 0.00, 0.00, 0.00
110, -187500.02, 8171.15, -187500.02, 30862.57, 27727.92, -187500.02, -187500.02, -187500.02, 0.00, 0.00, 0.00
111, -187500.02, 6634.53, -187500.02, 30780.09, 26036.18, -187500.02, -187500.02, -187500.02, 0.00, 0.00, 0.00
112, -187500.02, 9187.39, -187500.02, 30380.54, 28355.13, -187500.02, -187500.02, -187500.02, 0.00, 0.00, 0.00
113, -187500.02, 11213.89, -187500.02, 30365.47, 30484.74, -187500.02, -187500.02, -187500.02, 0.00, 0.00, 0.00
114, -187500.02, 8788.50, -187500.02, 30788.14, 28326.72, -187500.02, -187500.02, -187500.02, 0.00, 0.00, 0.00
115, -187500.02, 6514.73, -187500.02, 30790.62, 25962.87, -187500.02, -187500.02, -187500.02, 0.00, 0.00, 0.00
116, -187500.02, 8511.72, -187500.02, 30380.80, 27697.12, -187500.02, -187500.02, -187500.02, 0.00, 0.00, 0.00
117, -187500.02, 11129.92, -187500.02, 30296.00, 30343.63, -187500.02, -187500.02, -187500.02, 0.00, 0.00, 0.00
118, -187500.02, 9392.81, -187500.02, 30693.86, 28894.17, -187500.02, -187500.02, -187500.02, 0.00, 0.00, 0.00
119, -187500.02, 6565.82, -187500.02, 30806.92, 26052.90, -187500.02, -187500.02, -187500.02, 0.00, 0.00, 0.00
120, -187500.02, 7849.35, -187500.02, 30409.90, 27076.14, -187500.02, -187500.02, -187500.02, 0.00, 0.00, 0.00
121, -187500.02, 10796.07, -187500.02, 30184.15, 29983.95, -187500.02, -187500.02, -187500.02, 0.00, 0.00, 0.00
122, -187500.02, 9901.08, -187500.02, 30517.60, 29357.99, -187500.02, -187500.02, -187500.02, 0.00, 0.00, 0.00
123, -187500.02, 6790.93, -187500.02, 30775.83, 26307.27, -187500.02, -187500.02, -187500.02, 0.00, 0.00, 0.00
124, -187500.02, 7333.52, -187500.02, 30475.64, 26596.52, -187500.02, -187500.02, -187500.02, 0.00, 0.00, 0.00
125, -187500.02, 10434.64, -187500.02, 30168.55, 29597.64, -187500.02, -187500.02, -187500.02, 0.00, 0.00, 0.00
126, -187500.02, 10408.42, -187500.02, 30407.20, 29818.57, -187500.02, -187500.02, -187500.02, 0.00, 0.00, 0.00
127, -187500.02, 7180.83, -187500.02, 30746.90, 26722.49, -187500.02, -187500.02, -187500.02, 0.00, 0.00, 0.00
128, -187500.02, 6863.95, -187500.02, 30493.41, 26176.46, -187500.02, -187500.02, -187500.02, 0.00, 0.00, 0.00
129, -187500.02, 9927.55, -187500.02, 30150.22, 29082.77, -187500.02, -187500.02, -187500.02, 0.00, 0.00, 0.00
130, -187500.02, 10793.17, -187500.02, 30310.22, 30151.03, -187500.02, -187500.02, -187500.02, 0.00, 0.00, 0.00
131, -187500.02, 7680.77, -187500.02, 30686.20, 27233.97, -187500.02, -187500.02, -187500.02, 0.00, 0.00, 0.00
132, -187500.02, 6556.88, -187500.02, 30547.64, 25925.18, -187500.02, -187500.02, -187500.02, 0.00, 0.00, 0.00
133, -187500.02, 9317.75, -187500.02, 30138.15, 28478.60, -187500.02, -187500.02, -187500.02, 0.00, 0.00, 0.00
134, -187500.02, 10982.04, -187500.02, 30192.29, 30278.37, -187500.02, -187500.02, -187500.02, 0.00, 0.00, 0.00
135, -187500.02, 8262.46, -187500.02, 30618.51, 27806.22, -187500.02, -187500.02, -187500.02, 0.00, 0.00, 0.00
136, -187500.02, 6349.08, -187500.02, 30555.82, 25767.94, -187500.02, -187500.02, -187500.02, 0.00, 0.00, 0.00
137, -187500.02, 8651.06, -187500.02, 30136.45, 27826.27, -187500.02, -187500.02, -187500.02, 0.00, 0.00, 0.00
138, -187500.02, 10962.01, -187500.02, 30090.16, 30208.00, -187500.02, -187500.02, -187500.02, 0.00, 0.00, 0.00
139, -187500.02, 8795.21, -187500.02, 30468.96, 28318.61, -187500.02, -187500.02, -187500.02, 0.00, 0.00, 0.00
140, -187500.02, 6276.17, -187500.02, 30549.04, 25748.11, -187500.02, -187500.02, -187500.02, 0.00, 0.00, 0.00
141, -187500.02, 7942.56, -187500.02, 30119.73, 27154.55, -187500.02, -187500.02, -187500.02, 0.00, 0.00, 0.00
142, -187500.02, 10706.24, -187500.02, 29940.61, 29915.80, -187500.02, -187500.02, -187500.02, 0.00, 0.00, 0.00
143, -187500.02, 9350.81, -187500.02, 30317.55, 28833.28, -187500.02, -187500.02, -187500.02, 0.00, 0.00, 0.00
144, -187500.02, 6393.47, -187500.02, 30517.69, 25889.27, -187500.02, -187500.02, -187500.02, 0.00, 0.00, 0.00
145, -187500.02, 7354.93, -187500.02, 30174.21, 26592.52, -187500.02, -187500.02, -187500.02, 0.00, 0.00, 0.00
146, -187500.02, 10411.29, -187500.02, 29932.63, 29587.58, -187500.02, -187500.02, -187500.02, 0.00, 0.00, 0.00
147, -187500.02, 9928.40, -187500.02, 30250.45, 29360.76, -187500.02, -187500.02, -187500.02, 0.00, 0.00, 0.00
148, -187500.02, 6739.92, -187500.02, 30537.04, 26258.52, -187500.02, -187500.02, -187500.02, 0.00, 0.00, 0.00
149, -187500.02, 6855.95, -187500.02, 30210.51, 26133.05, -187500.02, -187500.02, -187500.02, 0.00, 0.00, 0.00
150, -187500.02, 9931.97, -187500.02, 29873.82, 29087.35, -187500.02, -187500.02, -187500.02, 0.00, 0.00, 0.00
151, -187500.02, 10316.07, -187500.02, 30106.61, 29702.88, -187500.02, -187500.02, -187500.02, 0.00, 0.00, 0.00
152, -187500.02, 7129.60, -187500.02, 30474.35, 26676.65, -187500.02, -187500.02, -187500.02, 0.00, 0.00, 0.00
153, -187500.02, 6441.06, -187500.02, 30256.86, 25778.20, -187500.02, -187500.02, -187500.02, 0.00, 0.00, 0.00
154, -187500.02, 9383.44, -187500.02, 29891.79, 28533.16, -187500.02, -187500.02, -187500.02, 0.00, 0.00, 0.00
155, -187500.02, 10604.09, -187500.02, 30018.03, 29927.11, -187500.02, -187500.02, -187500.02, 0.00, 0.00, 0.00
156, -187500.02, 7658.47, -187500.02, 30437.29, 27201.13, -187500.02, -187500.02, -187500.02, 0.00, 0.00, 0.00
157, -187500.02, 6150.66, -187500.02, 30293.99, 25530.97, -187500.02, -187500.02, -187500.02, 0.00, 0.00, 0.00
158, -187500.02, 8710.45, -187500.02, 29873.53, 27867.51, -187500.02, -187500.02, -187500.02, 0.00, 0.00, 0.00
159, -187500.02, 10653.22, -187500.02, 29879.97, 29917.34, -187500.02, -187500.02, -187500.02, 0.00, 0.00, 0.00
160, -187500.02, 8167.64, -187500.02, 30295.24, 27690.68, -187500.02, -187500.02, -187500.02, 0.00, 0.00, 0.00
161, -187500.02, 6005.96, -187500.02, 30316.81, 25438.88, -187500.02, -187500.02, -187500.02, 0.00, 0.00, 0.00
162, -187500.02, 8045.51, -187500.02, 29895.28, 27224.13, -187500.02, -187500.02, -187500.02, 0.00, 0.00, 0.00
163, -187500.02, 10577.83, -187500.02, 29810.14, 29793.33, -187500.02, -187500.02, -187500.02, 0.00, 0.00, 0.00
164, -187500.02, 8771.20, -187500.02, 30209.05, 28260.16, -187500.02, -187500.02, -187500.02, 0.00, 0.00, 0.00
165, -187500.02, 6021.29, -187500.02, 30303.38, 25488.83, -187500.02, -187500.02, -187500.02, 0.00, 0.00, 0.00
166, -187500.02, 7412.49, -187500.02, 29930.86, 26619.47, -187500.02, -187500.02, -187500.02, 0.00, 0.00, 0.00
167, -187500.02, 10305.85, -187500.02, 29723.35, 29483.07, -187500.02, -187500.02, -187500.02, 0.00, 0.00, 0.00
168, -187500.02, 9310.02, -187500.02, 30062.29, 28755.81, -187500.02, -187500.02, -187500.02, 0.00, 0.00, 0.00
169, -187500.02, 6231.02, -187500.02, 30296.76, 25729.94, -187500.02, -187500.02, -187500.02, 0.00, 0.00, 0.00
170, -187500.02, 6821.39, -187500.02, 29948.92, 26058.36, -187500.02, -187500.02, -187500.02, 0.00, 0.00, 0.00
171, -187500.02, 9900.06, -187500.02, 29655.38, 29047.79, -187500.02, -187500.02, -187500.02, 0.00, 0.00, 0.00
172, -187500.02, 9791.54, -187500.02, 29925.77, 29185.34, -187500.02, -187500.02, -187500.02, 0.00, 0.00, 0.00
173, -187500.02, 6568.71, -187500.02, 30237.77, 26085.63, -187500.02, -187500.02, -187500.02, 0.00, 0.00, 0.00
174, -187500.02, 6306.97, -187500.02, 29936.99, 25591.29, -187500.02, -187500.02, -187500.02, 0.00, 0.00, 0.00
175, -187500.02, 9383.06, -187500.02, 29613.29, 28512.85, -187500.02, -187500.02, -187500.02, 0.00, 0.00, 0.00
176, -187500.02, 10161.84, -187500.02, 29800.06, 29492.86, -187500.02, -187500.02, -187500.02, 0.00, 0.00, 0.00
177, -187500.02, 7031.75, -187500.02, 30160.84, 26552.51, -187500.02, -187500.02, -187500.02, 0.00, 0.00, 0.00
178, -187500.02, 5988.46, -187500.02, 29990.52, 25317.73, -187500.02, -187500.02, -187500.02, 0.00, 0.00, 0.00
179, -187500.02, 8763.52, -187500.02, 29568.09, 27884.20, -187500.02, -187500.02, -187500.02, 0.00, 0.00, 0.00
180, -187500.02, 10335.58, -187500.02, 29642.12, 29596.97, -187500.02, -187500.02, -187500.02, 0.00, 0.00, 0.00
181, -187500.02, 7573.08, -187500.02, 30076.86, 27081.57, -187500.02, -187500.02, -187500.02, 0.00, 0.00, 0.00
182, -187500.02, 5771.58, -187500.02, 29998.19, 25140.77, -187500.02, -187500.02, -187500.02, 0.00, 0.00, 0.00
183, -187500.02, 8129.84, -187500.02, 29577.64, 27252.21, -187500.02, -187500.02, -187500.02, 0.00, 0.00, 0.00
184, -187500.02, 10339.16, -187500.02, 29509.55, 29530.16, -187500.02, -187500.02, -187500.02, 0.00, 0.00, 0.00
185, -187500.02, 8145.62, -187500.02, 29942.53, 27629.50, -187500.02, -187500.02, -187500.02, 0.00, 0.00, 0.00
186, -187500.02, 5718.65, -187500.02, 30029.30, 25142.29, -187500.02, -187500.02, -187500.02, 0.00, 0.00, 0.00
187, -187500.02, 7453.19, -187500.02, 29603.54, 26603.65, -187500.02, -187500.02, -187500.02, 0.00, 0.00, 0.00
188, -187500.02, 10159.72, -187500.02, 29435.66, 29316.53, -187500.02, -187500.02, -187500.02, 0.00, 0.00, 0.00
189, -187500.02, 8708.66, -187500.02, 29806.63, 28139.48, -187500.02, -187500.02, -187500.02, 0.00, 0.00, 0.00
190, -187500.02, 5779.45, -187500.02, 29983.30, 25219.09, -187500.02, -187500.02, -187500.02, 0.00, 0.00, 0.00
191, -187500.02, 6779.98, -187500.02, 29598.02, 25964.08, -187500.02, -187500.02, -187500.02, 0.00, 0.00, 0.00
192, -187500.02, 9820.17, -187500.02, 29365.14, 28941.57, -187500.02, -187500.02, -187500.02, 0.00, 0.00, 0.00
193, -187500.02, 9248.95, -187500.02, 29687.05, 28624.51, -187500.02, -187500.02, -187500.02, 0.00, 0.00, 0.00
194, -187500.02, 6046.33, -187500.02, 29957.39, 25506.16, -187500.02, -187500.02, -187500.02, 0.00, 0.00, 0.00
195, -187500.02, 6245.14, -187500.02, 29650.66, 25462.41, -187500.02, -187500.02, -187500.02, 0.00, 0.00, 0.00
196, -187500.02, 9337.17, -187500.02, 29306.91, 28427.26, -187500.02, -187500.02, -187500.02, 0.00, 0.00, 0.00
197, -187500.02, 9674.26, -187500.02, 29553.88, 28985.83, -187500.02, -187500.02, -187500.02, 0.00, 0.00, 0.00
198, -187500.02, 6438.00, -187500.02, 29889.11, 25909.94, -187500.02, -187500.02, -187500.02, 0.00, 0.00, 0.00
199, -187500.02, 5830.32, -187500.02, 29694.36, 25098.04, -187500.02, -187500.02, -187500.02, 0.00, 0.00, 0.00
200, -187500.02, 8776.77, -187500.02, 29290.91, 27862.19, -187500.02, -187500.02, -187500.02, 0.00, 0.00, 0.00
201, -187500.02, 9949.95, -187500.02, 29407.81, 29213.93, -187500.02, -187500.02, -187500.02, 0.00, 0.00, 0.00
202, -187500.02, 6963.48, -187500.02, 29812.15, 26440.50, -187500.02, -187500.02, -187500.02, 0.00, 0.00, 0.00
203, -187500.02, 5545.83, -187500.02, 29704.82, 24853.96, -187500.02, -187500.02, -187500.02, 0.00, 0.00, 0.00
204, -187500.02, 8180.16, -187500.02, 29312.52, 27267.79, -187500.02, -187500.02, -187500.02, 0.00, 0.00, 0.00
205, -187500.02, 10066.62, -187500.02, 29291.60, 29268.36, -187500.02, -187500.02, -187500.02, 0.00, 0.00, 0.00
206, -187500.02, 7532.63, -187500.02, 29711.12, 26992.99, -187500.02, -187500.02, -187500.02, 0.00, 0.00, 0.00
207, -187500.02, 5372.93, -187500.02, 29699.97, 24733.52, -187500.02, -187500.02, -187500.02, 0.00, 0.00, 0.00
208, -187500.02, 7464.48, -187500.02, 29286.28, 26576.96, -187500.02, -187500.02, -187500.02, 0.00, 0.00, 0.00
209, -187500.02, 9975.92, -187500.02, 29194.46, 29130.04, -187500.02, -187500.02, -187500.02, 0.00, 0.00, 0.00
210, -187500.02, 8091.96, -187500.02, 29579.25, 27525.90, -187500.02, -187500.02, -187500.02, 0.00, 0.00, 0.00
211, -187500.02, 5400.54, -187500.02, 29715.39, 24805.07, -187500.02, -187500.02, -187500.02, 0.00, 0.00, 0.00
212, -187500.02, 6818.42, -187500.02, 29318.20, 25958.96, -187500.02, -187500.02, -187500.02, 0.00, 0.00, 0.00
213, -187500.02, 9700.90, -187500.02, 29088.54, 28814.10, -187500.02, -187500.02, -187500.02, 0.00, 0.00, 0.00
214, -187500.02, 8638.39, -187500.02, 29416.55, 28027.16, -187500.02, -187500.02, -187500.02, 0.00, 0.00, 0.00
215, -187500.02, 5559.06, -187500.02, 29637.88, 24994.30, -187500.02, -187500.02, -187500.02, 0.00, 0.00, 0.00
216, -187500.02, 6243.09, -187500.02, 29321.64, 25421.69, -187500.02, -187500.02, -187500.02, 0.00, 0.00, 0.00
217, -187500.02, 9375.93, -187500.02, 29064.49, 28457.21, -187500.02, -187500.02, -187500.02, 0.00, 0.00, 0.00
218, -187500.02, 9210.55, -187500.02, 29336.39, 28542.13, -187500.02, -187500.02, -187500.02, 0.00, 0.00, 0.00
219, -187500.02, 5985.22, -187500.02, 29667.11, 25442.59, -187500.02, -187500.02, -187500.02, 0.00, 0.00, 0.00
220, -187500.02, 5794.31, -187500.02, 29394.91, 25018.98, -187500.02, -187500.02, -187500.02, 0.00, 0.00, 0.00
221, -187500.02, 8838.75, -187500.02, 29016.74, 27910.89, -187500.02, -187500.02, -187500.02, 0.00, 0.00, 0.00
222, -187500.02, 9556.33, -187500.02, 29199.09, 28839.00, -187500.02, -187500.02, -187500.02, 0.00, 0.00, 0.00
223, -187500.02, 6423.67, -187500.02, 29600.79, 25897.83, -187500.02, -187500.02, -187500.02, 0.00, 0.00, 0.00
224, -187500.02, 5401.50, -187500.02, 29420.55, 24680.21, -187500.02, -187500.02, -187500.02, 0.00, 0.00, 0.00
225, -187500.02, 8196.36, -187500.02, 28990.03, 27269.91, -187500.02, -187500.02, -187500.02, 0.00, 0.00, 0.00
226, -187500.02, 9716.86, -187500.02, 29053.96, 28938.51, -187500.02, -187500.02, -187500.02, 0.00, 0.00, 0.00
227, -187500.02, 6890.84, -187500.02, 29464.72, 26353.78, -187500.02, -187500.02, -187500.02, 0.00, 0.00, 0.00
228, -187500.02, 5107.55, -187500.02, 29388.92, 24435.87, -187500.02, -187500.02, -187500.02, 0.00, 0.00, 0.00
229, -187500.02, 7514.83, -187500.02, 28982.30, 26607.67, -187500.02, -187500.02, -187500.02, 0.00, 0.00, 0.00
230, -187500.02, 9732.82, -187500.02, 28950.56, 28908.18, -187500.02, -187500.02, -187500.02, 0.00, 0.00, 0.00
231, -187500.02, 7457.03, -187500.02, 29337.80, 26901.35, -187500.02, -187500.02, -187500.02, 0.00, 0.00, 0.00
232, -187500.02, 5057.73, -187500.02, 29407.47, 24429.45, -187500.02, -187500.02, -187500.02, 0.00, 0.00, 0.00
233, -187500.02, 6862.79, -187500.02, 28995.71, 25974.76, -187500.02, -187500.02, -187500.02, 0.00, 0.00, 0.00
234, -187500.02, 9569.12, -187500.02, 28825.77, 28690.43, -187500.02, -187500.02, -187500.02, 0.00, 0.00, 0.00
235, -187500.02, 8076.87, -187500.02, 29219.90, 27485.13, -187500.02, -187500.02, -187500.02, 0.00, 0.00, 0.00
236, -187500.02, 5195.42, -187500.02, 29414.20, 24608.60, -187500.02, -187500.02, -187500.02, 0.00, 0.00, 0.00
237, -187500.02, 6282.74, -187500.02, 29046.29, 25437.29, -187500.02, -187500.02, -187500.02, 0.00, 0.00, 0.00
238, -187500.02, 9293.25, -187500.02, 28793.58, 28394.74, -187500.02, -187500.02, -187500.02, 0.00, 0.00, 0.00
239, -187500.02, 8628.98, -187500.02, 29089.01, 27993.55, -187500.02, -187500.02, -187500.02, 0.00, 0.00, 0.00
240, -187500.02, 5454.72, -187500.02, 29377.34, 24900.96, -187500.02, -187500.02, -187500.02, 0.00, 0.00, 0.00
241, -187500.02, 5700.50, -187500.02, 29045.73, 24900.20, -187500.02, -187500.02, -187500.02, 0.00, 0.00, 0.00
242, -187500.02, 8846.55, -187500.02, 28765.26, 27922.96, -187500.02, -187500.02, -187500.02, 0.00, 0.00, 0.00
243, -187500.02, 9101.14, -187500.02, 29011.67, 28411.03, -187500.02, -187500.02, -187500.02, 0.00, 0.00, 0.00
244, -187500.02, 5849.99, -187500.02, 29339.30, 25314.38, -187500.02, -187500.02, -187500.02, 0.00, 0.00, 0.00
245, -187500.02, 5268.15, -187500.02, 29107.36, 24517.14, -187500.02, -187500.02, -187500.02, 0.00, 0.00, 0.00
246, -187500.02, 8252.46, -187500.02, 28724.99, 27332.16, -187500.02, -187500.02, -187500.02, 0.00, 0.00, 0.00
247, -187500.02, 9358.94, -187500.02, 28844.84, 28623.17, -187500.02, -187500.02, -187500.02, 0.00, 0.00, 0.00
248, -187500.02, 6337.35, -187500.02, 29245.58, 25810.01, -187500.02, -187500.02, -187500.02, 0.00, 0.00, 0.00
249, -187500.02, 4955.65, -187500.02, 29119.34, 24258.86, -187500.02, -187500.02, -187500.02, 0.00, 0.00, 0.00
250, -187500.02, 7609.96, -187500.02, 28705.43, 26697.55, -187500.02, -187500.02, -187500.02, 0.00, 0.00, 0.00
251, -187500.02, 9471.06, -187500.02, 28719.93, 28680.91, -187500.02, -187500.02, -187500.02, 0.00, 0.00, 0.00
252, -187500.02, 6890.69, -187500.02, 29145.85, 26356.88, -187500.02, -187500.02, -187500.02, 0.00, 0.00, 0.00
253, -187500.02, 4818.32, -187500.02, 29153.36, 24175.91, -187500.02, -187500.02, -187500.02, 0.00, 0.00, 0.00
254, -187500.02, 6968.63, -187500.02, 28734.78, 26072.33, -187500.02, -187500.02, -187500.02, 0.00, 0.00, 0.00
255, -187500.02, 9456.91, -187500.02, 28667.79, 28609.54, -187500.02, -187500.02, -187500.02, 0.00, 0.00, 0.00
0, -187500.02, 7507.73, -187500.02, 29061.87, 26941.83, -187500.02, -187500.02, -187500.02, 0.00, 0.00, 0.00
1, -187500.02, 4829.79, -187500.02, 29157.09, 24229.02, -187500.02, -187500.02, -187500.02, 0.00, 0.00, 0.00
2, -187500.02, 6324.45, -187500.02, 28760.70, 25466.04, -187500.02, -187500.02, -187500.02, 0.00, 0.00, 0.00
3, -187500.02, 9208.38, -187500.02, 28572.10, 28332.29, -187500.02, -187500.02, -187500.02, 0.00, 0.00, 0.00
4, -187500.02, 8077.74, -187500.02, 28925.35, 27473.85, -187500.02, -187500.02, -187500.02, 0.00, 0.00, 0.00
5, -187500.02, 5014.26, -187500.02, 29137.67, 24450.17, -187500.02, -187500.02, -187500.02, 0.00, 0.00, 0.00
6, -187500.02, 5750.61, -187500.02, 28791.24, 24932.16, -187500.02, -187500.02, -187500.02, 0.00, 0.00, 0.00
7, -187500.02, 8833.99, -187500.02, 28513.65, 27930.27, -187500.02, -187500.02, -187500.02, 0.00, 0.00, 0.00
8, -187500.02, 8596.77, -187500.02, 28812.36, 27946.36, -187500.02, -187500.02, -187500.02, 0.00, 0.00, 0.00
9, -187500.02, 5342.09, -187500.02, 29110.80, 24806.55, -187500.02, -187500.02, -187500.02, 0.00, 0.00, 0.00
10, -187500.02, 5240.88, -187500.02, 28835.56, 24467.89, -187500.02, -187500.02, -187500.02, 0.00, 0.00, 0.00
11, -187500.02, 8321.98, -187500.02, 28500.39, 27405.00, -187500.02, -187500.02, -187500.02, 0.00, 0.00, 0.00
12, -187500.02, 8941.44, -187500.02, 28677.27, 28239.69, -187500.02, -187500.02, -187500.02, 0.00, 0.00, 0.00
13, -187500.02, 5762.93, -187500.02, 29043.68, 25247.52, -187500.02, -187500.02, -187500.02, 0.00, 0.00, 0.00
14, -187500.02, 4810.59, -187500.02, 28853.93, 24102.60, -187500.02, -187500.02, -187500.02, 0.00, 0.00, 0.00
15, -187500.02, 7684.60, -187500.02, 28476.35, 26778.35, -187500.02, -187500.02, -187500.02, 0.00, 0.00, 0.00
16, -187500.02, 9121.01, -187500.02, 28532.54, 28372.05, -187500.02, -187500.02, -187500.02, 0.00, 0.00, 0.00
17, -187500.02, 6271.97, -187500.02, 28937.97, 25754.04, -187500.02, -187500.02, -187500.02, 0.00, 0.00, 0.00
18, -187500.02, 4561.92, -187500.02, 28861.71, 23901.05, -187500.02, -187500.02, -187500.02, 0.00, 0.00, 0.00
19, -187500.02, 7032.64, -187500.02, 28464.12, 26134.42, -187500.02, -187500.02, -187500.02, 0.00, 0.00, 0.00
20, -187500.02, 9181.90, -187500.02, 28433.56, 28370.93, -187500.02, -187500.02, -187500.02, 0.00, 0.00, 0.00
21, -187500.02, 6858.16, -187500.02, 28838.73, 26314.15, -187500.02, -187500.02, -187500.02, 0.00, 0.00, 0.00
22, -187500.02, 4496.34, -187500.02, 28883.88, 23878.52, -187500.02, -187500.02, -187500.02, 0.00, 0.00, 0.00
23, -187500.02, 6364.39, -187500.02, 28469.66, 25492.57, -187500.02, -187500.02, -187500.02, 0.00, 0.00, 0.00
24, -187500.02, 9021.41, -187500.02, 28314.70, 28170.82, -187500.02, -187500.02, -187500.02, 0.00, 0.00, 0.00
25, -187500.02, 7442.10, -187500.02, 28703.64, 26872.81, -187500.02, -187500.02, -187500.02, 0.00, 0.00, 0.00
26, -187500.02, 4582.17, -187500.02, 28861.73, 24010.13, -187500.02, -187500.02, -187500.02, 0.00, 0.00, 0.00
27, -187500.02, 5768.27, -187500.02, 28507.97, 24934.71, -187500.02, -187500.02, -187500.02, 0.00, 0.00, 0.00
28, -187500.02, 8761.95, -187500.02, 28279.58, 27879.08, -187500.02, -187500.02, -187500.02, 0.00, 0.00, 0.00
29, -187500.02, 8028.39, -187500.02, 28618.90, 27413.43, -187500.02, -187500.02, -187500.02, 0.00, 0.00, 0.00
30, -187500.02, 4853.61, -187500.02, 28884.31, 24315.10, -187500.02, -187500.02, -187500.02, 0.00, 0.00, 0.00
31, -187500.02, 5180.22, -187500.02, 28532.40, 24391.54, -187500.02, -187500.02, -187500.02, 0.00, 0.00, 0.00
32, -187500.02, 8269.85, -187500.02, 28206.92, 27364.39, -187500.02, -187500.02, -187500.02, 0.00, 0.00, 0.00
33, -187500.02, 8392.23, -187500.02, 28422.57, 27725.79, -187500.02, -187500.02, -187500.02, 0.00, 0.00, 0.00
34, -187500.02, 5132.32, -187500.02, 28743.63, 24611.37, -187500.02, -187500.02, -187500.02, 0.00, 0.00, 0.00
35, -187500.02, 4648.65, -187500.02, 28505.36, 23909.53, -187500.02, -187500.02, -187500.02, 0.00, 0.00, 0.00
36, -187500.02, 7668.23, -187500.02, 28154.21, 26757.74, -187500.02, -187500.02, -187500.02, 0.00, 0.00, 0.00
37, -187500.02, 8686.58, -187500.02, 28292.08, 27964.02, -187500.02, -187500.02, -187500.02, 0.00, 0.00, 0.00
38, -187500.02, 5633.65, -187500.02, 28679.92, 25122.38, -187500.02, -187500.02, -187500.02, 0.00, 0.00, 0.00
39, -187500.02, 4335.23, -187500.02, 28548.07, 23650.56, -187500.02, -187500.02, -187500.02, 0.00, 0.00, 0.00
40, -187500.02, 7028.08, -187500.02, 28131.53, 26125.48, -187500.02, -187500.02, -187500.02, 0.00, 0.00, 0.00
41, -187500.02, 8812.04, -187500.02, 28140.78, 28034.47, -187500.02, -187500.02, -187500.02, 0.00, 0.00, 0.00
42, -187500.02, 6182.63, -187500.02, 28535.98, 25651.84, -187500.02, -187500.02, -187500.02, 0.00, 0.00, 0.00
43, -187500.02, 4169.81, -187500.02, 28533.21, 23529.79, -187500.02, -187500.02, -187500.02, 0.00, 0.00, 0.00
44, -187500.02, 6387.32, -187500.02, 28127.37, 25502.80, -187500.02, -187500.02, -187500.02, 0.00, 0.00, 0.00
45, -187500.02, 8794.47, -187500.02, 28029.09, 27965.70, -187500.02, -187500.02, -187500.02, 0.00, 0.00, 0.00
46, -187500.02, 6796.85, -187500.02, 28422.10, 26244.59, -187500.02, -187500.02, -187500.02, 0.00, 0.00, 0.00
47, -187500.02, 4167.17, -187500.02, 28501.20, 23576.53, -187500.02, -187500.02, -187500.02, 0.00, 0.00, 0.00
48, -187500.02, 5755.71, -187500.02, 28133.83, 24902.59, -187500.02, -187500.02, -187500.02, 0.00, 0.00, 0.00
49, -187500.02, 8600.37, -187500.02, 27954.28, 27734.85, -187500.02, -187500.02, -187500.02, 0.00, 0.00, 0.00
50, -187500.02, 7388.41, -187500.02, 28313.42, 26803.72, -187500.02, -187500.02, -187500.02, 0.00, 0.00, 0.00
51, -187500.02, 4343.41, -187500.02, 28510.83, 23790.26, -187500.02, -187500.02, -187500.02, 0.00, 0.00, 0.00
52, -187500.02, 5125.88, -187500.02, 28138.03, 24312.66, -187500.02, -187500.02, -187500.02, 0.00, 0.00, 0.00
53, -187500.02, 8211.29, -187500.02, 27879.80, 27316.69, -187500.02, -187500.02, -187500.02, 0.00, 0.00, 0.00
54, -187500.02, 7871.70, -187500.02, 28166.39, 27236.72, -187500.02, -187500.02, -187500.02, 0.00, 0.00, 0.00
55, -187500.02, 4655.60, -187500.02, 28489.38, 24127.52, -187500.02, -187500.02, -187500.02, 0.00, 0.00, 0.00
56, -187500.02, 4627.84, -187500.02, 28200.19, 23855.32, -187500.02, -187500.02, -187500.02, 0.00, 0.00, 0.00
57, -187500.02, 7714.44, -187500.02, 27861.89, 26801.17, -187500.02, -187500.02, -187500.02, 0.00, 0.00, 0.00
58, -187500.02, 8237.13, -187500.02, 28025.73, 27544.97, -187500.02, -187500.02, -187500.02, 0.00, 0.00, 0.00
59, -187500.02, 5043.83, -187500.02, 28381.02, 24525.67, -187500.02, -187500.02, -187500.02, 0.00, 0.00, 0.00
60, -187500.02, 4199.02, -187500.02, 28198.45, 23481.60, -187500.02, -187500.02, -187500.02, 0.00, 0.00, 0.00
61, -187500.02, 7096.63, -187500.02, 27818.35, 26189.27, -187500.02, -187500.02, -187500.02, 0.00, 0.00, 0.00
62, -187500.02, 8490.20, -187500.02, 27912.43, 27741.84, -187500.02, -187500.02, -187500.02, 0.00, 0.00, 0.00
63, -187500.02, 5595.40, -187500.02, 28314.50, 25075.17, -187500.02, -187500.02, -187500.02, 0.00, 0.00, 0.00
64, -187500.02, 3926.93, -187500.02, 28205.06, 23254.55, -187500.02, -187500.02, -187500.02, 0.00, 0.00, 0.00
65, -187500.02, 6414.03, -187500.02, 27785.99, 25509.71, -187500.02, -187500.02, -187500.02, 0.00, 0.00, 0.00
66, -187500.02, 8497.55, -187500.02, 27757.42, 27691.53, -187500.02, -187500.02, -187500.02, 0.00, 0.00, 0.00
67, -187500.02, 6145.84, -187500.02, 28184.30, 25604.62, -187500.02, -187500.02, -187500.02, 0.00, 0.00, 0.00
68, -187500.02, 3841.06, -187500.02, 28225.47, 23220.62, -187500.02, -187500.02, -187500.02, 0.00, 0.00, 0.00
69, -187500.02, 5752.69, -187500.02, 27796.76, 24875.59, -187500.02, -187500.02, -187500.02, 0.00, 0.00, 0.00
70, -187500.02, 8371.87, -187500.02, 27665.27, 27519.87, -187500.02, -187500.02, -187500.02, 0.00, 0.00, 0.00
71, -187500.02, 6719.14, -187500.02, 28055.30, 26149.46, -187500.02, -187500.02, -187500.02, 0.00, 0.00, 0.00
72, -187500.02, 3876.82, -187500.02, 28181.66, 23302.77, -187500.02, -187500.02, -187500.02, 0.00, 0.00, 0.00
73, -187500.02, 5098.05, -187500.02, 27788.98, 24261.05, -187500.02, -187500.02, -187500.02, 0.00, 0.00, 0.00
74, -187500.02, 8064.53, -187500.02, 27556.15, 27180.55, -187500.02, -187500.02, -187500.02, 0.00, 0.00, 0.00
75, -187500.02, 7257.07, -187500.02, 27900.43, 26641.58, -187500.02, -187500.02, -187500.02, 0.00, 0.00, 0.00
76, -187500.02, 4101.03, -187500.02, 28139.13, 23556.77, -187500.02, -187500.02, -187500.02, 0.00, 0.00, 0.00
77, -187500.02, 4551.33, -187500.02, 27826.00, 23756.73, -187500.02, -187500.02, -187500.02, 0.00, 0.00, 0.00
78, -187500.02, 7658.49, -187500.02, 27528.90, 26754.66, -187500.02, -187500.02, -187500.02, 0.00, 0.00, 0.00
79, -187500.02, 7732.21, -187500.02, 27784.29, 27069.06, -187500.02, -187500.02, -187500.02, 0.00, 0.00, 0.00
80, -187500.02, 4476.72, -187500.02, 28085.73, 23945.67, -187500.02, -187500.02, -187500.02, 0.00, 0.00, 0.00
81, -187500.02, 4087.24, -187500.02, 27846.54, 23336.88, -187500.02, -187500.02, -187500.02, 0.00, 0.00, 0.00
82, -187500.02, 7115.79, -187500.02, 27491.93, 26202.12, -187500.02, -187500.02, -187500.02, 0.00, 0.00, 0.00
83, -187500.02, 8053.27, -187500.02, 27641.69, 27332.52, -187500.02, -187500.02, -187500.02, 0.00, 0.00, 0.00
84, -187500.02, 4988.53, -187500.02, 28040.02, 24459.65, -187500.02, -187500.02, -187500.02, 0.00, 0.00, 0.00
85, -187500.02, 3761.02, -187500.02, 27886.55, 23053.32, -187500.02, -187500.02, -187500.02, 0.00, 0.00, 0.00
86, -187500.02, 6478.94, -187500.02, 27472.55, 25565.66, -187500.02, -187500.02, -187500.02, 0.00, 0.00, 0.00
87, -187500.02, 8210.60, -187500.02, 27516.40, 27429.01, -187500.02, -187500.02, -187500.02, 0.00, 0.00, 0.00
88, -187500.02, 5539.23, -187500.02, 27931.99, 25000.07, -187500.02, -187500.02, -187500.02, 0.00, 0.00, 0.00
89, -187500.02, 3584.19, -187500.02, 27913.19, 22930.95, -187500.02, -187500.02, -187500.02, 0.00, 0.00, 0.00
90, -187500.02, 5823.14, -187500.02, 27487.59, 24929.77, -187500.02, -187500.02, -187500.02, 0.00, 0.00, 0.00
91, -187500.02, 8179.82, -187500.02, 27417.41, 27351.63, -187500.02, -187500.02, -187500.02, 0.00, 0.00, 0.00
92, -187500.02, 6108.37, -187500.02, 27811.76, 25552.49, -187500.02, -187500.02, -187500.02, 0.00, 0.00, 0.00
93, -187500.02, 3549.84, -187500.02, 27916.34, 22951.31, -187500.02, -187500.02, -187500.02, 0.00, 0.00, 0.00
94, -187500.02, 5168.77, -187500.02, 27519.40, 24309.62, -187500.02, -187500.02, -187500.02, 0.00, 0.00, 0.00
95, -187500.02, 7979.28, -187500.02, 27341.75, 27106.85, -187500.02, -187500.02, -187500.02, 0.00, 0.00, 0.00
96, -187500.02, 6657.09, -187500.02, 27666.52, 26062.49, -187500.02, -187500.02, -187500.02, 0.00, 0.00, 0.00
97, -187500.02, 3628.54, -187500.02, 27836.95, 23058.66, -187500.02, -187500.02, -187500.02, 0.00, 0.00, 0.00
98, -187500.02, 4470.55, -187500.02, 27456.61, 23641.48, -187500.02, -187500.02, -187500.02, 0.00, 0.00, 0.00
99, -187500.02, 7536.74, -187500.02, 27201.54, 26635.75, -187500.02, -187500.02, -187500.02, 0.00, 0.00, 0.00
100, -187500.02, 7123.68, -187500.02, 27508.60, 26482.48, -187500.02, -187500.02, -187500.02, 0.00, 0.00, 0.00
101, -187500.02, 3879.86, -187500.02, 27788.07, 23337.59, -187500.02, -187500.02, -187500.02, 0.00, 0.00, 0.00
102, -187500.02, 3921.12, -187500.02, 27501.43, 23140.94, -187500.02, -187500.02, -187500.02, 0.00, 0.00, 0.00
103, -187500.02, 6987.80, -187500.02, 27141.12, 26074.45, -187500.02, -187500.02, -187500.02, 0.00, 0.00, 0.00
104, -187500.02, 7458.62, -187500.02, 27332.99, 26765.65, -187500.02, -187500.02, -187500.02, 0.00, 0.00, 0.00
105, -187500.02, 4256.15, -187500.02, 27690.77, 23732.66, -187500.02, -187500.02, -187500.02, 0.00, 0.00, 0.00
106, -187500.02, 3468.10, -187500.02, 27489.85, 22737.40, -187500.02, -187500.02, -187500.02, 0.00, 0.00, 0.00
107, -187500.02, 6387.30, -187500.02, 27115.57, 25467.44, -187500.02, -187500.02, -187500.02, 0.00, 0.00, 0.00
108, -187500.02, 7687.39, -187500.02, 27209.81, 26932.00, -187500.02, -187500.02, -187500.02, 0.00, 0.00, 0.00
109, -187500.02, 4759.94, -187500.02, 27601.70, 24228.82, -187500.02, -187500.02, -187500.02, 0.00, 0.00, 0.00
110, -187500.02, 3216.71, -187500.02, 27504.69, 22537.04, -187500.02, -187500.02, -187500.02, 0.00, 0.00, 0.00
111, -187500.02, 5754.77, -187500.02, 27078.22, 24845.95, -187500.02, -187500.02, -187500.02, 0.00, 0.00, 0.00
112, -187500.02, 7803.22, -187500.02, 27080.50, 26994.29, -187500.02, -187500.02, -187500.02, 0.00, 0.00, 0.00
113, -187500.02, 5384.78, -187500.02, 27493.40, 24840.05, -187500.02, -187500.02, -187500.02, 0.00, 0.00, 0.00
114, -187500.02, 3152.40, -187500.02, 27527.20, 22521.95, -187500.02, -187500.02, -187500.02, 0.00, 0.00, 0.00
115, -187500.02, 5118.10, -187500.02, 27090.56, 24234.90, -187500.02, -187500.02, -187500.02, 0.00, 0.00, 0.00
116, -187500.02, 7713.83, -187500.02, 26988.19, 26860.45, -187500.02, -187500.02, -187500.02, 0.00, 0.00, 0.00
117, -187500.02, 6002.76, -187500.02, 27408.42, 25427.19, -187500.02, -187500.02, -187500.02, 0.00, 0.00, 0.00
118, -187500.02, 3205.26, -187500.02, 27551.68, 22613.79, -187500.02, -187500.02, -187500.02, 0.00, 0.00, 0.00
119, -187500.02, 4467.06, -187500.02, 27147.65, 23607.58, -187500.02, -187500.02, -187500.02, 0.00, 0.00, 0.00
120, -187500.02, 7407.48, -187500.02, 26915.43, 26511.34, -187500.02, -187500.02, -187500.02, 0.00, 0.00, 0.00
121, -187500.02, 6494.57, -187500.02, 27235.96, 25871.85, -187500.02, -187500.02, -187500.02, 0.00, 0.00, 0.00
122, -187500.02, 3341.18, -187500.02, 27470.81, 22777.72, -187500.02, -187500.02, -187500.02, 0.00, 0.00, 0.00
123, -187500.02, 3843.40, -187500.02, 27164.10, 23028.78, -187500.02, -187500.02, -187500.02, 0.00, 0.00, 0.00
124, -187500.02, 6930.87, -187500.02, 26856.11, 26015.75, -187500.02, -187500.02, -187500.02, 0.00, 0.00, 0.00
125, -187500.02, 6896.14, -187500.02, 27080.28, 26223.36, -187500.02, -187500.02, -187500.02, 0.00, 0.00, 0.00
126, -187500.02, 3622.90, -187500.02, 27383.03, 23079.76, -187500.02, -187500.02, -187500.02, 0.00, 0.00, 0.00
127, -187500.02, 3261.05, -187500.02, 27112.13, 22497.39, -187500.02, -187500.02, -187500.02, 0.00, 0.00, 0.00
128, -187500.02, 6306.63, -187500.02, 26749.20, 25381.28, -187500.02, -187500.02, -187500.02, 0.00, 0.00, 0.00
129, -187500.02, 7169.75, -187500.02, 26886.82, 26437.08, -187500.02, -187500.02, -187500.02, 0.00, 0.00, 0.00
130, -187500.02, 4061.42, -187500.02, 27274.78, 23530.84, -187500.02, -187500.02, -187500.02, 0.00, 0.00, 0.00
131, -187500.02, 2932.71, -187500.02, 27154.35, 22224.45, -187500.02, -187500.02, -187500.02, 0.00, 0.00, 0.00
132, -187500.02, 5698.42, -187500.02, 26753.70, 24775.54, -187500.02, -187500.02, -187500.02, 0.00, 0.00, 0.00
133, -187500.02, 7359.36, -187500.02, 26791.81, 26575.82, -187500.02, -187500.02, -187500.02, 0.00, 0.00, 0.00
134, -187500.02, 4629.29, -187500.02, 27198.76, 24087.65, -187500.02, -187500.02, -187500.02, 0.00, 0.00, 0.00
135, -187500.02, 2723.47, -187500.02, 27163.65, 22053.82, -187500.02, -187500.02, -187500.02, 0.00, 0.00, 0.00
136, -187500.02, 5009.47, -187500.02, 26735.95, 24099.02, -187500.02, -187500.02, -187500.02, 0.00, 0.00, 0.00
137, -187500.02, 7324.64, -187500.02, 26675.09, 26486.71, -187500.02, -187500.02, -187500.02, 0.00, 0.00, 0.00
138, -187500.02, 5193.23, -187500.02, 27081.66, 24628.92, -187500.02, -187500.02, -187500.02, 0.00, 0.00, 0.00
139, -187500.02, 2634.35, -187500.02, 27128.78, 22016.15, -187500.02, -187500.02, -187500.02, 0.00, 0.00, 0.00
140, -187500.02, 4313.01, -187500.02, 26726.11, 23438.37, -187500.02, -187500.02, -187500.02, 0.00, 0.00, 0.00
141, -187500.02, 7098.49, -187500.02, 26559.26, 26222.87, -187500.02, -187500.02, -187500.02, 0.00, 0.00, 0.00
142, -187500.02, 5721.62, -187500.02, 26906.60, 25125.37, -187500.02, -187500.02, -187500.02, 0.00, 0.00, 0.00
143, -187500.02, 2719.02, -187500.02, 27067.67, 22139.98, -187500.02, -187500.02, -187500.02, 0.00, 0.00, 0.00
144, -187500.02, 3642.51, -187500.02, 26688.23, 22802.42, -187500.02, -187500.02, -187500.02, 0.00, 0.00, 0.00
145, -187500.02, 6701.90, -187500.02, 26434.24, 25789.44, -187500.02, -187500.02, -187500.02, 0.00, 0.00, 0.00
146, -187500.02, 6199.08, -187500.02, 26731.03, 25553.03, -187500.02, -187500.02, -187500.02, 0.00, 0.00, 0.00
147, -187500.02, 2970.23, -187500.02, 26997.29, 22418.04, -187500.02, -187500.02, -187500.02, 0.00, 0.00, 0.00
148, -187500.02, 3121.51, -187500.02, 26720.57, 22328.56, -187500.02, -187500.02, -187500.02, 0.00, 0.00, 0.00
149, -187500.02, 6221.52, -187500.02, 26384.91, 25295.49, -187500.02, -187500.02, -187500.02, 0.00, 0.00, 0.00
150, -187500.02, 6605.43, -187500.02, 26588.00, 25903.73, -187500.02, -187500.02, -187500.02, 0.00, 0.00, 0.00
151, -187500.02, 3408.35, -187500.02, 26948.63, 22869.03, -187500.02, -187500.02, -187500.02, 0.00, 0.00, 0.00
152, -187500.02, 2712.12, -187500.02, 26724.19, 21964.70, -187500.02, -187500.02, -187500.02, 0.00, 0.00, 0.00
153, -187500.02, 5631.16, -187500.02, 26322.33, 24709.88, -187500.02, -187500.02, -187500.02, 0.00, 0.00, 0.00
154, -187500.02, 6888.90, -187500.02, 26457.29, 26143.40, -187500.02, -187500.02, -187500.02, 0.00, 0.00, 0.00
155, -187500.02, 3959.57, -187500.02, 26882.96, 23430.80, -187500.02, -187500.02, -187500.02, 0.00, 0.00, 0.00
156, -187500.02, 2477.94, -187500.02, 26772.49, 21788.72, -187500.02, -187500.02, -187500.02, 0.00, 0.00, 0.00
157, -187500.02, 5049.39, -187500.02, 26358.43, 24140.08, -187500.02, -187500.02, -187500.02, 0.00, 0.00, 0.00
158, -187500.02, 7025.53, -187500.02, 26369.00, 26223.09, -187500.02, -187500.02, -187500.02, 0.00, 0.00, 0.00
159, -187500.02, 4543.19, -187500.02, 26776.45, 23993.55, -187500.02, -187500.02, -187500.02, 0.00, 0.00, 0.00
160, -187500.02, 2346.33, -187500.02, 26775.36, 21706.92, -187500.02, -187500.02, -187500.02, 0.00, 0.00, 0.00
161, -187500.02, 4388.63, -187500.02, 26366.81, 23500.58, -187500.02, -187500.02, -187500.02, 0.00, 0.00, 0.00
162, -187500.02, 6921.91, -187500.02, 26259.37, 26070.65, -187500.02, -187500.02, -187500.02, 0.00, 0.00, 0.00
163, -187500.02, 5125.90, -187500.02, 26652.38, 24550.69, -187500.02, -187500.02, -187500.02, 0.00, 0.00, 0.00
164, -187500.02, 2376.91, -187500.02, 26766.86, 21787.12, -187500.02, -187500.02, -187500.02, 0.00, 0.00, 0.00
165, -187500.02, 3718.12, -187500.02, 26352.46, 22861.25, -187500.02, -187500.02, -187500.02, 0.00, 0.00, 0.00
166, -187500.02, 6660.44, -187500.02, 26169.73, 25767.29, -187500.02, -187500.02, -187500.02, 0.00, 0.00, 0.00
167, -187500.02, 5688.07, -187500.02, 26511.87, 25065.74, -187500.02, -187500.02, -187500.02, 0.00, 0.00, 0.00
168, -187500.02, 2571.26, -187500.02, 26707.05, 22006.92, -187500.02, -187500.02, -187500.02, 0.00, 0.00, 0.00
169, -187500.02, 3144.20, -187500.02, 26347.63, 22331.87, -187500.02, -187500.02, -187500.02, 0.00, 0.00, 0.00
170, -187500.02, 6265.77, -187500.02, 26094.45, 25358.16, -187500.02, -187500.02, -187500.02, 0.00, 0.00, 0.00
171, -187500.02, 6165.86, -187500.02, 26353.71, 25507.74, -187500.02, -187500.02, -187500.02, 0.00, 0.00, 0.00
172, -187500.02, 2939.39, -187500.02, 26672.25, 22408.25, -187500.02, -187500.02, -187500.02, 0.00, 0.00, 0.00
173, -187500.02, 2729.77, -187500.02, 26435.27, 21965.53, -187500.02, -187500.02, -187500.02, 0.00, 0.00, 0.00
174, -187500.02, 5771.18, -187500.02, 26075.63, 24852.23, -187500.02, -187500.02, -187500.02, 0.00, 0.00, 0.00
175, -187500.02, 6552.77, -187500.02, 26241.13, 25829.65, -187500.02, -187500.02, -187500.02, 0.00, 0.00, 0.00
176, -187500.02, 3417.13, -187500.02, 26620.01, 22888.21, -187500.02, -187500.02, -187500.02, 0.00, 0.00, 0.00
177, -187500.02, 2357.19, -187500.02, 26476.85, 21645.90, -187500.02, -187500.02, -187500.02, 0.00, 0.00, 0.00
178, -187500.02, 5130.31, -187500.02, 26057.24, 24214.56, -187500.02, -187500.02, -187500.02, 0.00, 0.00, 0.00
179, -187500.02, 6719.29, -187500.02, 26101.23, 25950.33, -187500.02, -187500.02, -187500.02, 0.00, 0.00, 0.00
180, -187500.02, 3954.92, -187500.02, 26512.79, 23428.65, -187500.02, -187500.02, -187500.02, 0.00, 0.00, 0.00
181, -187500.02, 2112.17, -187500.02, 26457.45, 21454.79, -187500.02, -187500.02, -187500.02, 0.00, 0.00, 0.00
182, -187500.02, 4460.87, -187500.02, 26043.22, 23565.80, -187500.02, -187500.02, -187500.02, 0.00, 0.00, 0.00
183, -187500.02, 6709.48, -187500.02, 25968.84, 25886.27, -187500.02, -187500.02, -187500.02, 0.00, 0.00, 0.00
184, -187500.02, 4527.64, -187500.02, 26373.78, 23974.26, -187500.02, -187500.02, -187500.02, 0.00, 0.00, 0.00
185, -187500.02, 2051.24, -187500.02, 26442.63, 21436.78, -187500.02, -187500.02, -187500.02, 0.00, 0.00, 0.00
186, -187500.02, 3791.93, -187500.02, 26045.28, 22920.10, -187500.02, -187500.02, -187500.02, 0.00, 0.00, 0.00
187, -187500.02, 6540.43, -187500.02, 25893.09, 25676.05, -187500.02, -187500.02, -187500.02, 0.00, 0.00, 0.00
188, -187500.02, 5122.17, -187500.02, 26267.30, 24535.22, -187500.02, -187500.02, -187500.02, 0.00, 0.00, 0.00
189, -187500.02, 2173.82, -187500.02, 26447.23, 21602.20, -187500.02, -187500.02, -187500.02, 0.00, 0.00, 0.00
190, -187500.02, 3152.42, -187500.02, 26059.09, 22321.35, -187500.02, -187500.02, -187500.02, 0.00, 0.00, 0.00
191, -187500.02, 6188.06, -187500.02, 25803.01, 25291.74, -187500.02, -187500.02, -187500.02, 0.00, 0.00, 0.00
192, -187500.02, 5633.20, -187500.02, 26115.78, 25000.16, -187500.02, -187500.02, -187500.02, 0.00, 0.00, 0.00
193, -187500.02, 2444.52, -187500.02, 26406.78, 21903.61, -187500.02, -187500.02, -187500.02, 0.00, 0.00, 0.00
194, -187500.02, 2610.66, -187500.02, 26079.57, 21828.40, -187500.02, -187500.02, -187500.02, 0.00, 0.00, 0.00
195, -187500.02, 5717.98, -187500.02, 25753.43, 24810.39, -187500.02, -187500.02, -187500.02, 0.00, 0.00, 0.00
196, -187500.02, 6067.45, -187500.02, 25999.71, 25383.24, -187500.02, -187500.02, -187500.02, 0.00, 0.00, 0.00
197, -187500.02, 2852.08, -187500.02, 26365.49, 22331.31, -187500.02, -187500.02, -187500.02, 0.00, 0.00, 0.00
198, -187500.02, 2205.27, -187500.02, 26141.21, 21472.67, -187500.02, -187500.02, -187500.02, 0.00, 0.00, 0.00
199, -187500.02, 5163.12, -187500.02, 25759.18, 24244.85, -187500.02, -187500.02, -187500.02, 0.00, 0.00, 0.00
200, -187500.02, 6339.00, -187500.02, 25875.94, 25595.99, -187500.02, -187500.02, -187500.02, 0.00, 0.00, 0.00
201, -187500.02, 3345.34, -187500.02, 26271.66, 22823.16, -187500.02, -187500.02, -187500.02, 0.00, 0.00, 0.00
202, -187500.02, 1937.07, -187500.02, 26186.21, 21250.79, -187500.02, -187500.02, -187500.02, 0.00, 0.00, 0.00
203, -187500.02, 4566.75, -187500.02, 25797.55, 23654.43, -187500.02, -187500.02, -187500.02, 0.00, 0.00, 0.00
204, -187500.02, 6472.80, -187500.02, 25788.53, 25671.49, -187500.02, -187500.02, -187500.02, 0.00, 0.00, 0.00
205, -187500.02, 3950.09, -187500.02, 26205.05, 23402.59, -187500.02, -187500.02, -187500.02, 0.00, 0.00, 0.00
206, -187500.02, 1820.73, -187500.02, 26222.17, 21172.46, -187500.02, -187500.02, -187500.02, 0.00, 0.00, 0.00
207, -187500.02, 3890.52, -187500.02, 25787.70, 23002.76, -187500.02, -187500.02, -187500.02, 0.00, 0.00, 0.00
208, -187500.02, 6420.47, -187500.02, 25708.75, 25574.33, -187500.02, -187500.02, -187500.02, 0.00, 0.00, 0.00
209, -187500.02, 4560.18, -187500.02, 26100.98, 23986.64, -187500.02, -187500.02, -187500.02, 0.00, 0.00, 0.00
210, -187500.02, 1849.11, -187500.02, 26213.81, 21245.47, -187500.02, -187500.02, -187500.02, 0.00, 0.00, 0.00
211, -187500.02, 3296.64, -187500.02, 25844.29, 22425.13, -187500.02, -187500.02, -187500.02, 0.00, 0.00, 0.00
212, -187500.02, 6196.48, -187500.02, 25645.18, 25296.61, -187500.02, -187500.02, -187500.02, 0.00, 0.00, 0.00
213, -187500.02, 5147.79, -187500.02, 25998.34, 24528.18, -187500.02, -187500.02, -187500.02, 0.00, 0.00, 0.00
214, -187500.02, 2049.30, -187500.02, 26205.94, 21475.18, -187500.02, -187500.02, -187500.02, 0.00, 0.00, 0.00
215, -187500.02, 2692.13, -187500.02, 25844.45, 21856.05, -187500.02, -187500.02, -187500.02, 0.00, 0.00, 0.00
216, -187500.02, 5782.71, -187500.02, 25560.29, 24858.65, -187500.02, -187500.02, -187500.02, 0.00, 0.00, 0.00
217, -187500.02, 5624.55, -187500.02, 25859.67, 24956.04, -187500.02, -187500.02, -187500.02, 0.00, 0.00, 0.00
218, -187500.02, 2392.22, -187500.02, 26170.16, 21844.05, -187500.02, -187500.02, -187500.02, 0.00, 0.00, 0.00
219, -187500.02, 2198.05, -187500.02, 25873.78, 21414.15, -187500.02, -187500.02, -187500.02, 0.00, 0.00, 0.00
220, -187500.02, 5272.33, -187500.02, 25541.70, 24331.93, -187500.02, -187500.02, -187500.02, 0.00, 0.00, 0.00
221, -187500.02, 5983.49, -187500.02, 25737.70, 25249.02, -187500.02, -187500.02, -187500.02, 0.00, 0.00, 0.00
222, -187500.02, 2863.48, -187500.02, 26141.66, 22316.88, -187500.02, -187500.02, -187500.02, 0.00, 0.00, 0.00
223, -187500.02, 1860.65, -187500.02, 25951.76, 21113.23, -187500.02, -187500.02, -187500.02, 0.00, 0.00, 0.00
224, -187500.02, 4692.57, -187500.02, 25560.65, 23740.84, -187500.02, -187500.02, -187500.02, 0.00, 0.00, 0.00
225, -187500.02, 6224.25, -187500.02, 25653.88, 25421.44, -187500.02, -187500.02, -187500.02, 0.00, 0.00, 0.00
226, -187500.02, 3425.52, -187500.02, 26081.36, 22861.83, -187500.02, -187500.02, -187500.02, 0.00, 0.00, 0.00
227, -187500.02, 1662.23, -187500.02, 26009.85, 20969.60, -187500.02, -187500.02, -187500.02, 0.00, 0.00, 0.00
228, -187500.02, 4063.08, -187500.02, 25600.93, 23137.36, -187500.02, -187500.02, -187500.02, 0.00, 0.00, 0.00
229, -187500.02, 6266.74, -187500.02, 25574.73, 25421.04, -187500.02, -187500.02, -187500.02, 0.00, 0.00, 0.00
230, -187500.02, 3982.01, -187500.02, 25949.39, 23403.73, -187500.02, -187500.02, -187500.02, 0.00, 0.00, 0.00
231, -187500.02, 1573.63, -187500.02, 25988.10, 20924.47, -187500.02, -187500.02, -187500.02, 0.00, 0.00, 0.00
232, -187500.02, 3401.49, -187500.02, 25589.64, 22490.19, -187500.02, -187500.02, -187500.02, 0.00, 0.00, 0.00
233, -187500.02, 6094.49, -187500.02, 25429.20, 25190.66, -187500.02, -187500.02, -187500.02, 0.00, 0.00, 0.00
234, -187500.02, 4598.29, -187500.02, 25832.45, 23975.33, -187500.02, -187500.02, -187500.02, 0.00, 0.00, 0.00
235, -187500.02, 1706.31, -187500.02, 26022.03, 21090.61, -187500.02, -187500.02, -187500.02, 0.00, 0.00, 0.00
236, -187500.02, 2796.02, -187500.02, 25653.72, 21923.22, -187500.02, -187500.02, -187500.02, 0.00, 0.00, 0.00
237, -187500.02, 5802.85, -187500.02, 25389.97, 24875.77, -187500.02, -187500.02, -187500.02, 0.00, 0.00, 0.00
238, -187500.02, 5157.22, -187500.02, 25707.32, 24496.01, -187500.02, -187500.02, -187500.02, 0.00, 0.00, 0.00
239, -187500.02, 1974.73, -187500.02, 25988.33, 21391.36, -187500.02, -187500.02, -187500.02, 0.00, 0.00, 0.00
240, -187500.02, 2260.57, -187500.02, 25703.34, 21431.99, -187500.02, -187500.02, -187500.02, 0.00, 0.00, 0.00
241, -187500.02, 5371.03, -187500.02, 25379.38, 24422.68, -187500.02, -187500.02, -187500.02, 0.00, 0.00, 0.00
242, -187500.02, 5593.03, -187500.02, 25585.50, 24879.12, -187500.02, -187500.02, -187500.02, 0.00, 0.00, 0.00
243, -187500.02, 2350.15, -187500.02, 25920.11, 21791.56, -187500.02, -187500.02, -187500.02, 0.00, 0.00, 0.00
244, -187500.02, 1780.23, -187500.02, 25737.34, 21005.99, -187500.02, -187500.02, -187500.02, 0.00, 0.00, 0.00
245, -187500.02, 4784.12, -187500.02, 25356.89, 23830.33, -187500.02, -187500.02, -187500.02, 0.00, 0.00, 0.00
246, -187500.02, 5901.55, -187500.02, 25499.43, 25136.93, -187500.02, -187500.02, -187500.02, 0.00, 0.00, 0.00
247, -187500.02, 2849.69, -187500.02, 25877.26, 22298.37, -187500.02, -187500.02, -187500.02, 0.00, 0.00, 0.00
248, -187500.02, 1445.82, -187500.02, 25734.10, 20726.53, -187500.02, -187500.02, -187500.02, 0.00, 0.00, 0.00
249, -187500.02, 4095.58, -187500.02, 25305.10, 23154.04, -187500.02, -187500.02, -187500.02, 0.00, 0.00, 0.00
250, -187500.02, 5979.92, -187500.02, 25341.69, 25160.35, -187500.02, -187500.02, -187500.02, 0.00, 0.00, 0.00
251, -187500.02, 3396.30, -187500.02, 25774.55, 22833.63, -187500.02, -187500.02, -187500.02, 0.00, 0.00, 0.00
252, -187500.02, 1286.66, -187500.02, 25762.78, 20620.29, -187500.02, -187500.02, -187500.02, 0.00, 0.00, 0.00
253, -187500.02, 3401.91, -187500.02, 25305.15, 22485.79, -187500.02, -187500.02, -187500.02, 0.00, 0.00, 0.00
254, -187500.02, 5867.89, -187500.02, 25198.53, 25001.86, -187500.02, -187500.02, -187500.02, 0.00, 0.00, 0.00
255, -187500.02, 3956.68, -187500.02, 25628.87, 23371.36, -187500.02, -187500.02, -187500.02, 0.00, 0.00, 0.00
0, -187500.02, 1272.22, -187500.02, 25726.72, 20650.24, -187500.02, -187500.02, -187500.02, 0.00, 0.00, 0.00
1, -187500.02, 2765.58, -187500.02, 25317.15, 21879.07, -187500.02, -187500.02, -187500.02, 0.00, 0.00, 0.00
2, -187500.02, 5664.47, -187500.02, 25132.03, 24757.04, -187500.02, -187500.02, -187500.02, 0.00, 0.00, 0.00
3, -187500.02, 4524.28, -187500.02, 25481.28, 23900.23, -187500.02, -187500.02, -187500.02, 0.00, 0.00, 0.00
4, -187500.02, 1465.02, -187500.02, 25704.37, 20884.87, -187500.02, -187500.02, -187500.02, 0.00, 0.00, 0.00
5, -187500.02, 2218.88, -187500.02, 25371.69, 21375.29, -187500.02, -187500.02, -187500.02, 0.00, 0.00, 0.00
6, -187500.02, 5330.35, -187500.02, 25100.43, 24402.94, -187500.02, -187500.02, -187500.02, 0.00, 0.00, 0.00
7, -187500.02, 5082.36, -187500.02, 25379.49, 24415.01, -187500.02, -187500.02, -187500.02, 0.00, 0.00, 0.00
8, -187500.02, 1843.66, -187500.02, 25688.81, 21291.51, -187500.02, -187500.02, -187500.02, 0.00, 0.00, 0.00
9, -187500.02, 1765.85, -187500.02, 25439.37, 20979.17, -187500.02, -187500.02, -187500.02, 0.00, 0.00, 0.00
10, -187500.02, 4869.77, -187500.02, 25093.47, 23934.05, -187500.02, -187500.02, -187500.02, 0.00, 0.00, 0.00
11, -187500.02, 5553.38, -187500.02, 25318.29, 24825.28, -187500.02, -187500.02, -187500.02, 0.00, 0.00, 0.00
12, -187500.02, 2388.48, -187500.02, 25699.39, 21847.40, -187500.02, -187500.02, -187500.02, 0.00, 0.00, 0.00
13, -187500.02, 1419.29, -187500.02, 25499.96, 20686.99, -187500.02, -187500.02, -187500.02, 0.00, 0.00, 0.00
14, -187500.02, 4294.51, -187500.02, 25096.72, 23356.34, -187500.02, -187500.02, -187500.02, 0.00, 0.00, 0.00
15, -187500.02, 5791.29, -187500.02, 25198.13, 25011.29, -187500.02, -187500.02, -187500.02, 0.00, 0.00, 0.00
16, -187500.02, 2945.58, -187500.02, 25616.84, 22405.14, -187500.02, -187500.02, -187500.02, 0.00, 0.00, 0.00
17, -187500.02, 1236.88, -187500.02, 25559.31, 20561.77, -187500.02, -187500.02, -187500.02, 0.00, 0.00, 0.00
18, -187500.02, 3706.79, -187500.02, 25149.38, 22792.72, -187500.02, -187500.02, -187500.02, 0.00, 0.00, 0.00
19, -187500.02, 5907.99, -187500.02, 25143.50, 25077.61, -187500.02, -187500.02, -187500.02, 0.00, 0.00, 0.00
20, -187500.02, 3578.92, -187500.02, 25548.54, 23019.48, -187500.02, -187500.02, -187500.02, 0.00, 0.00, 0.00
21, -187500.02, 1195.19, -187500.02, 25603.21, 20567.70, -187500.02, -187500.02, -187500.02, 0.00, 0.00, 0.00
22, -187500.02, 3067.73, -187500.02, 25193.66, 22185.02, -187500.02, -187500.02, -187500.02, 0.00, 0.00, 0.00
23, -187500.02, 5771.40, -187500.02, 25051.07, 24901.38, -187500.02, -187500.02, -187500.02, 0.00, 0.00, 0.00
24, -187500.02, 4175.15, -187500.02, 25414.80, 23584.20, -187500.02, -187500.02, -187500.02, 0.00, 0.00, 0.00
25, -187500.02, 1298.48, -187500.02, 25585.66, 20710.25, -187500.02, -187500.02, -187500.02, 0.00, 0.00, 0.00
26, -187500.02, 2469.38, -187500.02, 25222.51, 21621.04, -187500.02, -187500.02, -187500.02, 0.00, 0.00, 0.00
27, -187500.02, 5507.83, -187500.02, 24991.22, 24607.28, -187500.02, -187500.02, -187500.02, 0.00, 0.00, 0.00
28, -187500.02, 4776.86, -187500.02, 25307.85, 24149.18, -187500.02, -187500.02, -187500.02, 0.00, 0.00, 0.00
29, -187500.02, 1600.47, -187500.02, 25594.83, 21052.73, -187500.02, -187500.02, -187500.02, 0.00, 0.00, 0.00
30, -187500.02, 1967.20, -187500.02, 25304.41, 21169.47, -187500.02, -187500.02, -187500.02, 0.00, 0.00, 0.00
31, -187500.02, 5113.14, -187500.02, 24986.95, 24198.47, -187500.02, -187500.02, -187500.02, 0.00, 0.00, 0.00
32, -187500.02, 5295.82, -187500.02, 25219.88, 24614.70, -187500.02, -187500.02, -187500.02, 0.00, 0.00, 0.00
33, -187500.02, 2017.56, -187500.02, 25541.23, 21482.60, -187500.02, -187500.02, -187500.02, 0.00, 0.00, 0.00
34, -187500.02, 1508.47, -187500.02, 25303.58, 20752.57, -187500.02, -187500.02, -187500.02, 0.00, 0.00, 0.00
35, -187500.02, 4570.60, -187500.02, 24951.34, 23642.06, -187500.02, -187500.02, -187500.02, 0.00, 0.00, 0.00
36, -187500.02, 5668.40, -187500.02, 25118.62, 24925.46, -187500.02, -187500.02, -187500.02, 0.00, 0.00, 0.00
37, -187500.02, 2611.09, -187500.02, 25531.86, 22084.26, -187500.02, -187500.02, -187500.02, 0.00, 0.00, 0.00
38, -187500.02, 1263.83, -187500.02, 25401.39, 20578.24, -187500.02, -187500.02, -187500.02, 0.00, 0.00, 0.00
39, -187500.02, 3984.94, -187500.02, 24995.69, 23080.77, -187500.02, -187500.02, -187500.02, 0.00, 0.00, 0.00
40, -187500.02, 5849.70, -187500.02, 25042.09, 25066.38, -187500.02, -187500.02, -187500.02, 0.00, 0.00, 0.00
41, -187500.02, 3208.75, -187500.02, 25468.76, 22686.55, -187500.02, -187500.02, -187500.02, 0.00, 0.00, 0.00
42, -187500.02, 1142.71, -187500.02, 25463.82, 20503.79, -187500.02, -187500.02, -187500.02, 0.00, 0.00, 0.00
43, -187500.02, 3366.44, -187500.02, 25062.18, 22469.38, -187500.02, -187500.02, -187500.02, 0.00, 0.00, 0.00
44, -187500.02, 5812.84, -187500.02, 24944.43, 24961.31, -187500.02, -187500.02, -187500.02, 0.00, 0.00, 0.00
45, -187500.02, 3841.44, -187500.02, 25378.57, 23279.74, -187500.02, -187500.02, -187500.02, 0.00, 0.00, 0.00
46, -187500.02, 1188.02, -187500.02, 25506.89, 20596.89, -187500.02, -187500.02, -187500.02, 0.00, 0.00, 0.00
47, -187500.02, 2744.26, -187500.02, 25121.10, 21888.08, -187500.02, -187500.02, -187500.02, 0.00, 0.00, 0.00
48, -187500.02, 5644.26, -187500.02, 24921.21, 24767.99, -187500.02, -187500.02, -187500.02, 0.00, 0.00, 0.00
49, -187500.02, 4462.82, -187500.02, 25294.15, 23874.43, -187500.02, -187500.02, -187500.02, 0.00, 0.00, 0.00
50, -187500.02, 1383.28, -187500.02, 25531.06, 20845.79, -187500.02, -187500.02, -187500.02, 0.00, 0.00, 0.00
51, -187500.02, 2170.73, -187500.02, 25205.53, 21370.44, -187500.02, -187500.02, -187500.02, 0.00, 0.00, 0.00
52, -187500.02, 5293.54, -187500.02, 24928.10, 24402.09, -187500.02, -187500.02, -187500.02, 0.00, 0.00, 0.00
53, -187500.02, 4972.26, -187500.02, 25193.70, 24346.59, -187500.02, -187500.02, -187500.02, 0.00, 0.00, 0.00
54, -187500.02, 1702.78, -187500.02, 25515.14, 21193.68, -187500.02, -187500.02, -187500.02, 0.00, 0.00, 0.00
