%OpenBCI Raw EEG Data
%
%Sample Rate = 250.0 Hz
%First Column = SampleIndex
%Other Columns = EEG data in microvolts followed by Accel Data (in G) interleaved with Aux Data
0, 92588.59, -187500.02, -187500.02, -187500.02, -187500.02, -187500.02, -187500.02, 179221.73, 0.00, 0.00, 0.00
1, 92559.33, -187500.02, -187500.02, -187500.02, -187500.02, -187500.02, -187500.02, 179279.94, 0.00, 0.00, 0.00
2, 92572.05, -187500.02, -187500.02, -187500.02, -187500.02, -187500.02, -187500.02, 179308.58, -0.00, -0.00, -0.00
3, 92602.47, -187500.02, -187500.02, -187500.02, -187500.02, -187500.02, -187500.02, 179320.42, -0.00, -0.00, -0.00
4, 92614.34, -187500.02, -187500.02, -187500.02, -187500.02, -187500.02, -187500.02, 179315.66, -0.00, -0.00, -0.00
5, 92576.16, -187500.02, -187500.02, -187500.02, -187500.02, -187500.02, -187500.02, 179293.02, -0.00, -0.00, -0.00
6, 92553.32, -187500.02, -187500.02, -187500.02, -187500.02, -187500.02, -187500.02, 179279.09, -0.00, -0.00, -0.00
7, 92598.71, -187500.02, -187500.02, -187500.02, -187500.02, -187500.02, -187500.02, 179201.22, -0.00, -0.00, -0.00
8, 92646.03, -187500.02, -187500.02, -187500.02, -187500.02, -187500.02, -187500.02, 179062.70, -0.00, -0.00, -0.00
9, 92607.09, -187500.02, -187500.02, -187500.02, -187500.02, -187500.02, -187500.02, 178936.19, -0.00, -0.00, -0.00
10, 92613.22, -187500.02, -187500.02, -187500.02, -187500.02, -187500.02, -187500.02, 178753.20, -0.00, -0.00, -0.00
11, 92622.81, -187500.02, -187500.02, -187500.02, -187500.02, -187500.02, -187500.02, 178546.05, -0.00, -0.00, -0.00
12, 92638.97, -187500.02, -187500.02, -187500.02, -187500.02, -187500.02, -187500.02, 178327.94, -0.00, -0.00, -0.00
13, 92628.62, -187500.02, -187500.02, -187500.02, -187500.02, -187500.02, -187500.02, 178082.44, -0.00, -0.00, -0.00
14, 92613.17, -187500.02, -187500.02, -187500.02, -187500.02, -187500.02, -187500.02, 177832.66, -0.00, -0.00, -0.00
15, 92628.17, -187500.02, -187500.02, -187500.02, -187500.02, -187500.02, -187500.02, 177572.13, -0.00, -0.00, -0.00
16, 92647.82, -187500.02, -187500.02, -187500.02, -187500.02, -187500.02, -187500.02, 177296.56, -0.00, -0.00, -0.00
17, 92609.45, -187500.02, -187500.02, -187500.02, -187500.02, -187500.02, -187500.02, 176982.53, -0.00, -0.00, -0.00
18, 92547.62, -187500.02, -187500.02, -187500.02, -187500.02, -187500.02, -187500.02, 176674.73, -0.00, -0.00, -0.00
19, 92592.73, -187500.02, -187500.02, -187500.02, -187500.02, -187500.02, -187500.02, 176371.64, -0.00, -0.00, -0.00
20, 92654.08, -187500.02, -187500.02, -187500.02, -187500.02, -187500.02, -187500.02, 176078.67, -0.00, -0.00, -0.00
21, 92663.91, -187500.02, -187500.02, -187500.02, -187500.02, -187500.02, -187500.02, 175760.50, -0.00, -0.00, -0.00
22, 92604.75, -187500.02, -187500.02, -187500.02, -187500.02, -187500.02, -187500.02, 175445.50, -0.00, -0.00, -0.00
23, 92576.43, -187500.02, -187500.02, -187500.02, -187500.02, -187500.02, -187500.02, 175115.92, -0.00, -0.00, -0.00
24, 92550.14, -187500.02, -187500.02, -187500.02, -187500.02, -187500.02, -187500.02, 174789.03, -0.00, -0.00, -0.00
25, 92540.63, -187500.02, -187500.02, -187500.02, -187500.02, -187500.02, -187500.02, 174466.16, -0.00, -0.00, -0.00
26, 92552.67, -187500.02, -187500.02, -187500.02, -187500.02, -187500.02, -187500.02, 174160.16, -0.00, -0.00, -0.00
27, 92593.64, -187500.02, -187500.02, -187500.02, -187500.02, -187500.02, -187500.02, 173838.03, -0.00, -0.00, -0.00
28, 92630.88, -187500.02, -187500.02, -187500.02, -187500.02, -187500.02, -187500.02, 173509.39, -0.00, -0.00, -0.00
29, 92653.59, -187500.02, -187500.02, -187500.02, -187500.02, -187500.02, -187500.02, 173181.17, -0.00, -0.00, -0.00
30, 92645.43, -187500.02, -187500.02, -187500.02, -187500.02, -187500.02, -187500.02, 172818.88, -0.00, -0.00, -0.00
31, 92570.02, -187500.02, -187500.02, -187500.02, -187500.02, -187500.02, -187500.02, 172481.28, -0.00, -0.00, -0.00
32, 92499.96, -187500.02, -187500.02, -187500.02, -187500.02, -187500.02, -187500.02, 172132.41, -0.00, -0.00, -0.00
33, 92455.04, -187500.02, -187500.02, -187500.02, -187500.02, -187500.02, -187500.02, 171783.39, -0.00, -0.00, -0.00
34, 92459.73, -187500.02, -187500.02, -187500.02, -187500.02, -187500.02, -187500.02, 171431.91, -0.00, -0.00, -0.00
35, 92463.84, -187500.02, -187500.02, -187500.02, -187500.02, -187500.02, -187500.02, 171115.14, -0.00, -0.00, -0.00
36, 92504.62, -187500.02, -187500.02, -187500.02, -187500.02, -187500.02, -187500.02, 170799.48, -0.00, -0.00, -0.00
37, 92538.72, -187500.02, -187500.02, -187500.02, -187500.02, -187500.02, -187500.02, 170433.77, -0.00, -0.00, -0.00
38, 92504.39, -187500.02, -187500.02, -187500.02, -187500.02, -187500.02, -187500.02, 170105.84, -0.00, -0.00, -0.00
39, 92514.09, -187500.02, -187500.02, -187500.02, -187500.02, -187500.02, -187500.02, 169774.92, -0.00, -0.00, -0.00
40, 92548.36, -187500.02, -187500.02, -187500.02, -187500.02, -187500.02, -187500.02, 169443.61, -0.00, -0.00, -0.00
41, 92599.16, -187500.02, -187500.02, -187500.02, -187500.02, -187500.02, -187500.02, 169100.39, -0.00, -0.00, -0.00
42, 92592.52, -187500.02, -187500.02, -187500.02, -187500.02, -187500.02, -187500.02, 168740.31, -0.00, -0.00, -0.00
43, 92555.42, -187500.02, -187500.02, -187500.02, -187500.02, -187500.02, -187500.02, 168387.38, -0.00, -0.00, -0.00
44, 92540.76, -187500.02, -187500.02, -187500.02, -187500.02, -187500.02, -187500.02, 168034.06, -0.00, -0.00, -0.00
45, 92533.89, -187500.02, -187500.02, -187500.02, -187500.02, -187500.02, -187500.02, 167712.83, -0.00, -0.00, -0.00
46, 92565.70, -187500.02, -187500.02, -187500.02, -187500.02, -187500.02, -187500.02, 167367.16, -0.00, -0.00, -0.00
47, 92571.18, -187500.02, -187500.02, -187500.02, -187500.02, -187500.02, -187500.02, 167002.39, -0.00, -0.00, -0.00
48, 92574.41, -187500.02, -187500.02, -187500.02, -187500.02, -187500.02, -187500.02, 166642.80, -0.00, -0.00, -0.00
49, 92585.64, -187500.02, -187500.02, -187500.02, -187500.02, -187500.02, -187500.02, 166301.42, -0.00, -0.00, -0.00
50, 92600.62, -187500.02, -187500.02, -187500.02, -187500.02, -187500.02, -187500.02, 165957.70, -0.00, -0.00, -0.00
51, 92602.91, -187500.02, -187500.02, -187500.02, -187500.02, -187500.02, -187500.02, 165602.34, -0.00, -0.00, -0.00
52, 92574.41, -187500.02, -187500.02, -187500.02, -187500.02, -187500.02, -187500.02, 165262.31, -0.00, -0.00, -0.00
53, 92599.36, -187500.02, -187500.02, -187500.02, -187500.02, -187500.02, -187500.02, 164920.28, -0.00, -0.00, -0.00
54, 92578.69, -187500.02, -187500.02, -187500.02, -187500.02, -187500.02, -187500.02, 164580.88, -0.00, -0.00, -0.00
55, 92537.25, -187500.02, -187500.02, -187500.02, -187500.02, -187500.02, -187500.02, 164233.97, -0.00, -0.00, -0.00
56, 92498.24, -187500.02, -187500.02, -187500.02, -187500.02, -187500.02, -187500.02, 163907.89, -0.00, -0.00, -0.00
57, 92534.61, -187500.02, -187500.02, -187500.02, -187500.02, -187500.02, -187500.02, 163582.31, -0.00, -0.00, -0.00
58, 92612.20, -187500.02, -187500.02, -187500.02, -187500.02, -187500.02, -187500.02, 163214.06, -0.00, -0.00, -0.00
59, 92615.73, -187500.02, -187500.02, -187500.02, -187500.02, -187500.02, -187500.02, 162875.23, -0.00, -0.00, -0.00
60, 92628.35, -187500.02, -187500.02, -187500.02, -187500.02, -187500.02, -187500.02, 162536.89, -0.00, -0.00, -0.00
61, 92615.57, -187500.02, -187500.02, -187500.02, -187500.02, -187500.02, -187500.02, 162211.05, -0.00, -0.00, -0.00
62, 92580.45, -187500.02, -187500.02, -187500.02, -187500.02, -187500.02, -187500.02, 161858.61, -0.00, -0.00, -0.00
63, 92531.84, -187500.02, -187500.02, -187500.02, -187500.02, -187500.02, -187500.02, 161490.66, -0.00, -0.00, -0.00
64, 92471.47, -187500.02, -187500.02, -187500.02, -187500.02, -187500.02, -187500.02, 161151.83, -0.00, -0.00, -0.00
65, 92451.80, -187500.02, -187500.02, -187500.02, -187500.02, -187500.02, -187500.02, 160829.20, -0.00, -0.00, -0.00
66, 92475.04, -187500.02, -187500.02, -187500.02, -187500.02, -187500.02, -187500.02, 160493.55, -0.00, -0.00, -0.00
67, 92515.97, -187500.02, -187500.02, -187500.02, -187500.02, -187500.02, -187500.02, 160142.59, -0.00, -0.00, -0.00
68, 92539.33, -187500.02, -187500.02, -187500.02, -187500.02, -187500.02, -187500.02, 159808.03, -0.00, -0.00, -0.00
69, 92613.00, -187500.02, -187500.02, -187500.02, -187500.02, -187500.02, -187500.02, 159482.00, -0.00, -0.00, -0.00
70, 92727.57, -187500.02, -187500.02, -187500.02, -187500.02, -187500.02, -187500.02, 159133.91, -0.00, -0.00, -0.00
71, 92755.47, -187500.02, -187500.02, -187500.02, -187500.02, -187500.02, -187500.02, 158819.44, -0.00, -0.00, -0.00
72, 92758.93, -187500.02, -187500.02, -187500.02, -187500.02, -187500.02, -187500.02, 158477.42, -0.00, -0.00, -0.00
73, 92758.20, -187500.02, -187500.02, -187500.02, -187500.02, -187500.02, -187500.02, 158131.97, -0.00, -0.00, -0.00
74, 92757.81, -187500.02, -187500.02, -187500.02, -187500.02, -187500.02, -187500.02, 157802.80, -0.00, -0.00, -0.00
75, 92762.55, -187500.02, -187500.02, -187500.02, -187500.02, -187500.02, -187500.02, 157450.84, -0.00, -0.00, -0.00
76, 92735.95, -187500.02, -187500.02, -187500.02, -187500.02, -187500.02, -187500.02, 157100.73, -0.00, -0.00, -0.00
77, 92687.85, -187500.02, -187500.02, -187500.02, -187500.02, -187500.02, -187500.02, 156794.98, -0.00, -0.00, -0.00
78, 92700.41, -187500.02, -187500.02, -187500.02, -187500.02, -187500.02, -187500.02, 156492.00, -0.00, -0.00, -0.00
79, 92728.96, -187500.02, -187500.02, -187500.02, -187500.02, -187500.02, -187500.02, 156160.23, -0.00, -0.00, -0.00
80, 92709.09, -187500.02, -187500.02, -187500.02, -187500.02, -187500.02, -187500.02, 155815.39, -0.00, -0.00, -0.00
81, 92679.65, -187500.02, -187500.02, -187500.02, -187500.02, -187500.02, -187500.02, 155477.72, -0.00, -0.00, -0.00
82, 92708.82, -187500.02, -187500.02, -187500.02, -187500.02, -187500.02, -187500.02, 155135.03, -0.00, -0.00, -0.00
83, 92720.62, -187500.02, -187500.02, -187500.02, -187500.02, -187500.02, -187500.02, 154790.39, -0.00, -0.00, -0.00
84, 92675.67, -187500.02, -187500.02, -187500.02, -187500.02, -187500.02, -187500.02, 154483.09, -0.00, -0.00, -0.00
85, 92673.26, -187500.02, -187500.02, -187500.02, -187500.02, -187500.02, -187500.02, 154148.22, -0.00, -0.00, -0.00
86, 92682.42, -187500.02, -187500.02, -187500.02, -187500.02, -187500.02, -187500.02, 153816.83, -0.00, -0.00, -0.00
87, 92705.78, -187500.02, -187500.02, -187500.02, -187500.02, -187500.02, -187500.02, 153490.83, -0.00, -0.00, -0.00
88, 92687.45, -187500.02, -187500.02, -187500.02, -187500.02, -187500.02, -187500.02, 153172.98, -0.00, -0.00, -0.00
89, 92659.96, -187500.02, -187500.02, -187500.02, -187500.02, -187500.02, -187500.02, 152859.06, -0.00, -0.00, -0.00
90, 92660.05, -187500.02, -187500.02, -187500.02, -187500.02, -187500.02, -187500.02, 152546.19, -0.00, -0.00, -0.00
91, 92678.42, -187500.02, -187500.02, -187500.02, -187500.02, -187500.02, -187500.02, 152234.70, -0.00, -0.00, -0.00
92, 92678.55, -187500.02, -187500.02, -187500.02, -187500.02, -187500.02, -187500.02, 151904.64, -0.00, -0.00, -0.00
93, 92663.35, -187500.02, -187500.02, -187500.02, -187500.02, -187500.02, -187500.02, 151556.63, -0.00, -0.00, -0.00
94, 92637.59, -187500.02, -187500.02, -187500.02, -187500.02, -187500.02, -187500.02, 151229.86, -0.00, -0.00, -0.00
95, 92544.49, -187500.02, -187500.02, -187500.02, -187500.02, -187500.02, -187500.02, 150905.09, -0.00, -0.00, -0.00
96, 92421.06, -187500.02, -187500.02, -187500.02, -187500.02, -187500.02, -187500.02, 150592.39, -0.00, -0.00, -0.00
97, 92349.94, -187500.02, -187500.02, -187500.02, -187500.02, -187500.02, -187500.02, 150258.92, -0.00, -0.00, -0.00
98, 92341.05, -187500.02, -187500.02, -187500.02, -187500.02, -187500.02, -187500.02, 149971.34, -0.00, -0.00, -0.00
99, 92396.61, -187500.02, -187500.02, -187500.02, -187500.02, -187500.02, -187500.02, 149678.66, -0.00, -0.00, -0.00
100, 92489.88, -187500.02, -187500.02, -187500.02, -187500.02, -187500.02, -187500.02, 149349.91, -0.00, -0.00, -0.00
101, 92532.33, -187500.02, -187500.02, -187500.02, -187500.02, -187500.02, -187500.02, 149041.66, -0.00, -0.00, -0.00
102, 92595.56, -187500.02, -187500.02, -187500.02, -187500.02, -187500.02, -187500.02, 148742.00, -0.00, -0.00, -0.00
103, 92674.60, -187500.02, -187500.02, -187500.02, -187500.02, -187500.02, -187500.02, 148435.83, -0.00, -0.00, -0.00
104, 92706.12, -187500.02, -187500.02, -187500.02, -187500.02, -187500.02, -187500.02, 148136.77, -0.00, -0.00, -0.00
105, 92711.19, -187500.02, -187500.02, -187500.02, -187500.02, -187500.02, -187500.02, 147814.50, -0.00, -0.00, -0.00
106, 92696.23, -187500.02, -187500.02, -187500.02, -187500.02, -187500.02, -187500.02, 147487.17, -0.00, -0.00, -0.00
107, 92707.41, -187500.02, -187500.02, -187500.02, -187500.02, -187500.02, -187500.02, 147169.77, -0.00, -0.00, -0.00
108, 92719.41, -187500.02, -187500.02, -187500.02, -187500.02, -187500.02, -187500.02, 146853.30, -0.00, -0.00, -0.00
109, 92696.05, -187500.02, -187500.02, -187500.02, -187500.02, -187500.02, -187500.02, 146541.70, -0.00, -0.00, -0.00
110, 92669.37, -187500.02, -187500.02, -187500.02, -187500.02, -187500.02, -187500.02, 146249.20, -0.00, -0.00, -0.00
111, 92682.82, -187500.02, -187500.02, -187500.02, -187500.02, -187500.02, -187500.02, 145940.25, -0.00, -0.00, -0.00
112, 92684.95, -187500.02, -187500.02, -187500.02, -187500.02, -187500.02, -187500.02, 145636.19, -0.00, -0.00, -0.00
113, 92635.75, -187500.02, -187500.02, -187500.02, -187500.02, -187500.02, -187500.02, 145345.91, -0.00, -0.00, -0.00
114, 92590.27, -187500.02, -187500.02, -187500.02, -187500.02, -187500.02, -187500.02, 145036.84, -0.00, -0.00, -0.00
115, 92632.47, -187500.02, -187500.02, -187500.02, -187500.02, -187500.02, -187500.02, 144727.72, -0.00, -0.00, -0.00
116, 92691.01, -187500.02, -187500.02, -187500.02, -187500.02, -187500.02, -187500.02, 144422.64, -0.00, -0.00, -0.00
117, 92688.44, -187500.02, -187500.02, -187500.02, -187500.02, -187500.02, -187500.02, 144132.73, -0.00, -0.00, -0.00
118, 92671.63, -187500.02, -187500.02, -187500.02, -187500.02, -187500.02, -187500.02, 143827.28, -0.00, -0.00, -0.00
119, 92671.80, -187500.02, -187500.02, -187500.02, -187500.02, -187500.02, -187500.02, 143532.81, -0.00, -0.00, -0.00
120, 92705.13, -187500.02, -187500.02, -187500.02, -187500.02, -187500.02, -187500.02, 143228.55, -0.00, -0.00, -0.00
121, 92710.32, -187500.02, -187500.02, -187500.02, -187500.02, -187500.02, -187500.02, 142925.16, -0.00, -0.00, -0.00
122, 92683.77, -187500.02, -187500.02, -187500.02, -187500.02, -187500.02, -187500.02, 142637.78, -0.00, -0.00, -0.00
123, 92686.38, -187500.02, -187500.02, -187500.02, -187500.02, -187500.02, -187500.02, 142338.55, -0.00, -0.00, -0.00
124, 92715.57, -187500.02, -187500.02, -187500.02, -187500.02, -187500.02, -187500.02, 142024.09, -0.00, -0.00, -0.00
125, 92709.83, -187500.02, -187500.02, -187500.02, -187500.02, -187500.02, -187500.02, 141734.39, -0.00, -0.00, -0.00
126, 92692.57, -187500.02, -187500.02, -187500.02, -187500.02, -187500.02, -187500.02, 141435.64, -0.00, -0.00, -0.00
127, 92679.47, -187500.02, -187500.02, -187500.02, -187500.02, -187500.02, -187500.02, 141142.14, -0.00, -0.00, -0.00
128, 92709.52, -187500.02, -187500.02, -187500.02, -187500.02, -187500.02, -187500.02, 140841.27, -0.00, -0.00, -0.00
129, 92721.42, -187500.02, -187500.02, -187500.02, -187500.02, -187500.02, -187500.02, 140545.75, -0.00, -0.00, -0.00
130, 92695.30, -187500.02, -187500.02, -187500.02, -187500.02, -187500.02, -187500.02, 140264.92, -0.00, -0.00, -0.00
131, 92684.77, -187500.02, -187500.02, -187500.02, -187500.02, -187500.02, -187500.02, 139964.19, -0.00, -0.00, -0.00
132, 92706.63, -187500.02, -187500.02, -187500.02, -187500.02, -187500.02, -187500.02, 139665.81, -0.00, -0.00, -0.00
133, 92725.60, -187500.02, -187500.02, -187500.02, -187500.02, -187500.02, -187500.02, 139373.42, -0.00, -0.00, -0.00
134, 92729.92, -187500.02, -187500.02, -187500.02, -187500.02, -187500.02, -187500.02, 139063.72, -0.00, -0.00, -0.00
135, 92702.98, -187500.02, -187500.02, -187500.02, -187500.02, -187500.02, -187500.02, 138765.56, -0.00, -0.00, -0.00
136, 92686.98, -187500.02, -187500.02, -187500.02, -187500.02, -187500.02, -187500.02, 138502.38, -0.00, -0.00, -0.00
137, 92716.80, -187500.02, -187500.02, -187500.02, -187500.02, -187500.02, -187500.02, 138223.77, -0.00, -0.00, -0.00
138, 92731.48, -187500.02, -187500.02, -187500.02, -187500.02, -187500.02, -187500.02, 137915.36, -0.00, -0.00, -0.00
139, 92708.80, -187500.02, -187500.02, -187500.02, -187500.02, -187500.02, -187500.02, 137629.81, -0.00, -0.00, -0.00
140, 92713.60, -187500.02, -187500.02, -187500.02, -187500.02, -187500.02, -187500.02, 137342.50, -0.00, -0.00, -0.00
141, 92747.30, -187500.02, -187500.02, -187500.02, -187500.02, -187500.02, -187500.02, 137056.09, -0.00, -0.00, -0.00
142, 92745.19, -187500.02, -187500.02, -187500.02, -187500.02, -187500.02, -187500.02, 136748.81, -0.00, -0.00, -0.00
143, 92694.49, -187500.02, -187500.02, -187500.02, -187500.02, -187500.02, -187500.02, 136491.13, -0.00, -0.00, -0.00
144, 92704.44, -187500.02, -187500.02, -187500.02, -187500.02, -187500.02, -187500.02, 136207.22, -0.00, -0.00, -0.00
145, 92725.80, -187500.02, -187500.02, -187500.02, -187500.02, -187500.02, -187500.02, 135925.77, -0.00, -0.00, -0.00
146, 92748.31, -187500.02, -187500.02, -187500.02, -187500.02, -187500.02, -187500.02, 135627.34, -0.00, -0.00, -0.00
147, 92731.98, -187500.02, -187500.02, -187500.02, -187500.02, -187500.02, -187500.02, 135323.17, -0.00, -0.00, -0.00
148, 92711.16, -187500.02, -187500.02, -187500.02, -187500.02, -187500.02, -187500.02, 135047.30, -0.00, -0.00, -0.00
149, 92726.63, -187500.02, -187500.02, -187500.02, -187500.02, -187500.02, -187500.02, 134774.33, -0.00, -0.00, -0.00
150, 92726.68, -187500.02, -187500.02, -187500.02, -187500.02, -187500.02, -187500.02, 134485.14, -0.00, -0.00, -0.00
151, 92695.79, -187500.02, -187500.02, -187500.02, -187500.02, -187500.02, -187500.02, 134182.97, -0.00, -0.00, -0.00
152, 92698.63, -187500.02, -187500.02, -187500.02, -187500.02, -187500.02, -187500.02, 133893.16, -0.00, -0.00, -0.00
153, 92729.65, -187500.02, -187500.02, -187500.02, -187500.02, -187500.02, -187500.02, 133621.16, -0.00, -0.00, -0.00
154, 92740.31, -187500.02, -187500.02, -187500.02, -187500.02, -187500.02, -187500.02, 133346.95, -0.00, -0.00, -0.00
155, 92735.57, -187500.02, -187500.02, -187500.02, -187500.02, -187500.02, -187500.02, 133055.97, -0.00, -0.00, -0.00
156, 92719.16, -187500.02, -187500.02, -187500.02, -187500.02, -187500.02, -187500.02, 132770.77, -0.00, -0.00, -0.00
157, 92732.04, -187500.02, -187500.02, -187500.02, -187500.02, -187500.02, -187500.02, 132502.17, -0.00, -0.00, -0.00
158, 92756.67, -187500.02, -187500.02, -187500.02, -187500.02, -187500.02, -187500.02, 132239.22, -0.00, -0.00, -0.00
159, 92756.34, -187500.02, -187500.02, -187500.02, -187500.02, -187500.02, -187500.02, 131944.88, -0.00, -0.00, -0.00
160, 92744.52, -187500.02, -187500.02, -187500.02, -187500.02, -187500.02, -187500.02, 131659.81, -0.00, -0.00, -0.00
161, 92764.52, -187500.02, -187500.02, -187500.02, -187500.02, -187500.02, -187500.02, 131380.52, -0.00, -0.00, -0.00
162, 92784.73, -187500.02, -187500.02, -187500.02, -187500.02, -187500.02, -187500.02, 131118.28, -0.00, -0.00, -0.00
163, 92786.76, -187500.02, -187500.02, -187500.02, -187500.02, -187500.02, -187500.02, 130838.57, -0.00, -0.00, -0.00
164, 92777.59, -187500.02, -187500.02, -187500.02, -187500.02, -187500.02, -187500.02, 130543.28, -0.00, -0.00, -0.00
165, 92768.84, -187500.02, -187500.02, -187500.02, -187500.02, -187500.02, -187500.02, 130274.08, -0.00, -0.00, -0.00
166, 92789.11, -187500.02, -187500.02, -187500.02, -187500.02, -187500.02, -187500.02, 130019.16, -0.00, -0.00, -0.00
167, 92794.00, -187500.02, -187500.02, -187500.02, -187500.02, -187500.02, -187500.02, 129736.77, -0.00, -0.00, -0.00
168, 92729.02, -187500.02, -187500.02, -187500.02, -187500.02, -187500.02, -187500.02, 129435.28, -0.00, -0.00, -0.00
169, 92699.14, -187500.02, -187500.02, -187500.02, -187500.02, -187500.02, -187500.02, 129153.78, -0.00, -0.00, -0.00
170, 92742.48, -187500.02, -187500.02, -187500.02, -187500.02, -187500.02, -187500.02, 128882.23, -0.00, -0.00, -0.00
171, 92757.57, -187500.02, -187500.02, -187500.02, -187500.02, -187500.02, -187500.02, 128620.25, -0.00, -0.00, -0.00
172, 92737.77, -187500.02, -187500.02, -187500.02, -187500.02, -187500.02, -187500.02, 128356.09, -0.00, -0.00, -0.00
173, 92753.59, -187500.02, -187500.02, -187500.02, -187500.02, -187500.02, -187500.02, 128077.93, -0.00, -0.00, -0.00
174, 92796.35, -187500.02, -187500.02, -187500.02, -187500.02, -187500.02, -187500.02, 127806.09, -0.00, -0.00, -0.00
175, 92830.39, -187500.02, -187500.02, -187500.02, -187500.02, -187500.02, -187500.02, 127546.45, -0.00, -0.00, -0.00
176, 92834.50, -187500.02, -187500.02, -187500.02, -187500.02, -187500.02, -187500.02, 127270.05, -0.00, -0.00, -0.00
177, 92825.54, -187500.02, -187500.02, -187500.02, -187500.02, -187500.02, -187500.02, 126993.40, -0.00, -0.00, -0.00
178, 92841.79, -187500.02, -187500.02, -187500.02, -187500.02, -187500.02, -187500.02, 126728.91, -0.00, -0.00, -0.00
179, 92852.34, -187500.02, -187500.02, -187500.02, -187500.02, -187500.02, -187500.02, 126464.76, -0.00, -0.00, -0.00
180, 92846.98, -187500.02, -187500.02, -187500.02, -187500.02, -187500.02, -187500.02, 126187.91, -0.00, -0.00, -0.00
181, 92829.95, -187500.02, -187500.02, -187500.02, -187500.02, -187500.02, -187500.02, 125907.17, -0.00, -0.00, -0.00
182, 92858.38, -187500.02, -187500.02, -187500.02, -187500.02, -187500.02, -187500.02, 125621.20, -0.00, -0.00, -0.00
183, 92879.16, -187500.02, -187500.02, -187500.02, -187500.02, -187500.02, -187500.02, 125347.91, -0.00, -0.00, -0.00
184, 92860.21, -187500.02, -187500.02, -187500.02, -187500.02, -187500.02, -187500.02, 125076.98, -0.00, -0.00, -0.00
185, 92825.70, -187500.02, -187500.02, -187500.02, -187500.02, -187500.02, -187500.02, 124809.14, -0.00, -0.00, -0.00
186, 92842.39, -187500.02, -187500.02, -187500.02, -187500.02, -187500.02, -187500.02, 124550.02, -0.00, -0.00, -0.00
187, 92883.74, -187500.02, -187500.02, -187500.02, -187500.02, -187500.02, -187500.02, 124274.66, -0.00, -0.00, -0.00
188, 92881.06, -187500.02, -187500.02, -187500.02, -187500.02, -187500.02, -187500.02, 123988.81, -0.00, -0.00, -0.00
189, 92858.40, -187500.02, -187500.02, -187500.02, -187500.02, -187500.02, -187500.02, 123704.49, -0.00, -0.00, -0.00
190, 92837.48, -187500.02, -187500.02, -187500.02, -187500.02, -187500.02, -187500.02, 123442.31, -0.00, -0.00, -0.00
191, 92836.65, -187500.02, -187500.02, -187500.02, -187500.02, -187500.02, -187500.02, 123189.58, -0.00, -0.00, -0.00
192, 92849.44, -187500.02, -187500.02, -187500.02, -187500.02, -187500.02, -187500.02, 122914.92, -0.00, -0.00, -0.00
193, 92858.58, -187500.02, -187500.02, -187500.02, -187500.02, -187500.02, -187500.02, 122647.15, -0.00, -0.00, -0.00
194, 92868.34, -187500.02, -187500.02, -187500.02, -187500.02, -187500.02, -187500.02, 122372.76, -0.00, -0.00, -0.00
195, 92910.77, -187500.02, -187500.02, -187500.02, -187500.02, -187500.02, -187500.02, 122093.38, -0.00, -0.00, -0.00
196, 92917.74, -187500.02, -187500.02, -187500.02, -187500.02, -187500.02, -187500.02, 121832.80, -0.00, -0.00, -0.00
197, 92903.99, -187500.02, -187500.02, -187500.02, -187500.02, -187500.02, -187500.02, 121566.69, -0.00, -0.00, -0.00
198, 92872.48, -187500.02, -187500.02, -187500.02, -187500.02, -187500.02, -187500.02, 121297.34, -0.00, -0.00, -0.00
199, 92894.14, -187500.02, -187500.02, -187500.02, -187500.02, -187500.02, -187500.02, 121040.48, -0.00, -0.00, -0.00
200, 92925.09, -187500.02, -187500.02, -187500.02, -187500.02, -187500.02, -187500.02, 120754.00, -0.00, -0.00, -0.00
201, 92891.52, -187500.02, -187500.02, -187500.02, -187500.02, -187500.02, -187500.02, 120477.84, -0.00, -0.00, -0.00
202, 92868.73, -187500.02, -187500.02, -187500.02, -187500.02, -187500.02, -187500.02, 120201.89, -0.00, -0.00, -0.00
203, 92896.38, -187500.02, -187500.02, -187500.02, -187500.02, -187500.02, -187500.02, 119932.51, -0.00, -0.00, -0.00
204, 92933.30, -187500.02, -187500.02, -187500.02, -187500.02, -187500.02, -187500.02, 119679.69, -0.00, -0.00, -0.00
205, 92909.02, -187500.02, -187500.02, -187500.02, -187500.02, -187500.02, -187500.02, 119434.09, -0.00, -0.00, -0.00
206, 92895.34, -187500.02, -187500.02, -187500.02, -187500.02, -187500.02, -187500.02, 119167.07, -0.00, -0.00, -0.00
207, 92904.28, -187500.02, -187500.02, -187500.02, -187500.02, -187500.02, -187500.02, 118913.55, -0.00, -0.00, -0.00
208, 92939.51, -187500.02, -187500.02, -187500.02, -187500.02, -187500.02, -187500.02, 118655.08, -0.00, -0.00, -0.00
209, 92931.02, -187500.02, -187500.02, -187500.02, -187500.02, -187500.02, -187500.02, 118383.35, -0.00, -0.00, -0.00
210, 92883.23, -187500.02, -187500.02, -187500.02, -187500.02, -187500.02, -187500.02, 118130.22, -0.00, -0.00, -0.00
211, 92881.60, -187500.02, -187500.02, -187500.02, -187500.02, -187500.02, -187500.02, 117865.75, -0.00, -0.00, -0.00
212, 92905.02, -187500.02, -187500.02, -187500.02, -187500.02, -187500.02, -187500.02, 117634.97, -0.00, -0.00, -0.00
213, 92922.50, -187500.02, -187500.02, -187500.02, -187500.02, -187500.02, -187500.02, 117386.62, -0.00, -0.00, -0.00
214, 92894.09, -187500.02, -187500.02, -187500.02, -187500.02, -187500.02, -187500.02, 117129.57, -0.00, -0.00, -0.00
215, 92890.43, -187500.02, -187500.02, -187500.02, -187500.02, -187500.02, -187500.02, 116881.02, -0.00, -0.00, -0.00
216, 92910.90, -187500.02, -187500.02, -187500.02, -187500.02, -187500.02, -187500.02, 116630.17, -0.00, -0.00, -0.00
217, 92929.01, -187500.02, -187500.02, -187500.02, -187500.02, -187500.02, -187500.02, 116364.50, -0.00, -0.00, -0.00
218, 92891.25, -187500.02, -187500.02, -187500.02, -187500.02, -187500.02, -187500.02, 116102.06, -0.00, -0.00, -0.00
219, 92853.44, -187500.02, -187500.02, -187500.02, -187500.02, -187500.02, -187500.02, 115851.01, -0.00, -0.00, -0.00
220, 92889.09, -187500.02, -187500.02, -187500.02, -187500.02, -187500.02, -187500.02, 115597.36, -0.00, -0.00, -0.00
221, 92917.27, -187500.02, -187500.02, -187500.02, -187500.02, -187500.02, -187500.02, 115343.58, -0.00, -0.00, -0.00
222, 92894.31, -187500.02, -187500.02, -187500.02, -187500.02, -187500.02, -187500.02, 115095.03, -0.00, -0.00, -0.00
223, 92882.91, -187500.02, -187500.02, -187500.02, -187500.02, -187500.02, -187500.02, 114839.82, -0.00, -0.00, -0.00
224, 92894.67, -187500.02, -187500.02, -187500.02, -187500.02, -187500.02, -187500.02, 114593.39, -0.00, -0.00, -0.00
225, 92940.41, -187500.02, -187500.02, -187500.02, -187500.02, -187500.02, -187500.02, 114352.37, -0.00, -0.00, -0.00
226, 92931.48, -187500.02, -187500.02, -187500.02, -187500.02, -187500.02, -187500.02, 114100.17, -0.00, -0.00, -0.00
227, 92911.93, -187500.02, -187500.02, -187500.02, -187500.02, -187500.02, -187500.02, 113833.48, -0.00, -0.00, -0.00
228, 92918.30, -187500.02, -187500.02, -187500.02, -187500.02, -187500.02, -187500.02, 113605.22, -0.00, -0.00, -0.00
229, 92936.96, -187500.02, -187500.02, -187500.02, -187500.02, -187500.02, -187500.02, 113372.36, -0.00, -0.00, -0.00
230, 92917.59, -187500.02, -187500.02, -187500.02, -187500.02, -187500.02, -187500.02, 113129.66, -0.00, -0.00, -0.00
231, 92890.96, -187500.02, -187500.02, -187500.02, -187500.02, -187500.02, -187500.02, 112895.48, -0.00, -0.00, -0.00
232, 92921.65, -187500.02, -187500.02, -187500.02, -187500.02, -187500.02, -187500.02, 112648.61, -0.00, -0.00, -0.00
233, 92954.78, -187500.02, -187500.02, -187500.02, -187500.02, -187500.02, -187500.02, 112389.33, -0.00, -0.00, -0.00
234, 92932.94, -187500.02, -187500.02, -187500.02, -187500.02, -187500.02, -187500.02, 112148.89, -0.00, -0.00, -0.00
235, 92914.23, -187500.02, -187500.02, -187500.02, -187500.02, -187500.02, -187500.02, 111907.67, -0.00, -0.00, -0.00
236, 92931.46, -187500.02, -187500.02, -187500.02, -187500.02, -187500.02, -187500.02, 111668.48, -0.00, -0.00, -0.00
237, 92964.84, -187500.02, -187500.02, -187500.02, -187500.02, -187500.02, -187500.02, 111430.91, -0.00, -0.00, -0.00
238, 92962.45, -187500.02, -187500.02, -187500.02, -187500.02, -187500.02, -187500.02, 111214.05, -0.00, -0.00, -0.00
239, 92971.88, -187500.02, -187500.02, -187500.02, -187500.02, -187500.02, -187500.02, 110962.30, -0.00, -0.00, -0.00
240, 92979.37, -187500.02, -187500.02, -187500.02, -187500.02, -187500.02, -187500.02, 110721.64, -0.00, -0.00, -0.00
241, 93014.16, -187500.02, -187500.02, -187500.02, -187500.02, -187500.02, -187500.02, 110473.43, -0.00, -0.00, -0.00
242, 93008.87, -187500.02, -187500.02, -187500.02, -187500.02, -187500.02, -187500.02, 110247.92, -0.00, -0.00, -0.00
243, 93002.32, -187500.02, -187500.02, -187500.02, -187500.02, -187500.02, -187500.02, 110022.37, -0.00, -0.00, -0.00
244, 93008.71, -187500.02, -187500.02, -187500.02, -187500.02, -187500.02, -187500.02, 109777.41, -0.00, -0.00, -0.00
245, 93028.67, -187500.02, -187500.02, -187500.02, -187500.02, -187500.02, -187500.02, 109540.55, -0.00, -0.00, -0.00
246, 93050.17, -187500.02, -187500.02, -187500.02, -187500.02, -187500.02, -187500.02, 109314.94, -0.00, -0.00, -0.00
247, 93041.39, -187500.02, -187500.02, -187500.02, -187500.02, -187500.02, -187500.02, 109062.88, -0.00, -0.00, -0.00
248, 93024.25, -187500.02, -187500.02, -187500.02, -187500.02, -187500.02, -187500.02, 108804.00, -0.00, -0.00, -0.00
249, 93067.50, -187500.02, -187500.02, -187500.02, -187500.02, -187500.02, -187500.02, 108560.72, -0.00, -0.00, -0.00
250, 93042.69, -187500.02, -187500.02, -187500.02, -187500.02, -187500.02, -187500.02, 108331.48, -0.00, -0.00, -0.00
251, 92939.91, -187500.02, -187500.02, -187500.02, -187500.02, -187500.02, -187500.02, 108109.75, -0.00, -0.00, -0.00
252, 92856.01, -187500.02, -187500.02, -187500.02, -187500.02, -187500.02, -187500.02, 107860.95, -0.00, -0.00, -0.00
253, 92860.38, -187500.02, -187500.02, -187500.02, -187500.02, -187500.02, -187500.02, 107630.27, -0.00, -0.00, -0.00
254, 92918.45, -187500.02, -187500.02, -187500.02, -187500.02, -187500.02, -187500.02, 107405.45, -0.00, -0.00, -0.00
255, 92947.36, -187500.02, -187500.02, -187500.02, -187500.02, -187500.02, -187500.02, 107172.09, -0.00, -0.00, -0.00
0, 92941.88, -187500.02, -187500.02, -187500.02, -187500.02, -187500.02, -187500.02, 106942.61, -0.00, -0.00, -0.00
1, 92954.80, -187500.02, -187500.02, -187500.02, -187500.02, -187500.02, -187500.02, 106724.37, -0.00, -0.00, -0.00
2, 93010.79, -187500.02, -187500.02, -187500.02, -187500.02, -187500.02, -187500.02, 106491.51, -0.00, -0.00, -0.00
3, 93014.05, -187500.02, -187500.02, -187500.02, -187500.02, -187500.02, -187500.02, 106276.02, -0.00, -0.00, -0.00
4, 93007.35, -187500.02, -187500.02, -187500.02, -187500.02, -187500.02, -187500.02, 106050.73, -0.00, -0.00, -0.00
5, 93009.80, -187500.02, -187500.02, -187500.02, -187500.02, -187500.02, -187500.02, 105826.79, -0.00, -0.00, -0.00
6, 93051.54, -187500.02, -187500.02, -187500.02, -187500.02, -187500.02, -187500.02, 105589.28, -0.00, -0.00, -0.00
7, 93042.44, -187500.02, -187500.02, -187500.02, -187500.02, -187500.02, -187500.02, 105364.53, -0.00, -0.00, -0.00
8, 93014.13, -187500.02, -187500.02, -187500.02, -187500.02, -187500.02, -187500.02, 105149.04, -0.00, -0.00, -0.00
9, 92994.74, -187500.02, -187500.02, -187500.02, -187500.02, -187500.02, -187500.02, 104936.81, -0.00, -0.00, -0.00
10, 93018.46, -187500.02, -187500.02, -187500.02, -187500.02, -187500.02, -187500.02, 104723.04, -0.00, -0.00, -0.00
11, 93058.16, -187500.02, -187500.02, -187500.02, -187500.02, -187500.02, -187500.02, 104496.88, -0.00, -0.00, -0.00
12, 93041.44, -187500.02, -187500.02, -187500.02, -187500.02, -187500.02, -187500.02, 104260.34, -0.00, -0.00, -0.00
13, 93033.39, -187500.02, -187500.02, -187500.02, -187500.02, -187500.02, -187500.02, 104040.64, -0.00, -0.00, -0.00
14, 93063.30, -187500.02, -187500.02, -187500.02, -187500.02, -187500.02, -187500.02, 103793.36, -0.00, -0.00, -0.00
15, 93068.95, -187500.02, -187500.02, -187500.02, -187500.02, -187500.02, -187500.02, 103586.90, -0.00, -0.00, -0.00
16, 93053.28, -187500.02, -187500.02, -187500.02, -187500.02, -187500.02, -187500.02, 103366.48, -0.00, -0.00, -0.00
17, 93005.47, -187500.02, -187500.02, -187500.02, -187500.02, -187500.02, -187500.02, 103171.18, -0.00, -0.00, -0.00
18, 93022.97, -187500.02, -187500.02, -187500.02, -187500.02, -187500.02, -187500.02, 102962.63, -0.00, -0.00, -0.00
19, 93055.92, -187500.02, -187500.02, -187500.02, -187500.02, -187500.02, -187500.02, 102744.80, -0.00, -0.00, -0.00
20, 93042.95, -187500.02, -187500.02, -187500.02, -187500.02, -187500.02, -187500.02, 102525.13, -0.00, -0.00, -0.00
21, 93024.85, -187500.02, -187500.02, -187500.02, -187500.02, -187500.02, -187500.02, 102307.95, -0.00, -0.00, -0.00
22, 93035.80, -187500.02, -187500.02, -187500.02, -187500.02, -187500.02, -187500.02, 102098.83, -0.00, -0.00, -0.00
23, 93062.89, -187500.02, -187500.02, -187500.02, -187500.02, -187500.02, -187500.02, 101888.10, -0.00, -0.00, -0.00
24, 93060.45, -187500.02, -187500.02, -187500.02, -187500.02, -187500.02, -187500.02, 101662.34, -0.00, -0.00, -0.00
25, 93021.09, -187500.02, -187500.02, -187500.02, -187500.02, -187500.02, -187500.02, 101457.49, -0.00, -0.00, -0.00
26, 93034.77, -187500.02, -187500.02, -187500.02, -187500.02, -187500.02, -187500.02, 101244.97, -0.00, -0.00, -0.00
27, 93053.57, -187500.02, -187500.02, -187500.02, -187500.02, -187500.02, -187500.02, 101037.55, -0.00, -0.00, -0.00
28, 93056.41, -187500.02, -187500.02, -187500.02, -187500.02, -187500.02, -187500.02, 100833.55, -0.00, -0.00, -0.00
29, 93039.83, -187500.02, -187500.02, -187500.02, -187500.02, -187500.02, -187500.02, 100624.82, -0.00, -0.00, -0.00
30, 93040.32, -187500.02, -187500.02, -187500.02, -187500.02, -187500.02, -187500.02, 100418.98, -0.00, -0.00, -0.00
31, 93069.06, -187500.02, -187500.02, -187500.02, -187500.02, -187500.02, -187500.02, 100204.07, -0.00, -0.00, -0.00
32, 93070.78, -187500.02, -187500.02, -187500.02, -187500.02, -187500.02, -187500.02, 100011.63, -0.00, -0.00, -0.00
33, 93037.99, -187500.02, -187500.02, -187500.02, -187500.02, -187500.02, -187500.02, 99807.91, -0.00, -0.00, -0.00
34, 93009.09, -187500.02, -187500.02, -187500.02, -187500.02, -187500.02, -187500.02, 99605.67, -0.00, -0.00, -0.00
35, 93037.37, -187500.02, -187500.02, -187500.02, -187500.02, -187500.02, -187500.02, 99403.55, -0.00, -0.00, -0.00
36, 93066.29, -187500.02, -187500.02, -187500.02, -187500.02, -187500.02, -187500.02, 99189.04, -0.00, -0.00, -0.00
37, 93047.54, -187500.02, -187500.02, -187500.02, -187500.02, -187500.02, -187500.02, 98983.22, -0.00, -0.00, -0.00
38, 93029.03, -187500.02, -187500.02, -187500.02, -187500.02, -187500.02, -187500.02, 98792.38, -0.00, -0.00, -0.00
39, 93066.76, -187500.02, -187500.02, -187500.02, -187500.02, -187500.02, -187500.02, 98578.41, -0.00, -0.00, -0.00
40, 93087.39, -187500.02, -187500.02, -187500.02, -187500.02, -187500.02, -187500.02, 98381.58, -0.00, -0.00, -0.00
41, 93078.65, -187500.02, -187500.02, -187500.02, -187500.02, -187500.02, -187500.02, 98174.27, -0.00, -0.00, -0.00
42, 93046.87, -187500.02, -187500.02, -187500.02, -187500.02, -187500.02, -187500.02, 97973.75, -0.00, -0.00, -0.00
43, 93055.70, -187500.02, -187500.02, -187500.02, -187500.02, -187500.02, -187500.02, 97770.41, -0.00, -0.00, -0.00
44, 93082.38, -187500.02, -187500.02, -187500.02, -187500.02, -187500.02, -187500.02, 97570.28, -0.00, -0.00, -0.00
45, 93071.09, -187500.02, -187500.02, -187500.02, -187500.02, -187500.02, -187500.02, 97357.16, -0.00, -0.00, -0.00
46, 93041.95, -187500.02, -187500.02, -187500.02, -187500.02, -187500.02, -187500.02, 97162.05, -0.00, -0.00, -0.00
47, 93057.13, -187500.02, -187500.02, -187500.02, -187500.02, -187500.02, -187500.02, 96963.34, -0.00, -0.00, -0.00
48, 92979.86, -187500.02, -187500.02, -187500.02, -187500.02, -187500.02, -187500.02, 96740.34, -0.00, -0.00, -0.00
49, 93010.75, -187500.02, -187500.02, -187500.02, -187500.02, -187500.02, -187500.02, 96567.11, -0.00, -0.00, -0.00
50, 93099.21, -187500.02, -187500.02, -187500.02, -187500.02, -187500.02, -187500.02, 96386.93, -0.00, -0.00, -0.00
51, 93148.39, -187500.02, -187500.02, -187500.02, -187500.02, -187500.02, -187500.02, 96179.87, -0.00, -0.00, -0.00
52, 93186.37, -187500.02, -187500.02, -187500.02, -187500.02, -187500.02, -187500.02, 95977.09, -0.00, -0.00, -0.00
53, 93171.39, -187500.02, -187500.02, -187500.02, -187500.02, -187500.02, -187500.02, 95781.02, -0.00, -0.00, -0.00
54, 93119.22, -187500.02, -187500.02, -187500.02, -187500.02, -187500.02, -187500.02, 95613.38, -0.00, -0.00, -0.00
55, 93132.23, -187500.02, -187500.02, -187500.02, -187500.02, -187500.02, -187500.02, 95416.60, -0.00, -0.00, -0.00
56, 93180.44, -187500.02, -187500.02, -187500.02, -187500.02, -187500.02, -187500.02, 95215.27, -0.00, -0.00, -0.00
57, 93191.86, -187500.02, -187500.02, -187500.02, -187500.02, -187500.02, -187500.02, 95017.95, -0.00, -0.00, -0.00
58, 93147.25, -187500.02, -187500.02, -187500.02, -187500.02, -187500.02, -187500.02, 94842.36, -0.00, -0.00, -0.00
59, 93144.32, -187500.02, -187500.02, -187500.02, -187500.02, -187500.02, -187500.02, 94655.61, -0.00, -0.00, -0.00
60, 93158.34, -187500.02, -187500.02, -187500.02, -187500.02, -187500.02, -187500.02, 94480.89, -0.00, -0.00, -0.00
61, 93181.07, -187500.02, -187500.02, -187500.02, -187500.02, -187500.02, -187500.02, 94289.49, -0.00, -0.00, -0.00
62, 93158.89, -187500.02, -187500.02, -187500.02, -187500.02, -187500.02, -187500.02, 94093.94, -0.00, -0.00, -0.00
63, 93150.31, -187500.02, -187500.02, -187500.02, -187500.02, -187500.02, -187500.02, 93895.49, -0.00, -0.00, -0.00
64, 93174.31, -187500.02, -187500.02, -187500.02, -187500.02, -187500.02, -187500.02, 93710.27, -0.00, -0.00, -0.00
65, 93200.87, -187500.02, -187500.02, -187500.02, -187500.02, -187500.02, -187500.02, 93516.99, -0.00, -0.00, -0.00
66, 93177.31, -187500.02, -187500.02, -187500.02, -187500.02, -187500.02, -187500.02, 93331.65, -0.00, -0.00, -0.00
67, 93163.63, -187500.02, -187500.02, -187500.02, -187500.02, -187500.02, -187500.02, 93138.17, -0.00, -0.00, -0.00
68, 93166.67, -187500.02, -187500.02, -187500.02, -187500.02, -187500.02, -187500.02, 92955.45, -0.00, -0.00, -0.00
69, 93205.88, -187500.02, -187500.02, -187500.02, -187500.02, -187500.02, -187500.02, 92767.67, -0.00, -0.00, -0.00
70, 93196.22, -187500.02, -187500.02, -187500.02, -187500.02, -187500.02, -187500.02, 92567.98, -0.00, -0.00, -0.00
71, 93160.13, -187500.02, -187500.02, -187500.02, -187500.02, -187500.02, -187500.02, 92387.45, -0.00, -0.00, -0.00
72, 93152.77, -187500.02, -187500.02, -187500.02, -187500.02, -187500.02, -187500.02, 92219.47, -0.00, -0.00, -0.00
73, 93167.43, -187500.02, -187500.02, -187500.02, -187500.02, -187500.02, -187500.02, 92053.84, -0.00, -0.00, -0.00
74, 93178.63, -187500.02, -187500.02, -187500.02, -187500.02, -187500.02, -187500.02, 91863.01, -0.00, -0.00, -0.00
75, 93162.56, -187500.02, -187500.02, -187500.02, -187500.02, -187500.02, -187500.02, 91659.13, -0.00, -0.00, -0.00
76, 93146.38, -187500.02, -187500.02, -187500.02, -187500.02, -187500.02, -187500.02, 91497.51, -0.00, -0.00, -0.00
77, 93163.27, -187500.02, -187500.02, -187500.02, -187500.02, -187500.02, -187500.02, 91332.80, -0.00, -0.00, -0.00
78, 93184.38, -187500.02, -187500.02, -187500.02, -187500.02, -187500.02, -187500.02, 91148.40, -0.00, -0.00, -0.00
79, 93164.28, -187500.02, -187500.02, -187500.02, -187500.02, -187500.02, -187500.02, 90948.53, -0.00, -0.00, -0.00
80, 93158.02, -187500.02, -187500.02, -187500.02, -187500.02, -187500.02, -187500.02, 90755.66, -0.00, -0.00, -0.00
81, 93174.52, -187500.02, -187500.02, -187500.02, -187500.02, -187500.02, -187500.02, 90589.80, -0.00, -0.00, -0.00
82, 93180.35, -187500.02, -187500.02, -187500.02, -187500.02, -187500.02, -187500.02, 90416.45, -0.00, -0.00, -0.00
83, 93175.99, -187500.02, -187500.02, -187500.02, -187500.02, -187500.02, -187500.02, 90206.81, -0.00, -0.00, -0.00
84, 93160.21, -187500.02, -187500.02, -187500.02, -187500.02, -187500.02, -187500.02, 90010.77, -0.00, -0.00, -0.00
85, 93165.48, -187500.02, -187500.02, -187500.02, -187500.02, -187500.02, -187500.02, 89854.08, -0.00, -0.00, -0.00
86, 93178.14, -187500.02, -187500.02, -187500.02, -187500.02, -187500.02, -187500.02, 89686.23, -0.00, -0.00, -0.00
87, 93159.81, -187500.02, -187500.02, -187500.02, -187500.02, -187500.02, -187500.02, 89504.49, -0.00, -0.00, -0.00
88, 93143.29, -187500.02, -187500.02, -187500.02, -187500.02, -187500.02, -187500.02, 89338.09, -0.00, -0.00, -0.00
89, 93160.91, -187500.02, -187500.02, -187500.02, -187500.02, -187500.02, -187500.02, 89167.50, -0.00, -0.00, -0.00
90, 93190.37, -187500.02, -187500.02, -187500.02, -187500.02, -187500.02, -187500.02, 88981.89, -0.00, -0.00, -0.00
91, 93171.30, -187500.02, -187500.02, -187500.02, -187500.02, -187500.02, -187500.02, 88800.21, -0.00, -0.00, -0.00
92, 93148.12, -187500.02, -187500.02, -187500.02, -187500.02, -187500.02, -187500.02, 88619.05, -0.00, -0.00, -0.00
93, 93157.30, -187500.02, -187500.02, -187500.02, -187500.02, -187500.02, -187500.02, 88446.43, -0.00, -0.00, -0.00
94, 93186.37, -187500.02, -187500.02, -187500.02, -187500.02, -187500.02, -187500.02, 88263.48, -0.00, -0.00, -0.00
95, 93170.59, -187500.02, -187500.02, -187500.02, -187500.02, -187500.02, -187500.02, 88085.56, -0.00, -0.00, -0.00
96, 93152.88, -187500.02, -187500.02, -187500.02, -187500.02, -187500.02, -187500.02, 87899.26, -0.00, -0.00, -0.00
97, 93155.72, -187500.02, -187500.02, -187500.02, -187500.02, -187500.02, -187500.02, 87711.84, -0.00, -0.00, -0.00
98, 93170.74, -187500.02, -187500.02, -187500.02, -187500.02, -187500.02, -187500.02, 87541.38, -0.00, -0.00, -0.00
99, 93167.05, -187500.02, -187500.02, -187500.02, -187500.02, -187500.02, -187500.02, 87367.53, -0.00, -0.00, -0.00
100, 93167.12, -187500.02, -187500.02, -187500.02, -187500.02, -187500.02, -187500.02, 87155.62, -0.00, -0.00, -0.00
101, 93161.22, -187500.02, -187500.02, -187500.02, -187500.02, -187500.02, -187500.02, 86960.98, -0.00, -0.00, -0.00
102, 93172.20, -187500.02, -187500.02, -187500.02, -187500.02, -187500.02, -187500.02, 86797.21, -0.00, -0.00, -0.00
103, 93195.73, -187500.02, -187500.02, -187500.02, -187500.02, -187500.02, -187500.02, 86597.92, -0.00, -0.00, -0.00
104, 93158.89, -187500.02, -187500.02, -187500.02, -187500.02, -187500.02, -187500.02, 86408.45, -0.00, -0.00, -0.00
105, 93144.66, -187500.02, -187500.02, -187500.02, -187500.02, -187500.02, -187500.02, 86235.44, -0.00, -0.00, -0.00
106, 93174.56, -187500.02, -187500.02, -187500.02, -187500.02, -187500.02, -187500.02, 86056.80, -0.00, -0.00, -0.00
107, 93188.84, -187500.02, -187500.02, -187500.02, -187500.02, -187500.02, -187500.02, 85864.31, -0.00, -0.00, -0.00
108, 93166.72, -187500.02, -187500.02, -187500.02, -187500.02, -187500.02, -187500.02, 85668.34, -0.00, -0.00, -0.00
109, 93156.79, -187500.02, -187500.02, -187500.02, -187500.02, -187500.02, -187500.02, 85482.08, -0.00, -0.00, -0.00
110, 93171.86, -187500.02, -187500.02, -187500.02, -187500.02, -187500.02, -187500.02, 85302.19, -0.00, -0.00, -0.00
111, 93179.13, -187500.02, -187500.02, -187500.02, -187500.02, -187500.02, -187500.02, 85130.37, -0.00, -0.00, -0.00
112, 93164.48, -187500.02, -187500.02, -187500.02, -187500.02, -187500.02, -187500.02, 84946.30, -0.00, -0.00, -0.00
113, 93147.63, -187500.02, -187500.02, -187500.02, -187500.02, -187500.02, -187500.02, 84768.25, -0.00, -0.00, -0.00
114, 93163.32, -187500.02, -187500.02, -187500.02, -187500.02, -187500.02, -187500.02, 84598.09, -0.00, -0.00, -0.00
115, 93180.13, -187500.02, -187500.02, -187500.02, -187500.02, -187500.02, -187500.02, 84423.14, -0.00, -0.00, -0.00
116, 93177.02, -187500.02, -187500.02, -187500.02, -187500.02, -187500.02, -187500.02, 84236.63, -0.00, -0.00, -0.00
117, 93156.91, -187500.02, -187500.02, -187500.02, -187500.02, -187500.02, -187500.02, 84052.99, -0.00, -0.00, -0.00
118, 93167.59, -187500.02, -187500.02, -187500.02, -187500.02, -187500.02, -187500.02, 83879.68, -0.00, -0.00, -0.00
119, 93202.70, -187500.02, -187500.02, -187500.02, -187500.02, -187500.02, -187500.02, 83686.74, -0.00, -0.00, -0.00
120, 93187.66, -187500.02, -187500.02, -187500.02, -187500.02, -187500.02, -187500.02, 83499.79, -0.00, -0.00, -0.00
121, 93148.26, -187500.02, -187500.02, -187500.02, -187500.02, -187500.02, -187500.02, 83335.44, -0.00, -0.00, -0.00
122, 93170.27, -187500.02, -187500.02, -187500.02, -187500.02, -187500.02, -187500.02, 83166.68, -0.00, -0.00, -0.00
123, 93188.69, -187500.02, -187500.02, -187500.02, -187500.02, -187500.02, -187500.02, 83007.07, -0.00, -0.00, -0.00
124, 93163.74, -187500.02, -187500.02, -187500.02, -187500.02, -187500.02, -187500.02, 82914.35, -0.00, -0.00, -0.00
125, 93154.24, -187500.02, -187500.02, -187500.02, -187500.02, -187500.02, -187500.02, 82800.34, -0.00, -0.00, -0.00
126, 93106.75, -187500.02, -187500.02, -187500.02, -187500.02, -187500.02, -187500.02, 82769.24, -0.00, -0.00, -0.00
127, 93144.14, -187500.02, -187500.02, -187500.02, -187500.02, -187500.02, -187500.02, 82763.16, -0.00, -0.00, -0.00
128, 93157.64, -187500.02, -187500.02, -187500.02, -187500.02, -187500.02, -187500.02, 82776.27, -0.00, -0.00, -0.00
129, 93134.59, -187500.02, -187500.02, -187500.02, -187500.02, -187500.02, -187500.02, 82823.88, -0.00, -0.00, -0.00
130, 93135.89, -187500.02, -187500.02, -187500.02, -187500.02, -187500.02, -187500.02, 82897.43, -0.00, -0.00, -0.00
131, 93191.59, -187500.02, -187500.02, -187500.02, -187500.02, -187500.02, -187500.02, 82964.02, -0.00, -0.00, -0.00
132, 93188.58, -187500.02, -187500.02, -187500.02, -187500.02, -187500.02, -187500.02, 83067.44, -0.00, -0.00, -0.00
133, 93150.91, -187500.02, -187500.02, -187500.02, -187500.02, -187500.02, -187500.02, 83203.34, -0.00, -0.00, -0.00
134, 93117.59, -187500.02, -187500.02, -187500.02, -187500.02, -187500.02, -187500.02, 83372.43, -0.00, -0.00, -0.00
135, 93147.72, -187500.02, -187500.02, -187500.02, -187500.02, -187500.02, -187500.02, 83536.13, -0.00, -0.00, -0.00
136, 93175.63, -187500.02, -187500.02, -187500.02, -187500.02, -187500.02, -187500.02, 83691.16, -0.00, -0.00, -0.00
137, 93150.18, -187500.02, -187500.02, -187500.02, -187500.02, -187500.02, -187500.02, 83887.03, -0.00, -0.00, -0.00
138, 93153.30, -187500.02, -187500.02, -187500.02, -187500.02, -187500.02, -187500.02, 84058.16, -0.00, -0.00, -0.00
139, 93165.47, -187500.02, -187500.02, -187500.02, -187500.02, -187500.02, -187500.02, 84229.44, -0.00, -0.00, -0.00
140, 93163.09, -187500.02, -187500.02, -187500.02, -187500.02, -187500.02, -187500.02, 84448.42, -0.00, -0.00, -0.00
141, 93150.63, -187500.02, -187500.02, -187500.02, -187500.02, -187500.02, -187500.02, 84670.87, -0.00, -0.00, -0.00
142, 93137.97, -187500.02, -187500.02, -187500.02, -187500.02, -187500.02, -187500.02, 84873.75, -0.00, -0.00, -0.00
143, 93142.13, -187500.02, -187500.02, -187500.02, -187500.02, -187500.02, -187500.02, 85095.66, -0.00, -0.00, -0.00
144, 93162.96, -187500.02, -187500.02, -187500.02, -187500.02, -187500.02, -187500.02, 85326.98, -0.00, -0.00, -0.00
145, 93157.71, -187500.02, -187500.02, -187500.02, -187500.02, -187500.02, -187500.02, 85552.66, -0.00, -0.00, -0.00
146, 93130.69, -187500.02, -187500.02, -187500.02, -187500.02, -187500.02, -187500.02, 85789.13, -0.00, -0.00, -0.00
147, 93126.66, -187500.02, -187500.02, -187500.02, -187500.02, -187500.02, -187500.02, 86027.13, -0.00, -0.00, -0.00
148, 93158.18, -187500.02, -187500.02, -187500.02, -187500.02, -187500.02, -187500.02, 86265.23, -0.00, -0.00, -0.00
149, 93146.20, -187500.02, -187500.02, -187500.02, -187500.02, -187500.02, -187500.02, 86534.04, -0.00, -0.00, -0.00
150, 93130.57, -187500.02, -187500.02, -187500.02, -187500.02, -187500.02, -187500.02, 86785.98, -0.00, -0.00, -0.00
151, 93122.48, -187500.02, -187500.02, -187500.02, -187500.02, -187500.02, -187500.02, 87039.05, -0.00, -0.00, -0.00
152, 93127.20, -187500.02, -187500.02, -187500.02, -187500.02, -187500.02, -187500.02, 87330.59, -0.00, -0.00, -0.00
153, 93134.27, -187500.02, -187500.02, -187500.02, -187500.02, -187500.02, -187500.02, 87619.70, -0.00, -0.00, -0.00
154, 93127.96, -187500.02, -187500.02, -187500.02, -187500.02, -187500.02, -187500.02, 87884.27, -0.00, -0.00, -0.00
155, 93114.15, -187500.02, -187500.02, -187500.02, -187500.02, -187500.02, -187500.02, 88172.76, -0.00, -0.00, -0.00
156, 93138.29, -187500.02, -187500.02, -187500.02, -187500.02, -187500.02, -187500.02, 88455.15, -0.00, -0.00, -0.00
157, 93156.97, -187500.02, -187500.02, -187500.02, -187500.02, -187500.02, -187500.02, 88730.16, -0.00, -0.00, -0.00
158, 93127.89, -187500.02, -187500.02, -187500.02, -187500.02, -187500.02, -187500.02, 89012.16, -0.00, -0.00, -0.00
159, 93122.70, -187500.02, -187500.02, -187500.02, -187500.02, -187500.02, -187500.02, 89291.04, -0.00, -0.00, -0.00
160, 93131.47, -187500.02, -187500.02, -187500.02, -187500.02, -187500.02, -187500.02, 89584.09, -0.00, -0.00, -0.00
161, 93141.08, -187500.02, -187500.02, -187500.02, -187500.02, -187500.02, -187500.02, 89879.45, -0.00, -0.00, -0.00
162, 93144.32, -187500.02, -187500.02, -187500.02, -187500.02, -187500.02, -187500.02, 90150.38, -0.00, -0.00, -0.00
163, 93126.55, -187500.02, -187500.02, -187500.02, -187500.02, -187500.02, -187500.02, 90395.73, -0.00, -0.00, -0.00
164, 93116.31, -187500.02, -187500.02, -187500.02, -187500.02, -187500.02, -187500.02, 90670.85, -0.00, -0.00, -0.00
165, 93159.36, -187500.02, -187500.02, -187500.02, -187500.02, -187500.02, -187500.02, 90916.45, -0.00, -0.00, -0.00
166, 93155.14, -187500.02, -187500.02, -187500.02, -187500.02, -187500.02, -187500.02, 91149.77, -0.00, -0.00, -0.00
167, 93135.29, -187500.02, -187500.02, -187500.02, -187500.02, -187500.02, -187500.02, 91371.83, -0.00, -0.00, -0.00
168, 93152.88, -187500.02, -187500.02, -187500.02, -187500.02, -187500.02, -187500.02, 91585.91, -0.00, -0.00, -0.00
169, 93160.50, -187500.02, -187500.02, -187500.02, -187500.02, -187500.02, -187500.02, 91830.38, -0.00, -0.00, -0.00
170, 93171.05, -187500.02, -187500.02, -187500.02, -187500.02, -187500.02, -187500.02, 92054.49, -0.00, -0.00, -0.00
171, 93151.96, -187500.02, -187500.02, -187500.02, -187500.02, -187500.02, -187500.02, 92250.02, -0.00, -0.00, -0.00
172, 93143.94, -187500.02, -187500.02, -187500.02, -187500.02, -187500.02, -187500.02, 92474.08, -0.00, -0.00, -0.00
173, 93168.39, -187500.02, -187500.02, -187500.02, -187500.02, -187500.02, -187500.02, 92686.27, -0.00, -0.00, -0.00
174, 93167.19, -187500.02, -187500.02, -187500.02, -187500.02, -187500.02, -187500.02, 92905.60, -0.00, -0.00, -0.00
175, 93150.34, -187500.02, -187500.02, -187500.02, -187500.02, -187500.02, -187500.02, 93112.29, -0.00, -0.00, -0.00
176, 93152.86, -187500.02, -187500.02, -187500.02, -187500.02, -187500.02, -187500.02, 93307.94, -0.00, -0.00, -0.00
177, 93165.24, -187500.02, -187500.02, -187500.02, -187500.02, -187500.02, -187500.02, 93520.16, -0.00, -0.00, -0.00
178, 93171.66, -187500.02, -187500.02, -187500.02, -187500.02, -187500.02, -187500.02, 93745.25, -0.00, -0.00, -0.00
179, 93168.02, -187500.02, -187500.02, -187500.02, -187500.02, -187500.02, -187500.02, 93938.21, -0.00, -0.00, -0.00
180, 93152.44, -187500.02, -187500.02, -187500.02, -187500.02, -187500.02, -187500.02, 94141.01, -0.00, -0.00, -0.00
181, 93155.07, -187500.02, -187500.02, -187500.02, -187500.02, -187500.02, -187500.02, 94381.98, -0.00, -0.00, -0.00
182, 93187.30, -187500.02, -187500.02, -187500.02, -187500.02, -187500.02, -187500.02, 94600.85, -0.00, -0.00, -0.00
183, 93165.33, -187500.02, -187500.02, -187500.02, -187500.02, -187500.02, -187500.02, 94829.82, -0.00, -0.00, -0.00
184, 93149.57, -187500.02, -187500.02, -187500.02, -187500.02, -187500.02, -187500.02, 95066.08, -0.00, -0.00, -0.00
185, 93166.41, -187500.02, -187500.02, -187500.02, -187500.02, -187500.02, -187500.02, 95302.83, -0.00, -0.00, -0.00
186, 93181.38, -187500.02, -187500.02, -187500.02, -187500.02, -187500.02, -187500.02, 95555.78, -0.00, -0.00, -0.00
187, 93161.77, -187500.02, -187500.02, -187500.02, -187500.02, -187500.02, -187500.02, 95833.08, -0.00, -0.00, -0.00
188, 93148.01, -187500.02, -187500.02, -187500.02, -187500.02, -187500.02, -187500.02, 96089.43, -0.00, -0.00, -0.00
189, 93143.27, -187500.02, -187500.02, -187500.02, -187500.02, -187500.02, -187500.02, 96363.75, -0.00, -0.00, -0.00
190, 93169.09, -187500.02, -187500.02, -187500.02, -187500.02, -187500.02, -187500.02, 96674.78, -0.00, -0.00, -0.00
191, 93172.46, -187500.02, -187500.02, -187500.02, -187500.02, -187500.02, -187500.02, 96964.01, -0.00, -0.00, -0.00
192, 93153.59, -187500.02, -187500.02, -187500.02, -187500.02, -187500.02, -187500.02, 97268.66, -0.00, -0.00, -0.00
193, 93164.05, -187500.02, -187500.02, -187500.02, -187500.02, -187500.02, -187500.02, 97574.13, -0.00, -0.00, -0.00
194, 93179.79, -187500.02, -187500.02, -187500.02, -187500.02, -187500.02, -187500.02, 97905.09, -0.00, -0.00, -0.00
195, 93177.00, -187500.02, -187500.02, -187500.02, -187500.02, -187500.02, -187500.02, 98249.84, -0.00, -0.00, -0.00
196, 93153.04, -187500.02, -187500.02, -187500.02, -187500.02, -187500.02, -187500.02, 98585.95, -0.00, -0.00, -0.00
197, 93153.10, -187500.02, -187500.02, -187500.02, -187500.02, -187500.02, -187500.02, 98951.39, -0.00, -0.00, -0.00
198, 93175.57, -187500.02, -187500.02, -187500.02, -187500.02, -187500.02, -187500.02, 99317.67, -0.00, -0.00, -0.00
199, 93189.59, -187500.02, -187500.02, -187500.02, -187500.02, -187500.02, -187500.02, 99681.80, -0.00, -0.00, -0.00
200, 93160.19, -187500.02, -187500.02, -187500.02, -187500.02, -187500.02, -187500.02, 100053.16, -0.00, -0.00, -0.00
201, 93137.34, -187500.02, -187500.02, -187500.02, -187500.02, -187500.02, -187500.02, 100452.16, -0.00, -0.00, -0.00
202, 93175.41, -187500.02, -187500.02, -187500.02, -187500.02, -187500.02, -187500.02, 100836.38, -0.00, -0.00, -0.00
203, 93189.56, -187500.02, -187500.02, -187500.02, -187500.02, -187500.02, -187500.02, 101233.64, -0.00, -0.00, -0.00
204, 93164.57, -187500.02, -187500.02, -187500.02, -187500.02, -187500.02, -187500.02, 101633.85, -0.00, -0.00, -0.00
205, 93141.70, -187500.02, -187500.02, -187500.02, -187500.02, -187500.02, -187500.02, 102044.36, -0.00, -0.00, -0.00
206, 93162.78, -187500.02, -187500.02, -187500.02, -187500.02, -187500.02, -187500.02, 102465.24, -0.00, -0.00, -0.00
207, 93187.23, -187500.02, -187500.02, -187500.02, -187500.02, -187500.02, -187500.02, 102874.08, -0.00, -0.00, -0.00
208, 93174.31, -187500.02, -187500.02, -187500.02, -187500.02, -187500.02, -187500.02, 103277.77, -0.00, -0.00, -0.00
209, 93144.88, -187500.02, -187500.02, -187500.02, -187500.02, -187500.02, -187500.02, 103705.54, -0.00, -0.00, -0.00
210, 93156.62, -187500.02, -187500.02, -187500.02, -187500.02, -187500.02, -187500.02, 104132.62, -0.00, -0.00, -0.00
211, 93192.24, -187500.02, -187500.02, -187500.02, -187500.02, -187500.02, -187500.02, 104543.17, -0.00, -0.00, -0.00
212, 93188.35, -187500.02, -187500.02, -187500.02, -187500.02, -187500.02, -187500.02, 104944.25, -0.00, -0.00, -0.00
213, 93156.84, -187500.02, -187500.02, -187500.02, -187500.02, -187500.02, -187500.02, 105359.55, -0.00, -0.00, -0.00
214, 93166.16, -187500.02, -187500.02, -187500.02, -187500.02, -187500.02, -187500.02, 105775.34, -0.00, -0.00, -0.00
215, 93207.51, -187500.02, -187500.02, -187500.02, -187500.02, -187500.02, -187500.02, 106172.30, -0.00, -0.00, -0.00
216, 93180.84, -187500.02, -187500.02, -187500.02, -187500.02, -187500.02, -187500.02, 106592.56, -0.00, -0.00, -0.00
217, 93149.69, -187500.02, -187500.02, -187500.02, -187500.02, -187500.02, -187500.02, 107012.46, -0.00, -0.00, -0.00
218, 93149.53, -187500.02, -187500.02, -187500.02, -187500.02, -187500.02, -187500.02, 107438.69, -0.00, -0.00, -0.00
219, 93192.71, -187500.02, -187500.02, -187500.02, -187500.02, -187500.02, -187500.02, 107848.55, -0.00, -0.00, -0.00
220, 93181.05, -187500.02, -187500.02, -187500.02, -187500.02, -187500.02, -187500.02, 108259.42, -0.00, -0.00, -0.00
221, 93147.67, -187500.02, -187500.02, -187500.02, -187500.02, -187500.02, -187500.02, 108680.23, -0.00, -0.00, -0.00
222, 93149.33, -187500.02, -187500.02, -187500.02, -187500.02, -187500.02, -187500.02, 109082.12, -0.00, -0.00, -0.00
223, 93182.88, -187500.02, -187500.02, -187500.02, -187500.02, -187500.02, -187500.02, 109478.41, -0.00, -0.00, -0.00
224, 93189.85, -187500.02, -187500.02, -187500.02, -187500.02, -187500.02, -187500.02, 109875.05, -0.00, -0.00, -0.00
225, 93168.13, -187500.02, -187500.02, -187500.02, -187500.02, -187500.02, -187500.02, 110274.70, -0.00, -0.00, -0.00
226, 93157.35, -187500.02, -187500.02, -187500.02, -187500.02, -187500.02, -187500.02, 110670.84, -0.00, -0.00, -0.00
227, 93175.95, -187500.02, -187500.02, -187500.02, -187500.02, -187500.02, -187500.02, 111085.77, -0.00, -0.00, -0.00
228, 93176.95, -187500.02, -187500.02, -187500.02, -187500.02, -187500.02, -187500.02, 111520.90, -0.00, -0.00, -0.00
229, 93164.19, -187500.02, -187500.02, -187500.02, -187500.02, -187500.02, -187500.02, 111950.48, -0.00, -0.00, -0.00
230, 93152.50, -187500.02, -187500.02, -187500.02, -187500.02, -187500.02, -187500.02, 112390.87, -0.00, -0.00, -0.00
231, 93177.87, -187500.02, -187500.02, -187500.02, -187500.02, -187500.02, -187500.02, 112840.59, -0.00, -0.00, -0.00
232, 93176.22, -187500.02, -187500.02, -187500.02, -187500.02, -187500.02, -187500.02, 113335.95, -0.00, -0.00, -0.00
233, 93164.99, -187500.02, -187500.02, -187500.02, -187500.02, -187500.02, -187500.02, 113836.96, -0.00, -0.00, -0.00
234, 93164.99, -187500.02, -187500.02, -187500.02, -187500.02, -187500.02, -187500.02, 114311.73, -0.00, -0.00, -0.00
235, 93166.74, -187500.02, -187500.02, -187500.02, -187500.02, -187500.02, -187500.02, 114810.54, -0.00, -0.00, -0.00
236, 93154.78, -187500.02, -187500.02, -187500.02, -187500.02, -187500.02, -187500.02, 115346.80, -0.00, -0.00, -0.00
237, 93168.17, -187500.02, -187500.02, -187500.02, -187500.02, -187500.02, -187500.02, 115838.76, -0.00, -0.00, -0.00
238, 93150.65, -187500.02, -187500.02, -187500.02, -187500.02, -187500.02, -187500.02, 116334.77, -0.00, -0.00, -0.00
239, 93151.20, -187500.02, -187500.02, -187500.02, -187500.02, -187500.02, -187500.02, 116837.33, -0.00, -0.00, -0.00
240, 93154.60, -187500.02, -187500.02, -187500.02, -187500.02, -187500.02, -187500.02, 117381.08, -0.00, -0.00, -0.00
241, 93153.98, -187500.02, -187500.02, -187500.02, -187500.02, -187500.02, -187500.02, 117913.74, -0.00, -0.00, -0.00
242, 93145.66, -187500.02, -187500.02, -187500.02, -187500.02, -187500.02, -187500.02, 118433.77, -0.00, -0.00, -0.00
243, 93134.11, -187500.02, -187500.02, -187500.02, -187500.02, -187500.02, -187500.02, 118983.83, -0.00, -0.00, -0.00
244, 93128.79, -187500.02, -187500.02, -187500.02, -187500.02, -187500.02, -187500.02, 119574.84, -0.00, -0.00, -0.00
245, 91673.91, -187500.02, -187500.02, -187500.02, -187500.02, -187500.02, -187500.02, 121585.69, -0.00, -0.00, -0.00
246, 85240.30, -187500.02, -187500.02, -187500.02, -187500.02, -187500.02, -185786.00, 130284.49, -0.00, -0.00, -0.00
247, 73509.61, -187500.02, -187500.02, -187500.02, -187500.02, -187500.02, -166028.55, 150532.84, -0.00, -0.00, -0.00
248, 67040.34, -177365.05, -187500.02, -187500.02, -187500.02, -187500.02, -143510.75, 173535.66, -0.00, -0.00, -0.00
249, 67600.68, -161663.02, -177789.69, -173581.50, -187500.02, -178623.20, -127243.49, 187500.00, -0.00, -0.00, -0.00
250, 68328.38, -148806.83, -164774.06, -160742.50, -187500.02, -165737.75, -113894.27, 187500.00, -0.00, -0.00, -0.00
251, 67958.35, -135769.44, -151567.27, -147735.66, -187500.02, -152652.81, -100364.52, 187500.00, -0.00, -0.00, -0.00
252, 71925.54, -127253.48, -142987.33, -139275.17, -183918.95, -144097.31, -91461.21, 187500.00, -0.00, -0.00, -0.00
253, 79588.30, -126932.76, -142782.89, -139044.36, -183653.27, -143759.44, -90935.55, 187500.00, -0.00, -0.00, -0.00
254, 87681.51, -132604.06, -148705.48, -144833.42, -187500.02, -149440.47, -96537.00, 187500.00, -0.00, -0.00, -0.00
255, 95791.15, -143239.50, -159701.69, -155605.89, -187500.02, -160118.97, -107213.24, 187500.00, -0.00, -0.00, -0.00
0, 108131.73, -162406.20, -178639.92, -174640.25, -187500.02, -178634.31, -126636.33, 187500.00, -0.00, -0.00, -0.00
1, 124878.52, -187500.02, -187500.02, -187500.02, -187500.02, -187500.02, -160195.91, 163870.31, -0.00, -0.00, -0.00
2, 125994.86, -187500.02, -187500.02, -187500.02, -187500.02, -187500.02, -187443.89, 137110.41, -0.00, -0.00, -0.00
3, 113051.38, -187500.02, -187500.02, -187500.02, -187500.02, -187500.02, -187500.02, 132551.05, -0.00, -0.00, -0.00
4, 106154.48, -187500.02, -187500.02, -187500.02, -187500.02, -187500.02, -187500.02, 132702.86, -0.00, -0.00, -0.00
5, 102526.40, -187500.02, -187500.02, -187500.02, -187500.02, -187500.02, -187500.02, 132951.77, -0.00, -0.00, -0.00
6, 100197.19, -187500.02, -187500.02, -187500.02, -187500.02, -187500.02, -187500.02, 133318.63, -0.00, -0.00, -0.00
7, 98618.71, -187500.02, -187500.02, -187500.02, -187500.02, -187500.02, -187500.02, 133738.06, -0.00, -0.00, -0.00
8, 97527.12, -187500.02, -187500.02, -187500.02, -187500.02, -187500.02, -187500.02, 134173.38, -0.00, -0.00, -0.00
9, 96753.59, -187500.02, -187500.02, -187500.02, -187500.02, -187500.02, -187500.02, 134615.52, -0.00, -0.00, -0.00
10, 96132.32, -187500.02, -187500.02, -187500.02, -187500.02, -187500.02, -187500.02, 135076.58, -0.00, -0.00, -0.00
11, 95631.31, -187500.02, -187500.02, -187500.02, -187500.02, -187500.02, -187500.02, 135544.42, -0.00, -0.00, -0.00
12, 95240.47, -187500.02, -187500.02, -187500.02, -187500.02, -187500.02, -187500.02, 136021.98, -0.00, -0.00, -0.00
13, 94955.23, -187500.02, -187500.02, -187500.02, -187500.02, -187500.02, -187500.02, 136511.67, -0.00, -0.00, -0.00
14, 94725.05, -187500.02, -187500.02, -187500.02, -187500.02, -187500.02, -187500.02, 136999.22, -0.00, -0.00, -0.00
15, 94520.07, -187500.02, -187500.02, -187500.02, -187500.02, -187500.02, -187500.02, 137462.91, -0.00, -0.00, -0.00
16, 94354.87, -187500.02, -187500.02, -187500.02, -187500.02, -187500.02, -187500.02, 137934.95, -0.00, -0.00, -0.00
17, 94204.95, -187500.02, -187500.02, -187500.02, -187500.02, -187500.02, -187500.02, 138450.86, -0.00, -0.00, -0.00
18, 94083.65, -187500.02, -187500.02, -187500.02, -187500.02, -187500.02, -187500.02, 138988.02, -0.00, -0.00, -0.00
19, 93976.95, -187500.02, -187500.02, -187500.02, -187500.02, -187500.02, -187500.02, 139496.81, -0.00, -0.00, -0.00
20, 93804.05, -187500.02, -187500.02, -187500.02, -187500.02, -187500.02, -187500.02, 140079.67, -0.00, -0.00, -0.00
21, 92239.90, -187500.02, -187500.02, -187500.02, -187500.02, -187500.02, -187500.02, 142151.30, -0.00, -0.00, -0.00
22, 87635.09, -187500.02, -187500.02, -187500.02, -187500.02, -187500.02, -183758.48, 149128.47, -0.00, -0.00, -0.00
23, 82617.81, -187500.02, -187500.02, -187500.02, -187500.02, -187500.02, -173243.58, 160071.77, -0.00, -0.00, -0.00
24, 78974.97, -187500.02, -187500.02, -187500.02, -187500.02, -187500.02, -161282.16, 172457.77, -0.00, -0.00, -0.00
25, 77075.20, -185383.17, -187500.02, -187500.02, -187500.02, -187500.02, -149572.44, 184572.94, -0.00, -0.00, -0.00
26, 77371.39, -176363.66, -187500.02, -187500.02, -187500.02, -187500.02, -140133.44, 187500.00, -0.00, -0.00, -0.00
27, 77020.33, -167797.02, -184641.50, -180317.75, -187500.02, -184013.19, -131162.22, 187500.00, -0.00, -0.00, -0.00
28, 75968.68, -158364.77, -175133.59, -170927.36, -187500.02, -174567.72, -121308.86, 187500.00, -0.00, -0.00, -0.00
29, 74706.08, -148332.39, -164997.98, -160931.92, -187500.02, -164500.94, -110841.29, 187500.00, -0.00, -0.00, -0.00
30, 72880.45, -136872.28, -153403.84, -149504.84, -187500.02, -152998.22, -98914.71, 187500.00, -0.00, -0.00, -0.00
31, 71635.73, -125124.26, -141515.95, -137793.05, -181221.77, -141192.09, -86695.20, 187500.00, -0.00, -0.00, -0.00
32, 72218.23, -114925.16, -131215.11, -127640.57, -170838.52, -130933.45, -76062.00, 187500.00, -0.00, -0.00, -0.00
33, 73947.37, -107125.38, -123365.51, -119897.23, -162953.00, -123082.42, -67881.28, 187500.00, -0.00, -0.00, -0.00
34, 76698.29, -101859.58, -118107.22, -114702.04, -157661.75, -117779.14, -62296.81, 187500.00, -0.00, -0.00, -0.00
35, 79291.24, -98601.01, -114898.78, -111520.94, -154421.63, -114490.03, -58765.28, 187500.00, -0.00, -0.00, -0.00
36, 80510.71, -95313.18, -111661.71, -108311.90, -151151.00, -111171.63, -55203.31, 187500.00, -0.00, -0.00, -0.00
37, 80197.34, -90826.51, -107199.66, -103896.58, -146655.17, -106648.51, -50414.63, 187500.00, -0.00, -0.00, -0.00
38, 78499.46, -83800.42, -100140.53, -96929.99, -139566.09, -99576.33, -43027.64, 187500.00, -0.00, -0.00, -0.00
39, 77778.46, -76629.53, -92933.63, -89821.13, -132331.48, -92360.96, -35497.50, 187500.00, -0.00, -0.00, -0.00
40, 76524.97, -68482.44, -84728.40, -81732.59, -124100.01, -84162.59, -26971.20, 187500.00, -0.00, -0.00, -0.00
41, 77356.73, -61812.92, -78036.55, -75131.50, -117380.83, -77448.73, -19957.60, 187500.00, -0.00, -0.00, -0.00
42, 77506.15, -55707.79, -71921.97, -69096.28, -111237.01, -71300.52, -13522.67, 187500.00, -0.00, -0.00, -0.00
43, 76123.78, -47614.71, -63775.38, -61065.03, -103066.17, -63157.89, -5056.90, 187500.00, -0.00, -0.00, -0.00
44, 74508.40, -38259.57, -54337.45, -51768.49, -93609.70, -53749.39, 4696.12, 187500.00, -0.00, -0.00, -0.00
45, 73535.29, -28607.68, -44593.67, -42173.32, -83852.21, -44044.16, 14751.48, 187500.00, -0.00, -0.00, -0.00
46, 73746.27, -19801.30, -35714.11, -33427.28, -74961.73, -35189.33, 23941.24, 187500.00, -0.00, -0.00, -0.00
47, 75398.31, -13229.77, -29120.48, -26926.18, -68358.13, -28576.62, 30841.47, 187500.00, -0.00, -0.00, -0.00
48, 77107.34, -8201.73, -24103.40, -21974.98, -63330.63, -23511.71, 36163.60, 187500.00, -0.00, -0.00, -0.00
49, 77426.84, -2825.53, -18730.89, -16674.74, -57946.98, -18097.89, 41842.57, 187500.00, -0.00, -0.00, -0.00
50, 77388.76, 3299.56, -12594.07, -10623.54, -51797.98, -11932.72, 48286.14, 187500.00, -0.00, -0.00, -0.00
51, 78083.29, 8659.22, -7238.48, -5341.89, -46431.93, -6537.24, 53946.31, 187500.00, -0.00, -0.00, -0.00
52, 78562.16, 13715.72, -2190.16, -362.25, -41376.48, -1444.19, 59296.89, 187500.00, -0.00, -0.00, -0.00
53, 78378.45, 19277.19, 3373.46, 5123.94, -35808.59, 4155.81, 65161.21, 187500.00, -0.00, -0.00, -0.00
54, 77946.59, 25486.49, 9599.36, 11257.99, -29578.71, 10405.54, 71688.26, 187500.00, -0.00, -0.00, -0.00
55, 78366.60, 31162.02, 15281.19, 16857.35, -23895.06, 16118.49, 77670.92, 187500.00, -0.00, -0.00, -0.00
56, 78809.70, 36214.68, 20325.98, 21830.03, -18847.59, 21207.18, 83016.03, 187500.00, -0.00, -0.00, -0.00
57, 77934.12, 42491.09, 26621.24, 28030.34, -12549.03, 27527.92, 89612.45, 187500.00, -0.00, -0.00, -0.00
58, 76815.55, 49972.33, 34142.85, 35437.48, -5021.68, 35056.45, 97439.95, 187500.00, -0.00, -0.00, -0.00
59, 76701.95, 57076.27, 41274.86, 42462.75, 2116.17, 42203.67, 104878.45, 187500.00, -0.00, -0.00, -0.00
60, 76891.16, 63600.23, 47814.80, 48905.30, 8661.90, 48769.07, 111723.13, 187500.00, -0.00, -0.00, -0.00
61, 78069.95, 68914.36, 53118.05, 54133.55, 13971.05, 54118.94, 117329.98, 187500.00, -0.00, -0.00, -0.00
62, 80269.13, 71916.84, 56059.80, 57041.56, 16918.79, 57148.76, 120573.98, 187500.00, -0.00, -0.00, -0.00
63, 81858.68, 74135.93, 58201.28, 59162.29, 19067.63, 59395.58, 123018.23, 187500.00, -0.00, -0.00, -0.00
64, 82393.91, 76702.65, 60698.82, 61630.11, 21570.91, 61990.75, 125817.65, 187500.00, -0.00, -0.00, -0.00
65, 82098.40, 80327.49, 64275.50, 65159.04, 25154.34, 65646.18, 129696.41, 187500.00, -0.00, -0.00, -0.00
66, 82675.70, 83428.09, 67315.77, 68161.48, 28202.51, 68778.20, 133040.97, 187500.00, -0.00, -0.00, -0.00
67, 83155.62, 86159.55, 69978.34, 70793.83, 30873.93, 71540.63, 136009.98, 187500.00, -0.00, -0.00, -0.00
68, 83458.44, 89081.76, 72837.88, 73620.52, 33740.27, 74494.27, 139175.09, 187500.00, -0.00, -0.00, -0.00
69, 84240.50, 91180.34, 74853.55, 75617.94, 35764.51, 76620.73, 141497.11, 187500.00, -0.00, -0.00, -0.00
70, 83935.58, 94056.52, 77662.63, 78393.91, 38585.61, 79528.04, 144614.44, 187500.00, -0.00, -0.00, -0.00
71, 83255.35, 97844.40, 81404.16, 82085.80, 42338.52, 83351.46, 148665.00, 187500.00, -0.00, -0.00, -0.00
72, 82256.61, 102605.48, 86138.45, 86753.69, 47085.40, 88151.45, 153708.78, 187500.00, -0.00, -0.00, -0.00
73, 81328.70, 107962.16, 91480.50, 92019.40, 52440.48, 93548.82, 159360.73, 187500.00, -0.00, -0.00, -0.00
74, 80703.05, 113528.82, 97034.13, 97494.39, 58007.67, 99156.83, 165226.50, 187500.00, -0.00, -0.00, -0.00
75, 80639.34, 118709.09, 102194.66, 102581.25, 63180.07, 104376.63, 170696.73, 187500.00, -0.00, -0.00, -0.00
76, 80095.64, 124256.78, 107732.19, 108037.02, 68725.33, 109965.17, 176540.27, 187500.00, -0.00, -0.00, -0.00
77, 79027.23, 130787.18, 114275.08, 114480.45, 75275.02, 116541.19, 183283.53, 187500.00, -0.00, -0.00, -0.00
78, 78360.05, 137590.45, 121097.86, 121198.64, 82103.68, 123391.98, 187500.00, 187500.00, -0.00, -0.00, -0.00
79, 78488.05, 143636.50, 127146.73, 127154.02, 88155.48, 129482.58, 187500.00, 187500.00, -0.00, -0.00, -0.00
80, 78119.61, 150013.38, 133532.09, 133439.66, 94542.71, 135903.81, 187500.00, 187500.00, -0.00, -0.00, -0.00
81, 77961.12, 156405.05, 139929.16, 139738.11, 100943.73, 142338.56, 187500.00, 187500.00, -0.00, -0.00, -0.00
82, 78094.55, 162378.56, 145897.92, 145616.06, 106915.56, 148352.34, 187500.00, 187500.00, -0.00, -0.00, -0.00
83, 78205.96, 168232.72, 151748.27, 151374.91, 112765.98, 154250.14, 187500.00, 187500.00, -0.00, -0.00, -0.00
84, 78813.03, 173388.64, 156884.05, 156429.81, 117902.41, 159446.56, 187500.00, 187500.00, -0.00, -0.00, -0.00
85, 78890.01, 178671.70, 162117.00, 161583.23, 123139.11, 164738.52, 187500.00, 187500.00, -0.00, -0.00, -0.00
86, 78813.66, 182877.72, 167585.80, 166968.44, 128611.69, 170264.27, 187500.00, 187500.00, -0.00, -0.00, -0.00
87, 79462.70, 183765.78, 172350.11, 171590.00, 133365.36, 175304.30, 187500.00, 187500.00, -0.00, -0.00, -0.00
88, 80409.17, 183767.86, 176419.16, 174745.44, 137108.77, 179645.48, 187500.00, 187500.00, -0.00, -0.00, -0.00
89, 80939.53, 183763.30, 180510.00, 177987.45, 140783.00, 182320.64, 187500.00, 187500.00, -0.00, -0.00, -0.00
90, 82387.99, 183759.56, 182273.75, 180673.88, 143194.61, 182727.58, 187500.00, 187500.00, -0.00, -0.00, -0.00
91, 84920.40, 183760.86, 182378.52, 181179.64, 143302.92, 182731.83, 187500.00, 187500.00, -0.00, -0.00, -0.00
92, 88214.71, 183769.80, 181541.78, 179107.39, 140915.09, 182616.63, 187500.00, 187500.00, -0.00, -0.00, -0.00
93, 92025.62, 183784.78, 177073.06, 174860.22, 135818.27, 180173.19, 187500.00, 187500.00, -0.00, -0.00, -0.00
94, 94926.13, 183757.50, 170528.61, 169487.75, 129521.90, 174048.41, 187500.00, 187500.00, -0.00, -0.00, -0.00
95, 96823.87, 181867.94, 164119.11, 163340.00, 123185.11, 167713.38, 187500.00, 187500.00, -0.00, -0.00, -0.00
96, 99063.06, 175553.64, 156868.98, 156232.00, 115961.61, 160743.44, 187500.00, 187500.00, -0.00, -0.00, -0.00
97, 101776.63, 167026.59, 148011.44, 147544.22, 107131.82, 152197.20, 187500.00, 187500.00, -0.00, -0.00, -0.00
98, 103569.04, 158038.52, 138688.84, 138400.72, 97841.23, 143196.00, 187500.00, 187500.00, -0.00, -0.00, -0.00
99, 105208.56, 148966.45, 129280.20, 129173.70, 88467.15, 134109.52, 187500.00, 187500.00, -0.00, -0.00, -0.00
100, 108905.90, 136915.77, 116825.55, 116956.82, 76052.32, 122029.03, 187500.00, 187500.00, -0.00, -0.00, -0.00
101, 112058.74, 122921.88, 102385.20, 102789.99, 61657.69, 108000.54, 183312.31, 187500.00, -0.00, -0.00, -0.00
102, 110185.24, 113168.58, 92281.86, 92886.31, 51603.61, 98234.84, 174581.63, 187500.00, -0.00, -0.00, -0.00
103, 109157.29, 105677.59, 84489.03, 85253.53, 43864.09, 90737.66, 167078.95, 187500.00, -0.00, -0.00, -0.00
104, 111726.35, 94530.40, 72957.34, 73948.82, 32390.43, 79567.27, 155843.36, 187500.00, -0.00, -0.00, -0.00
105, 113825.16, 81811.31, 59823.68, 61070.69, 19314.32, 66817.81, 143004.42, 187500.00, -0.00, -0.00, -0.00
106, 114602.89, 69851.84, 47469.09, 48959.04, 7018.31, 54830.68, 130944.85, 187500.00, -0.00, -0.00, -0.00
107, 113924.89, 59001.20, 36246.46, 37964.35, -4140.48, 43957.34, 120018.72, 187500.00, -0.00, -0.00, -0.00
108, 109429.80, 53780.20, 30780.99, 32628.03, -9542.74, 38738.30, 114852.11, 187500.00, -0.00, -0.00, -0.00
109, 102637.48, 54738.01, 31635.29, 33497.84, -8629.25, 39725.02, 116007.02, 187500.00, -0.00, -0.00, -0.00
110, 99118.07, 57466.02, 34298.04, 36142.68, -5911.95, 42484.61, 118969.68, 187500.00, -0.00, -0.00, -0.00
111, 101305.73, 54471.00, 31108.35, 33036.66, -9046.24, 39494.79, 116076.63, 187500.00, -0.00, -0.00, -0.00
112, 102907.88, 48909.41, 25298.08, 27356.52, -14801.19, 33931.33, 110560.87, 187500.00, -0.00, -0.00, -0.00
113, 98054.55, 49620.11, 25900.37, 27977.63, -14143.69, 34668.11, 111462.40, 187500.00, -0.00, -0.00, -0.00
114, 91568.79, 56632.70, 32943.83, 34928.82, -7050.32, 41730.30, 118806.76, 187500.00, -0.00, -0.00, -0.00
115, 86193.35, 66483.01, 42889.15, 44730.13, 2939.01, 51640.75, 129053.67, 187500.00, -0.00, -0.00, -0.00
116, 84532.87, 74848.63, 51314.35, 53037.98, 11404.55, 60058.38, 137781.25, 187500.00, -0.00, -0.00, -0.00
117, 79399.61, 86360.27, 62957.66, 64505.50, 23083.32, 71640.22, 149727.61, 187500.00, -0.00, -0.00, -0.00
118, 75273.03, 101304.49, 78107.90, 79415.14, 38265.38, 86665.38, 165181.73, 187500.00, -0.00, -0.00, -0.00
119, 81113.56, 106318.55, 83100.01, 84342.94, 43291.50, 91712.91, 170473.53, 187500.00, -0.00, -0.00, -0.00
120, 89512.41, 101812.33, 78359.40, 79707.68, 38591.36, 87204.39, 166029.38, 187500.00, -0.00, -0.00, -0.00
121, 92615.05, 97250.94, 73564.46, 75021.59, 33840.00, 82645.59, 161533.58, 187500.00, -0.00, -0.00, -0.00
122, 93428.81, 94790.46, 70920.05, 72447.27, 31237.17, 80196.73, 159187.31, 187500.00, -0.00, -0.00, -0.00
123, 95173.70, 91572.10, 67501.44, 69113.70, 27860.06, 76985.87, 156066.64, 187500.00, -0.00, -0.00, -0.00
124, 97923.88, 86013.71, 61691.37, 63430.49, 22095.35, 71424.57, 150554.63, 187500.00, -0.00, -0.00, -0.00
125, 99157.54, 80436.73, 55862.26, 57727.80, 16314.05, 65844.51, 145023.86, 187500.00, -0.00, -0.00, -0.00
126, 97993.04, 77580.94, 52817.37, 54762.24, 13316.23, 62999.95, 142279.05, 187500.00, -0.00, -0.00, -0.00
127, 96576.34, 76320.05, 51403.38, 53398.27, 11950.00, 61757.38, 141165.36, 187500.00, -0.00, -0.00, -0.00
128, 92847.16, 78663.45, 53672.77, 55656.71, 14267.23, 64135.18, 143738.09, 187500.00, -0.00, -0.00, -0.00
129, 90115.77, 83162.19, 58145.25, 60079.05, 18783.04, 68673.61, 148513.61, 187500.00, -0.00, -0.00, -0.00
130, 89749.07, 85963.35, 60882.33, 62794.95, 21562.79, 71505.98, 151551.06, 187500.00, -0.00, -0.00, -0.00
131, 86810.38, 91301.53, 66213.42, 68058.40, 26935.66, 76888.41, 157182.80, 187500.00, -0.00, -0.00, -0.00
132, 83591.79, 99092.03, 74048.09, 75780.70, 34810.81, 84731.99, 165321.03, 187500.00, -0.00, -0.00, -0.00
133, 81974.80, 107192.77, 82197.13, 83810.79, 42998.30, 92884.15, 173775.11, 187500.00, -0.00, -0.00, -0.00
134, 84301.66, 111069.48, 86028.15, 87597.31, 46865.55, 96793.73, 177905.78, 187500.00, -0.00, -0.00, -0.00
135, 87345.34, 111444.54, 86281.06, 87866.13, 47154.09, 97188.69, 178453.81, 187500.00, -0.00, -0.00, -0.00
136, 88780.37, 111482.41, 86190.98, 87798.19, 47100.89, 97248.99, 178657.83, 187500.00, -0.00, -0.00, -0.00
137, 89098.34, 112139.84, 86731.90, 88352.55, 47681.48, 97931.62, 179495.98, 187500.00, -0.00, -0.00, -0.00
138, 90088.84, 112267.06, 86729.82, 88374.64, 47719.27, 98081.13, 179791.77, 187500.00, -0.00, -0.00, -0.00
139, 90862.14, 112018.73, 86343.18, 88019.13, 47372.46, 97851.76, 179700.95, 187500.00, -0.00, -0.00, -0.00
140, 93105.14, 109715.41, 83855.36, 85599.45, 44926.16, 95558.15, 177507.38, 187500.00, -0.00, -0.00, -0.00
141, 94049.95, 107075.02, 81023.66, 82842.47, 42137.48, 92927.58, 174971.13, 187500.00, -0.00, -0.00, -0.00
142, 92800.33, 106911.54, 80725.63, 82575.86, 41882.88, 92785.06, 174973.45, 187500.00, -0.00, -0.00, -0.00
143, 91667.48, 107984.58, 81691.69, 83550.86, 42893.22, 93883.56, 176241.63, 187500.00, -0.00, -0.00, -0.00
144, 90116.22, 110350.98, 83980.77, 85825.06, 45223.70, 96280.83, 178830.16, 187500.00, -0.00, -0.00, -0.00
145, 90419.98, 111678.23, 85207.10, 87052.69, 46490.80, 97633.11, 180352.00, 187500.00, -0.00, -0.00, -0.00
146, 90124.94, 112895.23, 86320.96, 88170.30, 47644.93, 98876.07, 181785.75, 187500.00, -0.00, -0.00, -0.00
147, 90556.21, 113980.03, 87299.72, 89156.99, 48663.57, 99984.89, 183259.84, 187500.00, -0.00, -0.00, -0.00
148, 93091.57, 111808.20, 84946.95, 86871.80, 46354.75, 97823.81, 181433.78, 187500.00, -0.00, -0.00, -0.00
149, 94321.52, 109205.39, 82155.13, 84153.09, 43606.82, 95231.48, 178979.08, 187500.00, -0.00, -0.00, -0.00
150, 94766.90, 107143.04, 79917.50, 81977.44, 41412.06, 93182.19, 177033.31, 187500.00, -0.00, -0.00, -0.00
151, 95691.68, 104492.37, 77079.36, 79213.35, 38618.18, 90543.43, 174490.58, 187500.00, -0.00, -0.00, -0.00
152, 95479.67, 102628.43, 75044.82, 77240.43, 36628.90, 88695.09, 172755.53, 187500.00, -0.00, -0.00, -0.00
153, 95378.60, 101064.57, 73316.58, 75569.84, 34947.69, 87148.13, 171328.75, 187500.00, -0.00, -0.00, -0.00
154, 95174.41, 99808.52, 71903.97, 74209.16, 33584.07, 85910.58, 170220.44, 187500.00, -0.00, -0.00, -0.00
155, 95082.98, 98694.17, 70635.78, 72989.38, 32363.49, 84813.31, 169254.98, 187500.00, -0.00, -0.00, -0.00
156, 96216.41, 96287.24, 68046.22, 70469.86, 29820.71, 82415.22, 166965.92, 187500.00, -0.00, -0.00, -0.00
157, 97144.91, 93123.71, 64685.68, 67192.90, 26508.34, 79259.73, 163904.98, 187500.00, -0.00, -0.00, -0.00
158, 98430.04, 89136.72, 60485.29, 63091.73, 22356.84, 75280.88, 160003.86, 187500.00, -0.00, -0.00, -0.00
159, 99517.23, 84509.91, 55631.23, 58349.25, 17551.68, 70659.63, 155448.17, 187500.00, -0.00, -0.00, -0.00
160, 99353.34, 80819.59, 51732.98, 54548.85, 13704.10, 66978.09, 151849.52, 187500.00, -0.00, -0.00, -0.00
161, 98902.73, 78008.73, 48733.44, 51632.44, 10756.58, 64178.98, 149152.05, 187500.00, -0.00, -0.00, -0.00
162, 98659.70, 75309.55, 45851.32, 48830.80, 7925.35, 61492.31, 146570.84, 187500.00, -0.00, -0.00, -0.00
163, 98414.34, 72901.38, 43266.14, 46320.73, 5392.65, 59096.40, 144284.91, 187500.00, -0.00, -0.00, -0.00
164, 98373.45, 70472.81, 40659.79, 43789.52, 2841.04, 56680.96, 141978.48, 187500.00, -0.00, -0.00, -0.00
165, 98118.63, 68177.65, 38191.98, 41392.73, 427.79, 54399.11, 139809.84, 187500.00, -0.00, -0.00, -0.00
166, 97525.42, 66549.59, 36406.81, 39667.33, -1303.91, 52785.30, 138323.39, 187500.00, -0.00, -0.00, -0.00
167, 97124.27, 65141.45, 34847.06, 38162.94, -2812.05, 51392.87, 137060.73, 187500.00, -0.00, -0.00, -0.00
168, 96612.35, 64062.36, 33624.73, 36990.08, -3982.21, 50331.52, 136134.19, 187500.00, -0.00, -0.00, -0.00
169, 96466.20, 62934.04, 32351.82, 35767.64, -5204.22, 49220.13, 135157.70, 187500.00, -0.00, -0.00, -0.00
170, 96198.62, 61792.82, 31065.01, 34531.10, -6439.69, 48095.27, 134167.13, 187500.00, -0.00, -0.00, -0.00
171, 96560.67, 60290.68, 29409.20, 32931.79, -8045.53, 46606.61, 132807.72, 187500.00, -0.00, -0.00, -0.00
172, 97283.22, 57851.86, 26796.19, 30392.98, -10608.07, 44177.91, 130490.73, 187500.00, -0.00, -0.00, -0.00
173, 97655.69, 55336.05, 24106.74, 27777.79, -13246.47, 41673.42, 128097.62, 187500.00, -0.00, -0.00, -0.00
174, 97918.61, 52787.02, 21382.19, 25131.32, -15916.16, 39136.09, 125671.34, 187500.00, -0.00, -0.00, -0.00
175, 98564.69, 49715.06, 18121.03, 21958.38, -19121.85, 36071.24, 122709.04, 187500.00, -0.00, -0.00, -0.00
176, 99473.28, 45926.78, 14128.74, 18067.03, -23060.54, 32287.61, 119013.29, 187500.00, -0.00, -0.00, -0.00
177, 99568.10, 42412.55, 10417.99, 14451.43, -26716.23, 28779.68, 115597.41, 187500.00, -0.00, -0.00, -0.00
178, 99161.03, 39711.29, 7538.86, 11653.66, -29539.39, 26087.41, 113014.35, 187500.00, -0.00, -0.00, -0.00
179, 98586.34, 37571.23, 5233.06, 9418.87, -31789.43, 23959.10, 111005.87, 187500.00, -0.00, -0.00, -0.00
180, 98407.98, 35522.93, 3019.65, 7276.14, -33945.75, 21922.61, 109092.22, 187500.00, -0.00, -0.00, -0.00
181, 98564.33, 33117.71, 442.52, 4777.22, -36466.24, 19529.41, 106815.41, 187500.00, -0.00, -0.00, -0.00
182, 99143.87, 30072.42, -2788.02, 1636.80, -39641.18, 16494.11, 103884.55, 187500.00, -0.00, -0.00, -0.00
183, 100475.87, 25718.34, -7356.94, -2819.25, -44153.07, 12144.33, 99612.40, 187500.00, -0.00, -0.00, -0.00
184, 101386.05, 20838.93, -12462.88, -7802.10, -49199.54, 7267.09, 94803.36, 187500.00, -0.00, -0.00, -0.00
185, 101720.57, 16309.71, -17209.90, -12432.69, -53886.52, 2739.50, 90353.33, 187500.00, -0.00, -0.00, -0.00
186, 102188.62, 11660.97, -22078.63, -17182.81, -58694.76, -1907.12, 85779.76, 187500.00, -0.00, -0.00, -0.00
187, 104372.30, 4937.08, -29072.55, -24019.50, -65622.87, -8638.10, 79084.05, 187500.00, -0.00, -0.00, -0.00
188, 107950.95, -5014.97, -39369.94, -34100.09, -75848.90, -18610.38, 69087.88, 187500.00, -0.00, -0.00, -0.00
189, 111591.62, -17349.22, -52102.12, -46569.81, -88503.67, -30973.57, 56660.44, 187500.00, -0.00, -0.00, -0.00
190, 114381.20, -30798.33, -65970.27, -60155.94, -102291.39, -44455.43, 43098.36, 187500.00, -0.00, -0.00, -0.00
191, 116982.77, -45146.95, -80757.16, -74645.46, -116993.02, -58841.75, 28620.38, 187500.00, -0.00, -0.00, -0.00
192, 119682.77, -60756.78, -96834.33, -90400.78, -132978.06, -74493.02, 12854.62, 187500.00, -0.00, -0.00, -0.00
193, 122667.51, -77966.93, -114548.44, -107762.43, -150595.25, -91751.90, -4545.29, 187500.00, -0.00, -0.00, -0.00
194, 124275.94, -95130.74, -132214.98, -125074.75, -168158.56, -108962.49, -21893.35, 187500.00, -0.00, -0.00, -0.00
195, 125383.88, -111925.80, -149506.97, -142015.88, -184617.72, -125807.93, -38862.13, 187500.00, -0.00, -0.00, -0.00
196, 125494.49, -127970.46, -166032.06, -158198.63, -187500.02, -141914.44, -55058.69, 187500.00, -0.00, -0.00, -0.00
197, 124620.34, -141939.73, -180297.69, -172304.61, -187500.02, -155940.41, -69126.05, 187500.00, -0.00, -0.00, -0.00
198, 127719.67, -159325.58, -187500.02, -187500.02, -187500.02, -173349.38, -86686.45, 187500.00, -0.00, -0.00, -0.00
199, 132128.53, -180846.86, -187500.02, -187500.02, -187500.02, -187500.02, -108678.02, 187500.00, -0.00, -0.00, -0.00
200, 135662.28, -187500.02, -187500.02, -187500.02, -187500.02, -187500.02, -132211.66, 187500.00, -0.00, -0.00, -0.00
201, 137702.59, -187500.02, -187500.02, -187500.02, -187500.02, -187500.02, -156182.92, 187500.00, -0.00, -0.00, -0.00
202, 129267.42, -187500.02, -187500.02, -187500.02, -187500.02, -187500.02, -169031.78, 187500.00, -0.00, -0.00, -0.00
203, 118650.95, -187500.02, -187500.02, -187500.02, -187500.02, -187500.02, -170164.09, 187500.00, -0.00, -0.00, -0.00
204, 112992.89, -187500.02, -187500.02, -187500.02, -187500.02, -187500.02, -170429.94, 187500.00, -0.00, -0.00, -0.00
205, 109332.39, -187500.02, -187500.02, -187500.02, -187500.02, -187500.02, -170574.84, 187500.00, -0.00, -0.00, -0.00
206, 106715.78, -187500.02, -187500.02, -187500.02, -187500.02, -187500.02, -170648.19, 187500.00, -0.00, -0.00, -0.00
207, 104734.33, -187500.02, -187500.02, -187500.02, -187500.02, -187500.02, -170683.77, 187500.00, -0.00, -0.00, -0.00
208, 103196.55, -187500.02, -187500.02, -187500.02, -187500.02, -187500.02, -170696.73, 187500.00, -0.00, -0.00, -0.00
209, 102010.43, -187500.02, -187500.02, -187500.02, -187500.02, -187500.02, -170702.09, 187500.00, -0.00, -0.00, -0.00
210, 101028.74, -187500.02, -187500.02, -187500.02, -187500.02, -187500.02, -170690.95, 187500.00, -0.00, -0.00, -0.00
211, 100168.47, -187500.02, -187500.02, -187500.02, -187500.02, -187500.02, -170648.77, 187500.00, -0.00, -0.00, -0.00
212, 99466.51, -187500.02, -187500.02, -187500.02, -187500.02, -187500.02, -170622.80, 187500.00, -0.00, -0.00, -0.00
213, 98903.90, -187500.02, -187500.02, -187500.02, -187500.02, -187500.02, -170595.25, 187500.00, -0.00, -0.00, -0.00
214, 98428.95, -187500.02, -187500.02, -187500.02, -187500.02, -187500.02, -170567.52, 187500.00, -0.00, -0.00, -0.00
215, 97979.41, -187500.02, -187500.02, -187500.02, -187500.02, -187500.02, -170531.59, 187500.00, -0.00, -0.00, -0.00
216, 97586.10, -187500.02, -187500.02, -187500.02, -187500.02, -187500.02, -170510.72, 187500.00, -0.00, -0.00, -0.00
217, 97259.21, -187500.02, -187500.02, -187500.02, -187500.02, -187500.02, -170470.42, 187500.00, -0.00, -0.00, -0.00
218, 97002.01, -187500.02, -187500.02, -187500.02, -187500.02, -187500.02, -170449.13, 187500.00, -0.00, -0.00, -0.00
219, 96720.45, -187500.02, -187500.02, -187500.02, -187500.02, -187500.02, -170402.58, 187500.00, -0.00, -0.00, -0.00
220, 96465.19, -187500.02, -187500.02, -187500.02, -187500.02, -187500.02, -170375.36, 187500.00, -0.00, -0.00, -0.00
221, 96252.55, -187500.02, -187500.02, -187500.02, -187500.02, -187500.02, -170335.13, 187500.00, -0.00, -0.00, -0.00
222, 96098.22, -187500.02, -187500.02, -187500.02, -187500.02, -187500.02, -170301.13, 187500.00, -0.00, -0.00, -0.00
223, 95927.70, -187500.02, -187500.02, -187500.02, -187500.02, -187500.02, -170260.31, 187500.00, -0.00, -0.00, -0.00
224, 95751.12, -187500.02, -187500.02, -187500.02, -187500.02, -187500.02, -170222.70, 187500.00, -0.00, -0.00, -0.00
225, 95611.93, -187500.02, -187500.02, -187500.02, -187500.02, -187500.02, -170186.67, 187500.00, -0.00, -0.00, -0.00
226, 95508.84, -187500.02, -187500.02, -187500.02, -187500.02, -187500.02, -170145.86, 187500.00, -0.00, -0.00, -0.00
227, 95376.88, -187500.02, -187500.02, -187500.02, -187500.02, -187500.02, -170084.66, 187500.00, -0.00, -0.00, -0.00
228, 95259.71, -187500.02, -187500.02, -187500.02, -187500.02, -187500.02, -170046.83, 187500.00, -0.00, -0.00, -0.00
229, 95155.62, -187500.02, -187500.02, -187500.02, -187500.02, -187500.02, -170024.73, 187500.00, -0.00, -0.00, -0.00
230, 95089.68, -187500.02, -187500.02, -187500.02, -187500.02, -187500.02, -169986.47, 187500.00, -0.00, -0.00, -0.00
231, 95035.77, -187500.02, -187500.02, -187500.02, -187500.02, -187500.02, -169973.72, 187500.00, -0.00, -0.00, -0.00
232, 94906.53, -187500.02, -187500.02, -187500.02, -187500.02, -187500.02, -169910.48, 187500.00, -0.00, -0.00, -0.00
233, 94827.74, -187500.02, -187500.02, -187500.02, -187500.02, -187500.02, -169871.03, 187500.00, -0.00, -0.00, -0.00
234, 94791.42, -187500.02, -187500.02, -187500.02, -187500.02, -187500.02, -169856.75, 187500.00, -0.00, -0.00, -0.00
235, 94748.02, -187500.02, -187500.02, -187500.02, -187500.02, -187500.02, -169831.61, 187500.00, -0.00, -0.00, -0.00
236, 94668.93, -187500.02, -187500.02, -187500.02, -187500.02, -187500.02, -169798.53, 187500.00, -0.00, -0.00, -0.00
237, 94588.55, -187500.02, -187500.02, -187500.02, -187500.02, -187500.02, -169757.58, 187500.00, -0.00, -0.00, -0.00
238, 94554.94, -187500.02, -187500.02, -187500.02, -187500.02, -187500.02, -169715.83, 187500.00, -0.00, -0.00, -0.00
239, 94531.41, -187500.02, -187500.02, -187500.02, -187500.02, -187500.02, -169671.53, 187500.00, -0.00, -0.00, -0.00
240, 94478.02, -187500.02, -187500.02, -187500.02, -187500.02, -187500.02, -169625.48, 187500.00, -0.00, -0.00, -0.00
241, 94408.67, -187500.02, -187500.02, -187500.02, -187500.02, -187500.02, -169580.80, 187500.00, -0.00, -0.00, -0.00
242, 94391.62, -187500.02, -187500.02, -187500.02, -187500.02, -187500.02, -169537.48, 187500.00, -0.00, -0.00, -0.00
243, 94385.11, -187500.02, -187500.02, -187500.02, -187500.02, -187500.02, -169501.28, 187500.00, -0.00, -0.00, -0.00
244, 94343.11, -187500.02, -187500.02, -187500.02, -187500.02, -187500.02, -169454.52, 187500.00, -0.00, -0.00, -0.00
245, 94275.99, -187500.02, -187500.02, -187500.02, -187500.02, -187500.02, -169408.88, 187500.00, -0.00, -0.00, -0.00
246, 94251.80, -187500.02, -187500.02, -187500.02, -187500.02, -187500.02, -169362.48, 187500.00, -0.00, -0.00, -0.00
247, 94237.19, -187500.02, -187500.02, -187500.02, -187500.02, -187500.02, -169305.52, 187500.00, -0.00, -0.00, -0.00
248, 94207.34, -187500.02, -187500.02, -187500.02, -187500.02, -187500.02, -169251.42, 187500.00, -0.00, -0.00, -0.00
249, 94165.17, -187500.02, -187500.02, -187500.02, -187500.02, -187500.02, -169213.08, 187500.00, -0.00, -0.00, -0.00
250, 94151.42, -187500.02, -187500.02, -187500.02, -187500.02, -187500.02, -169184.02, 187500.00, -0.00, -0.00, -0.00
251, 94165.39, -187500.02, -187500.02, -187500.02, -187500.02, -187500.02, -169163.73, 187500.00, -0.00, -0.00, -0.00
252, 94131.46, -187500.02, -187500.02, -187500.02, -187500.02, -187500.02, -169114.61, 187500.00, -0.00, -0.00, -0.00
253, 94078.13, -187500.02, -187500.02, -187500.02, -187500.02, -187500.02, -169058.17, 187500.00, -0.00, -0.00, -0.00
254, 94057.95, -187500.02, -187500.02, -187500.02, -187500.02, -187500.02, -169015.66, 187500.00, -0.00, -0.00, -0.00
255, 94053.48, -187500.02, -187500.02, -187500.02, -187500.02, -187500.02, -168968.14, 187500.00, -0.00, -0.00, -0.00
0, 94041.85, -187500.02, -187500.02, -187500.02, -187500.02, -187500.02, -168904.81, 187500.00, -0.00, -0.00, -0.00
1, 94015.57, -187500.02, -187500.02, -187500.02, -187500.02, -187500.02, -168857.34, 187500.00, -0.00, -0.00, -0.00
2, 94008.95, -187500.02, -187500.02, -187500.02, -187500.02, -187500.02, -168844.84, 187500.00, -0.00, -0.00, -0.00
3, 93992.05, -187500.02, -187500.02, -187500.02, -187500.02, -187500.02, -168790.94, 187500.00, -0.00, -0.00, -0.00
4, 93987.72, -187500.02, -187500.02, -187500.02, -187500.02, -187500.02, -168729.47, 187500.00, -0.00, -0.00, -0.00
5, 93951.58, -187500.02, -187500.02, -187500.02, -187500.02, -187500.02, -168662.22, 187500.00, -0.00, -0.00, -0.00
6, 93931.46, -187500.02, -187500.02, -187500.02, -187500.02, -187500.02, -168630.81, 187500.00, -0.00, -0.00, -0.00
7, 93912.69, -187500.02, -187500.02, -187500.02, -187500.02, -187500.02, -168563.91, 187500.00, -0.00, -0.00, -0.00
8, 93925.13, -187500.02, -187500.02, -187500.02, -187500.02, -187500.02, -168504.08, 187500.00, -0.00, -0.00, -0.00
9, 93892.59, -187500.02, -187500.02, -187500.02, -187500.02, -187500.02, -168441.75, 187500.00, -0.00, -0.00, -0.00
10, 93861.97, -187500.02, -187500.02, -187500.02, -187500.02, -187500.02, -168387.28, 187500.00, -0.00, -0.00, -0.00
11, 93876.23, -187500.02, -187500.02, -187500.02, -187500.02, -187500.02, -168355.53, 187500.00, -0.00, -0.00, -0.00
12, 93878.91, -187500.02, -187500.02, -187500.02, -187500.02, -187500.02, -168294.34, 187500.00, -0.00, -0.00, -0.00
13, 93876.67, -187500.02, -187500.02, -187500.02, -187500.02, -187500.02, -168250.56, 187500.00, -0.00, -0.00, -0.00
14, 93827.32, -187500.02, -187500.02, -187500.02, -187500.02, -187500.02, -168189.19, 187500.00, -0.00, -0.00, -0.00
15, 93807.20, -187500.02, -187500.02, -187500.02, -187500.02, -187500.02, -168121.52, 187500.00, -0.00, -0.00, -0.00
16, 93834.48, -187500.02, -187500.02, -187500.02, -187500.02, -187500.02, -168063.13, 187500.00, -0.00, -0.00, -0.00
17, 93828.17, -187500.02, -187500.02, -187500.02, -187500.02, -187500.02, -168010.09, 187500.00, -0.00, -0.00, -0.00
18, 93791.78, -187500.02, -187500.02, -187500.02, -187500.02, -187500.02, -167941.81, 187500.00, -0.00, -0.00, -0.00
19, 93789.62, -187500.02, -187500.02, -187500.02, -187500.02, -187500.02, -167891.28, 187500.00, -0.00, -0.00, -0.00
20, 93820.08, -187500.02, -187500.02, -187500.02, -187500.02, -187500.02, -167857.95, 187500.00, -0.00, -0.00, -0.00
21, 93795.09, -187500.02, -187500.02, -187500.02, -187500.02, -187500.02, -167777.53, 187500.00, -0.00, -0.00, -0.00
22, 93771.55, -187500.02, -187500.02, -187500.02, -187500.02, -187500.02, -167713.45, 187500.00, -0.00, -0.00, -0.00
23, 93767.45, -187500.02, -187500.02, -187500.02, -187500.02, -187500.02, -167675.98, 187500.00, -0.00, -0.00, -0.00
24, 93788.88, -187500.02, -187500.02, -187500.02, -187500.02, -187500.02, -167634.09, 187500.00, -0.00, -0.00, -0.00
25, 93798.40, -187500.02, -187500.02, -187500.02, -187500.02, -187500.02, -167587.72, 187500.00, -0.00, -0.00, -0.00
26, 93751.77, -187500.02, -187500.02, -187500.02, -187500.02, -187500.02, -167519.17, 187500.00, -0.00, -0.00, -0.00
27, 93713.69, -187500.02, -187500.02, -187500.02, -187500.02, -187500.02, -167438.45, 187500.00, -0.00, -0.00, -0.00
28, 93736.87, -187500.02, -187500.02, -187500.02, -187500.02, -187500.02, -167378.11, 187500.00, -0.00, -0.00, -0.00
29, 93738.27, -187500.02, -187500.02, -187500.02, -187500.02, -187500.02, -167302.27, 187500.00, -0.00, -0.00, -0.00
30, 93708.79, -187500.02, -187500.02, -187500.02, -187500.02, -187500.02, -167211.42, 187500.00, -0.00, -0.00, -0.00
31, 93700.45, -187500.02, -187500.02, -187500.02, -187500.02, -187500.02, -167150.52, 187500.00, -0.00, -0.00, -0.00
32, 93704.52, -187500.02, -187500.02, -187500.02, -187500.02, -187500.02, -167083.59, 187500.00, -0.00, -0.00, -0.00
33, 93716.80, -187500.02, -187500.02, -187500.02, -187500.02, -187500.02, -167012.31, 187500.00, -0.00, -0.00, -0.00
34, 93707.77, -187500.02, -187500.02, -187500.02, -187500.02, -187500.02, -166944.34, 187500.00, -0.00, -0.00, -0.00
35, 93679.82, -187500.02, -187500.02, -187500.02, -187500.02, -187500.02, -166862.97, 187500.00, -0.00, -0.00, -0.00
36, 93677.92, -187500.02, -187500.02, -187500.02, -187500.02, -187500.02, -166781.73, 187500.00, -0.00, -0.00, -0.00
37, 93712.01, -187500.02, -187500.02, -187500.02, -187500.02, -187500.02, -166714.23, 187500.00, -0.00, -0.00, -0.00
38, 93710.73, -187500.02, -187500.02, -187500.02, -187500.02, -187500.02, -166635.83, 187500.00, -0.00, -0.00, -0.00
39, 93696.59, -187500.02, -187500.02, -187500.02, -187500.02, -187500.02, -166560.55, 187500.00, -0.00, -0.00, -0.00
40, 93722.38, -187500.02, -187500.02, -187500.02, -187500.02, -187500.02, -166509.30, 187500.00, -0.00, -0.00, -0.00
41, 93749.74, -187500.02, -187500.02, -187500.02, -187500.02, -187500.02, -166438.61, 187500.00, -0.00, -0.00, -0.00
42, 93751.17, -187500.02, -187500.02, -187500.02, -187500.02, -187500.02, -166355.33, 187500.00, -0.00, -0.00, -0.00
43, 93736.41, -187500.02, -187500.02, -187500.02, -187500.02, -187500.02, -166276.31, 187500.00, -0.00, -0.00, -0.00
44, 93729.09, -187500.02, -187500.02, -187500.02, -187500.02, -187500.02, -166203.81, 187500.00, -0.00, -0.00, -0.00
45, 93736.38, -187500.02, -187500.02, -187500.02, -187500.02, -187500.02, -166105.19, 187500.00, -0.00, -0.00, -0.00
46, 93777.75, -187500.02, -187500.02, -187500.02, -187500.02, -187500.02, -166052.06, 187500.00, -0.00, -0.00, -0.00
47, 93747.37, -187500.02, -187500.02, -187500.02, -187500.02, -187500.02, -165996.63, 187500.00, -0.00, -0.00, -0.00
48, 93706.49, -187500.02, -187500.02, -187500.02, -187500.02, -187500.02, -165904.36, 187500.00, -0.00, -0.00, -0.00
49, 93739.32, -187500.02, -187500.02, -187500.02, -187500.02, -187500.02, -165825.48, 187500.00, -0.00, -0.00, -0.00
50, 93762.23, -187500.02, -187500.02, -187500.02, -187500.02, -187500.02, -165766.13, 187500.00, -0.00, -0.00, -0.00
51, 93734.81, -187500.02, -187500.02, -187500.02, -187500.02, -187500.02, -165689.25, 187500.00, -0.00, -0.00, -0.00
52, 93728.26, -187500.02, -187500.02, -187500.02, -187500.02, -187500.02, -165621.06, 187500.00, -0.00, -0.00, -0.00
53, 93735.70, -187500.02, -187500.02, -187500.02, -187500.02, -187500.02, -165561.78, 187500.00, -0.00, -0.00, -0.00
54, 93741.49, -187500.02, -187500.02, -187500.02, -187500.02, -187500.02, -165477.67, 187500.00, -0.00, -0.00, -0.00
55, 93726.07, -187500.02, -187500.02, -187500.02, -187500.02, -187500.02, -165408.42, 187500.00, -0.00, -0.00, -0.00
56, 93701.26, -187500.02, -187500.02, -187500.02, -187500.02, -187500.02, -165329.08, 187500.00, -0.00, -0.00, -0.00
57, 93710.67, -187500.02, -187500.02, -187500.02, -187500.02, -187500.02, -165251.38, 187500.00, -0.00, -0.00, -0.00
58, 93745.52, -187500.02, -187500.02, -187500.02, -187500.02, -187500.02, -165187.91, 187500.00, -0.00, -0.00, -0.00
59, 93717.98, -187500.02, -187500.02, -187500.02, -187500.02, -187500.02, -165102.73, 187500.00, -0.00, -0.00, -0.00
60, 93682.51, -187500.02, -187500.02, -187500.02, -187500.02, -187500.02, -165013.80, 187500.00, -0.00, -0.00, -0.00
61, 93671.48, -187500.02, -187500.02, -187500.02, -187500.02, -187500.02, -164911.86, 187500.00, -0.00, -0.00, -0.00
62, 93720.02, -187500.02, -187500.02, -187500.02, -187500.02, -187500.02, -164841.41, 187500.00, -0.00, -0.00, -0.00
63, 93715.07, -187500.02, -187500.02, -187500.02, -187500.02, -187500.02, -164772.86, 187500.00, -0.00, -0.00, -0.00
64, 93691.45, -187500.02, -187500.02, -187500.02, -187500.02, -187500.02, -164689.97, 187500.00, -0.00, -0.00, -0.00
65, 93688.65, -187500.02, -187500.02, -187500.02, -187500.02, -187500.02, -164613.95, 187500.00, -0.00, -0.00, -0.00
66, 93708.70, -187500.02, -187500.02, -187500.02, -187500.02, -187500.02, -164532.61, 187500.00, -0.00, -0.00, -0.00
67, 93720.77, -187500.02, -187500.02, -187500.02, -187500.02, -187500.02, -164457.63, 187500.00, -0.00, -0.00, -0.00
68, 93689.88, -187500.02, -187500.02, -187500.02, -187500.02, -187500.02, -164370.25, 187500.00, -0.00, -0.00, -0.00
69, 93680.56, -187500.02, -187500.02, -187500.02, -187500.02, -187500.02, -164294.95, 187500.00, -0.00, -0.00, -0.00
70, 93698.29, -187500.02, -187500.02, -187500.02, -187500.02, -187500.02, -164206.08, 187500.00, -0.00, -0.00, -0.00
71, 93713.89, -187500.02, -187500.02, -187500.02, -187500.02, -187500.02, -164126.28, 187500.00, -0.00, -0.00, -0.00
72, 93690.55, -187500.02, -187500.02, -187500.02, -187500.02, -187500.02, -164045.17, 187500.00, -0.00, -0.00, -0.00
73, 93667.62, -187500.02, -187500.02, -187500.02, -187500.02, -187500.02, -163957.77, 187500.00, -0.00, -0.00, -0.00
74, 93684.00, -187500.02, -187500.02, -187500.02, -187500.02, -187500.02, -163863.22, 187500.00, -0.00, -0.00, -0.00
75, 93715.90, -187500.02, -187500.02, -187500.02, -187500.02, -187500.02, -163793.05, 187500.00, -0.00, -0.00, -0.00
76, 93690.62, -187500.02, -187500.02, -187500.02, -187500.02, -187500.02, -163715.66, 187500.00, -0.00, -0.00, -0.00
77, 93675.46, -187500.02, -187500.02, -187500.02, -187500.02, -187500.02, -163641.52, 187500.00, -0.00, -0.00, -0.00
78, 93685.50, -187500.02, -187500.02, -187500.02, -187500.02, -187500.02, -163563.75, 187500.00, -0.00, -0.00, -0.00
79, 93699.29, -187500.02, -187500.02, -187500.02, -187500.02, -187500.02, -163466.50, 187500.00, -0.00, -0.00, -0.00
80, 93687.87, -187500.02, -187500.02, -187500.02, -187500.02, -187500.02, -163369.94, 187500.00, -0.00, -0.00, -0.00
81, 93668.23, -187500.02, -187500.02, -187500.02, -187500.02, -187500.02, -163285.44, 187500.00, -0.00, -0.00, -0.00
82, 93682.80, -187500.02, -187500.02, -187500.02, -187500.02, -187500.02, -163204.31, 187500.00, -0.00, -0.00, -0.00
83, 93710.67, -187500.02, -187500.02, -187500.02, -187500.02, -187500.02, -163123.06, 187500.00, -0.00, -0.00, -0.00
84, 93694.22, -187500.02, -187500.02, -187500.02, -187500.02, -187500.02, -163029.53, 187500.00, -0.00, -0.00, -0.00
85, 93649.18, -187500.02, -187500.02, -187500.02, -187500.02, -187500.02, -162918.91, 187500.00, -0.00, -0.00, -0.00
86, 93640.53, -187500.02, -187500.02, -187500.02, -187500.02, -187500.02, -162807.47, 187500.00, -0.00, -0.00, -0.00
87, 93676.36, -187500.02, -187500.02, -187500.02, -187500.02, -187500.02, -162705.25, 187500.00, -0.00, -0.00, -0.00
88, 93700.61, -187500.02, -187500.02, -187500.02, -187500.02, -187500.02, -162636.14, 187500.00, -0.00, -0.00, -0.00
89, 93667.95, -187500.02, -187500.02, -187500.02, -187500.02, -187500.02, -162550.48, 187500.00, -0.00, -0.00, -0.00
90, 93643.48, -187500.02, -187500.02, -187500.02, -187500.02, -187500.02, -162441.67, 187500.00, -0.00, -0.00, -0.00
91, 93664.85, -187500.02, -187500.02, -187500.02, -187500.02, -187500.02, -162340.58, 187500.00, -0.00, -0.00, -0.00
92, 93678.62, -187500.02, -187500.02, -187500.02, -187500.02, -187500.02, -162241.00, 187500.00, -0.00, -0.00, -0.00
93, 93667.84, -187500.02, -187500.02, -187500.02, -187500.02, -187500.02, -162158.09, 187500.00, -0.00, -0.00, -0.00
94, 93660.22, -187500.02, -187500.02, -187500.02, -187500.02, -187500.02, -162080.78, 187500.00, -0.00, -0.00, -0.00
95, 93665.05, -187500.02, -187500.02, -187500.02, -187500.02, -187500.02, -161971.33, 187500.00, -0.00, -0.00, -0.00
96, 93681.73, -187500.02, -187500.02, -187500.02, -187500.02, -187500.02, -161866.39, 187500.00, -0.00, -0.00, -0.00
97, 93665.85, -187500.02, -187500.02, -187500.02, -187500.02, -187500.02, -161777.09, 187500.00, -0.00, -0.00, -0.00
98, 93656.73, -187500.02, -187500.02, -187500.02, -187500.02, -187500.02, -161691.64, 187500.00, -0.00, -0.00, -0.00
99, 93687.06, -187500.02, -187500.02, -187500.02, -187500.02, -187500.02, -161618.28, 187500.00, -0.00, -0.00, -0.00
100, 93703.31, -187500.02, -187500.02, -187500.02, -187500.02, -187500.02, -161535.36, 187500.00, -0.00, -0.00, -0.00
101, 93677.99, -187500.02, -187500.02, -187500.02, -187500.02, -187500.02, -161432.36, 187500.00, -0.00, -0.00, -0.00
102, 93656.73, -187500.02, -187500.02, -187500.02, -187500.02, -187500.02, -161337.61, 187500.00, -0.00, -0.00, -0.00
103, 93659.66, -187500.02, -187500.02, -187500.02, -187500.02, -187500.02, -161239.33, 187500.00, -0.00, -0.00, -0.00
104, 93681.32, -187500.02, -187500.02, -187500.02, -187500.02, -187500.02, -161145.45, 187500.00, -0.00, -0.00, -0.00
105, 93686.38, -187500.02, -187500.02, -187500.02, -187500.02, -187500.02, -161065.80, 187500.00, -0.00, -0.00, -0.00
106, 93664.36, -187500.02, -187500.02, -187500.02, -187500.02, -187500.02, -160981.66, 187500.00, -0.00, -0.00, -0.00
107, 93652.64, -187500.02, -187500.02, -187500.02, -187500.02, -187500.02, -160867.78, 187500.00, -0.00, -0.00, -0.00
108, 93681.68, -187500.02, -187500.02, -187500.02, -187500.02, -187500.02, -160773.20, 187500.00, -0.00, -0.00, -0.00
109, 93680.63, -187500.02, -187500.02, -187500.02, -187500.02, -187500.02, -160675.64, 187500.00, -0.00, -0.00, -0.00
110, 93657.74, -187500.02, -187500.02, -187500.02, -187500.02, -187500.02, -160583.89, 187500.00, -0.00, -0.00, -0.00
111, 93642.83, -187500.02, -187500.02, -187500.02, -187500.02, -187500.02, -160468.89, 187500.00, -0.00, -0.00, -0.00
112, 93675.53, -187500.02, -187500.02, -187500.02, -187500.02, -187500.02, -160374.56, 187500.00, -0.00, -0.00, -0.00
113, 93678.80, -187500.02, -187500.02, -187500.02, -187500.02, -187500.02, -160279.48, 187500.00, -0.00, -0.00, -0.00
114, 93660.98, -187500.02, -187500.02, -187500.02, -187500.02, -187500.02, -160184.75, 187500.00, -0.00, -0.00, -0.00
115, 93645.71, -187500.02, -187500.02, -187500.02, -187500.02, -187500.02, -160083.59, 187500.00, -0.00, -0.00, -0.00
116, 93667.17, -187500.02, -187500.02, -187500.02, -187500.02, -187500.02, -159981.23, 187500.00, -0.00, -0.00, -0.00
117, 93663.24, -187500.02, -187500.02, -187500.02, -187500.02, -187500.02, -159866.53, 187500.00, -0.00, -0.00, -0.00
118, 93646.97, -187500.02, -187500.02, -187500.02, -187500.02, -187500.02, -159760.05, 187500.00, -0.00, -0.00, -0.00
119, 93652.71, -187500.02, -187500.02, -187500.02, -187500.02, -187500.02, -159681.19, 187500.00, -0.00, -0.00, -0.00
120, 93678.57, -187500.02, -187500.02, -187500.02, -187500.02, -187500.02, -159591.38, 187500.00, -0.00, -0.00, -0.00
121, 93694.91, -187500.02, -187500.02, -187500.02, -187500.02, -187500.02, -159498.16, 187500.00, -0.00, -0.00, -0.00
122, 93681.90, -187500.02, -187500.02, -187500.02, -187500.02, -187500.02, -159419.75, 187500.00, -0.00, -0.00, -0.00
123, 93629.33, -187500.02, -187500.02, -187500.02, -187500.02, -187500.02, -159301.53, 187500.00, -0.00, -0.00, -0.00
124, 93653.67, -187500.02, -187500.02, -187500.02, -187500.02, -187500.02, -159194.02, 187500.00, -0.00, -0.00, -0.00
125, 93672.65, -187500.02, -187500.02, -187500.02, -187500.02, -187500.02, -159099.13, 187500.00, -0.00, -0.00, -0.00
126, 93643.23, -187500.02, -187500.02, -187500.02, -187500.02, -187500.02, -158979.70, 187500.00, -0.00, -0.00, -0.00
127, 93616.79, -187500.02, -187500.02, -187500.02, -187500.02, -187500.02, -158858.47, 187500.00, -0.00, -0.00, -0.00
128, 93657.56, -187500.02, -187500.02, -187500.02, -187500.02, -187500.02, -158760.02, 187500.00, -0.00, -0.00, -0.00
129, 93694.66, -187500.02, -187500.02, -187500.02, -187500.02, -187500.02, -158679.30, 187500.00, -0.00, -0.00, -0.00
130, 93670.21, -187500.02, -187500.02, -187500.02, -187500.02, -187500.02, -158594.88, 187500.00, -0.00, -0.00, -0.00
131, 93634.20, -187500.02, -187500.02, -187500.02, -187500.02, -187500.02, -158503.23, 187500.00, -0.00, -0.00, -0.00
132, 93618.96, -187500.02, -187500.02, -187500.02, -187500.02, -187500.02, -158393.70, 187500.00, -0.00, -0.00, -0.00
133, 93643.84, -187500.02, -187500.02, -187500.02, -187500.02, -187500.02, -158284.55, 187500.00, -0.00, -0.00, -0.00
134, 93643.21, -187500.02, -187500.02, -187500.02, -187500.02, -187500.02, -158174.86, 187500.00, -0.00, -0.00, -0.00
135, 93622.36, -187500.02, -187500.02, -187500.02, -187500.02, -187500.02, -158072.45, 187500.00, -0.00, -0.00, -0.00
136, 93617.13, -187500.02, -187500.02, -187500.02, -187500.02, -187500.02, -157969.31, 187500.00, -0.00, -0.00, -0.00
137, 93648.04, -187500.02, -187500.02, -187500.02, -187500.02, -187500.02, -157873.89, 187500.00, -0.00, -0.00, -0.00
138, 93651.41, -187500.02, -187500.02, -187500.02, -187500.02, -187500.02, -157768.83, 187500.00, -0.00, -0.00, -0.00
139, 93639.16, -187500.02, -187500.02, -187500.02, -187500.02, -187500.02, -157680.91, 187500.00, -0.00, -0.00, -0.00
140, 93617.64, -187500.02, -187500.02, -187500.02, -187500.02, -187500.02, -157577.47, 187500.00, -0.00, -0.00, -0.00
141, 93629.87, -187500.02, -187500.02, -187500.02, -187500.02, -187500.02, -157455.22, 187500.00, -0.00, -0.00, -0.00
142, 93653.18, -187500.02, -187500.02, -187500.02, -187500.02, -187500.02, -157355.38, 187500.00, -0.00, -0.00, -0.00
143, 93641.36, -187500.02, -187500.02, -187500.02, -187500.02, -187500.02, -157270.69, 187500.00, -0.00, -0.00, -0.00
144, 93621.06, -187500.02, -187500.02, -187500.02, -187500.02, -187500.02, -157169.44, 187500.00, -0.00, -0.00, -0.00
145, 93640.91, -187500.02, -187500.02, -187500.02, -187500.02, -187500.02, -157071.22, 187500.00, -0.00, -0.00, -0.00
146, 93652.94, -187500.02, -187500.02, -187500.02, -187500.02, -187500.02, -156956.52, 187500.00, -0.00, -0.00, -0.00
147, 93637.73, -187500.02, -187500.02, -187500.02, -187500.02, -187500.02, -156854.28, 187500.00, -0.00, -0.00, -0.00
148, 93602.66, -187500.02, -187500.02, -187500.02, -187500.02, -187500.02, -156737.63, 187500.00, -0.00, -0.00, -0.00
149, 93612.27, -187500.02, -187500.02, -187500.02, -187500.02, -187500.02, -156622.84, 187500.00, -0.00, -0.00, -0.00
150, 93645.00, -187500.02, -187500.02, -187500.02, -187500.02, -187500.02, -156527.52, 187500.00, -0.00, -0.00, -0.00
151, 93626.02, -187500.02, -187500.02, -187500.02, -187500.02, -187500.02, -156417.08, 187500.00, -0.00, -0.00, -0.00
152, 93609.20, -187500.02, -187500.02, -187500.02, -187500.02, -187500.02, -156317.08, 187500.00, -0.00, -0.00, -0.00
153, 93605.68, -187500.02, -187500.02, -187500.02, -187500.02, -187500.02, -156207.16, 187500.00, -0.00, -0.00, -0.00
154, 93635.52, -187500.02, -187500.02, -187500.02, -187500.02, -187500.02, -156103.08, 187500.00, -0.00, -0.00, -0.00
155, 93632.55, -187500.02, -187500.02, -187500.02, -187500.02, -187500.02, -155999.55, 187500.00, -0.00, -0.00, -0.00
156, 93599.11, -187500.02, -187500.02, -187500.02, -187500.02, -187500.02, -155889.53, 187500.00, -0.00, -0.00, -0.00
157, 93603.02, -187500.02, -187500.02, -187500.02, -187500.02, -187500.02, -155782.48, 187500.00, -0.00, -0.00, -0.00
158, 93643.16, -187500.02, -187500.02, -187500.02, -187500.02, -187500.02, -155688.05, 187500.00, -0.00, -0.00, -0.00
159, 93658.14, -187500.02, -187500.02, -187500.02, -187500.02, -187500.02, -155604.61, 187500.00, -0.00, -0.00, -0.00
160, 93635.70, -187500.02, -187500.02, -187500.02, -187500.02, -187500.02, -155510.53, 187500.00, -0.00, -0.00, -0.00
161, 93611.47, -187500.02, -187500.02, -187500.02, -187500.02, -187500.02, -155396.41, 187500.00, -0.00, -0.00, -0.00
162, 93620.10, -187500.02, -187500.02, -187500.02, -187500.02, -187500.02, -155270.02, 187500.00, -0.00, -0.00, -0.00
163, 93630.63, -187500.02, -187500.02, -187500.02, -187500.02, -187500.02, -155158.00, 187500.00, -0.00, -0.00, -0.00
164, 93628.10, -187500.02, -187500.02, -187500.02, -187500.02, -187500.02, -155069.61, 187500.00, -0.00, -0.00, -0.00
165, 93605.68, -187500.02, -187500.02, -187500.02, -187500.02, -187500.02, -154962.78, 187500.00, -0.00, -0.00, -0.00
166, 93628.41, -187500.02, -187500.02, -187500.02, -187500.02, -187500.02, -154854.13, 187500.00, -0.00, -0.00, -0.00
167, 93645.24, -187500.02, -187500.02, -187500.02, -187500.02, -187500.02, -154759.50, 187500.00, -0.00, -0.00, -0.00
168, 93607.63, -187500.02, -187500.02, -187500.02, -187500.02, -187500.02, -154643.78, 187500.00, -0.00, -0.00, -0.00
169, 93595.06, -187500.02, -187500.02, -187500.02, -187500.02, -187500.02, -154537.97, 187500.00, -0.00, -0.00, -0.00
170, 93629.09, -187500.02, -187500.02, -187500.02, -187500.02, -187500.02, -154443.63, 187500.00, -0.00, -0.00, -0.00
171, 93631.81, -187500.02, -187500.02, -187500.02, -187500.02, -187500.02, -154334.39, 187500.00, -0.00, -0.00, -0.00
172, 93598.22, -187500.02, -187500.02, -187500.02, -187500.02, -187500.02, -154198.67, 187500.00, -0.00, -0.00, -0.00
173, 93591.45, -187500.02, -187500.02, -187500.02, -187500.02, -187500.02, -154097.02, 187500.00, -0.00, -0.00, -0.00
174, 93606.48, -187500.02, -187500.02, -187500.02, -187500.02, -187500.02, -153989.13, 187500.00, -0.00, -0.00, -0.00
175, 93625.89, -187500.02, -187500.02, -187500.02, -187500.02, -187500.02, -153878.95, 187500.00, -0.00, -0.00, -0.00
176, 93609.86, -187500.02, -187500.02, -187500.02, -187500.02, -187500.02, -153767.28, 187500.00, -0.00, -0.00, -0.00
177, 93597.99, -187500.02, -187500.02, -187500.02, -187500.02, -187500.02, -153661.78, 187500.00, -0.00, -0.00, -0.00
178, 93603.25, -187500.02, -187500.02, -187500.02, -187500.02, -187500.02, -153563.63, 187500.00, -0.00, -0.00, -0.00
179, 93608.16, -187500.02, -187500.02, -187500.02, -187500.02, -187500.02, -153436.25, 187500.00, -0.00, -0.00, -0.00
180, 93611.96, -187500.02, -187500.02, -187500.02, -187500.02, -187500.02, -153319.86, 187500.00, -0.00, -0.00, -0.00
181, 93592.59, -187500.02, -187500.02, -187500.02, -187500.02, -187500.02, -153219.75, 187500.00, -0.00, -0.00, -0.00
182, 93588.05, -187500.02, -187500.02, -187500.02, -187500.02, -187500.02, -153097.75, 187500.00, -0.00, -0.00, -0.00
183, 93612.66, -187500.02, -187500.02, -187500.02, -187500.02, -187500.02, -152979.89, 187500.00, -0.00, -0.00, -0.00
184, 93621.09, -187500.02, -187500.02, -187500.02, -187500.02, -187500.02, -152866.09, 187500.00, -0.00, -0.00, -0.00
185, 93610.48, -187500.02, -187500.02, -187500.02, -187500.02, -187500.02, -152770.41, 187500.00, -0.00, -0.00, -0.00
186, 93586.66, -187500.02, -187500.02, -187500.02, -187500.02, -187500.02, -152657.84, 187500.00, -0.00, -0.00, -0.00
187, 93608.27, -187500.02, -187500.02, -187500.02, -187500.02, -187500.02, -152536.86, 187500.00, -0.00, -0.00, -0.00
188, 93627.74, -187500.02, -187500.02, -187500.02, -187500.02, -187500.02, -152429.30, 187500.00, -0.00, -0.00, -0.00
189, 93589.61, -187500.02, -187500.02, -187500.02, -187500.02, -187500.02, -152295.73, 187500.00, -0.00, -0.00, -0.00
190, 93566.92, -187500.02, -187500.02, -187500.02, -187500.02, -187500.02, -152160.91, 187500.00, -0.00, -0.00, -0.00
191, 93502.13, -187500.02, -187500.02, -187500.02, -187500.02, -187500.02, -151936.63, 187500.00, -0.00, -0.00, -0.00
192, 93302.46, -187500.02, -187500.02, -187500.02, -187500.02, -187500.02, -151506.25, 187500.00, -0.00, -0.00, -0.00
193, 92935.11, -187500.02, -187500.02, -187500.02, -187500.02, -187500.02, -150749.45, 187500.00, -0.00, -0.00, -0.00
194, 92529.45, -187500.02, -187500.02, -187500.02, -187500.02, -187500.02, -149718.75, 187500.00, -0.00, -0.00, -0.00
195, 92146.77, -187500.02, -187500.02, -187500.02, -187500.02, -187500.02, -148443.88, 187500.00, -0.00, -0.00, -0.00
196, 91843.88, -187500.02, -187500.02, -187500.02, -187500.02, -187500.02, -147027.00, 187500.00, -0.00, -0.00, -0.00
197, 91685.27, -187500.02, -187500.02, -187500.02, -187500.02, -187500.02, -145651.92, 187500.00, -0.00, -0.00, -0.00
198, 91634.62, -187500.02, -187500.02, -187500.02, -187500.02, -187500.02, -144405.66, 187500.00, -0.00, -0.00, -0.00
199, 91602.63, -187500.02, -187500.02, -187500.02, -187500.02, -187500.02, -143230.73, 187500.00, -0.00, -0.00, -0.00
200, 91629.07, -187500.02, -187500.02, -187500.02, -187500.02, -187500.02, -142135.86, 187500.00, -0.00, -0.00, -0.00
201, 91629.14, -187500.02, -187500.02, -187500.02, -187500.02, -187500.02, -141083.25, 187500.00, -0.00, -0.00, -0.00
202, 91687.37, -187500.02, -187500.02, -187500.02, -187500.02, -187500.02, -140134.17, 187500.00, -0.00, -0.00, -0.00
203, 91873.73, -187500.02, -187500.02, -187500.02, -187500.02, -187500.02, -139398.73, 187500.00, -0.00, -0.00, -0.00
204, 92071.10, -187500.02, -187500.02, -187500.02, -187500.02, -187500.02, -138797.31, 187500.00, -0.00, -0.00, -0.00
205, 92230.54, -187500.02, -187500.02, -187500.02, -187500.02, -187500.02, -138291.41, 187500.00, -0.00, -0.00, -0.00
206, 92359.04, -187500.02, -187500.02, -187500.02, -187500.02, -187500.02, -137863.59, 187500.00, -0.00, -0.00, -0.00
207, 92356.49, -187500.02, -187500.02, -187500.02, -187500.02, -187500.02, -137367.14, 187500.00, -0.00, -0.00, -0.00
208, 92258.63, -187500.02, -187500.02, -187500.02, -187500.02, -187500.02, -136652.89, 187500.00, -0.00, -0.00, -0.00
209, 92125.08, -187500.02, -187500.02, -187500.02, -187500.02, -187500.02, -135819.67, 187500.00, -0.00, -0.00, -0.00
210, 91977.96, -187500.02, -187500.02, -187500.02, -187500.02, -187500.02, -134901.38, 187500.00, -0.00, -0.00, -0.00
211, 91931.63, -187500.02, -187500.02, -187500.02, -187500.02, -187500.02, -134009.36, 187500.00, -0.00, -0.00, -0.00
212, 91904.29, -187500.02, -187500.02, -187500.02, -187500.02, -187500.02, -133100.81, 187500.00, -0.00, -0.00, -0.00
213, 91851.45, -187500.02, -187500.02, -187500.02, -187500.02, -187500.02, -132148.20, 187500.00, -0.00, -0.00, -0.00
214, 91690.41, -187500.02, -187500.02, -187500.02, -187500.02, -187500.02, -131100.02, 187500.00, -0.00, -0.00, -0.00
215, 91366.35, -187500.02, -187500.02, -187500.02, -187500.02, -187500.02, -129733.52, 187500.00, -0.00, -0.00, -0.00
216, 91294.67, -187500.02, -187500.02, -187500.02, -187500.02, -187500.02, -128397.89, 187500.00, -0.00, -0.00, -0.00
217, 91384.52, -187500.02, -187500.02, -187500.02, -187500.02, -187500.02, -127285.18, 187500.00, -0.00, -0.00, -0.00
218, 91390.06, -187500.02, -187500.02, -187500.02, -187500.02, -187500.02, -126210.48, 187500.00, -0.00, -0.00, -0.00
219, 91413.40, -187500.02, -187500.02, -187500.02, -187500.02, -187500.02, -125171.66, 187500.00, -0.00, -0.00, -0.00
220, 91538.23, -187500.02, -187500.02, -187500.02, -187500.02, -187500.02, -124255.91, 187500.00, -0.00, -0.00, -0.00
221, 91756.10, -187500.02, -187500.02, -187500.02, -187500.02, -187500.02, -123535.12, 187500.00, -0.00, -0.00, -0.00
222, 91898.16, -187500.02, -187500.02, -187500.02, -187500.02, -187500.02, -122910.59, 187500.00, -0.00, -0.00, -0.00
223, 92007.45, -187500.02, -187500.02, -187500.02, -187500.02, -187500.02, -122334.20, 187500.00, -0.00, -0.00, -0.00
224, 92206.73, -187500.02, -187500.02, -187500.02, -187500.02, -187500.02, -121903.51, 187500.00, -0.00, -0.00, -0.00
225, 92317.35, -187500.02, -187500.02, -187500.02, -187500.02, -187500.02, -121463.87, 187500.00, -0.00, -0.00, -0.00
226, 92267.80, -187500.02, -187500.02, -187500.02, -187500.02, -187500.02, -120892.55, 187500.00, -0.00, -0.00, -0.00
227, 92261.94, -187500.02, -187500.02, -187500.02, -187500.02, -187500.02, -120319.97, 187500.00, -0.00, -0.00, -0.00
228, 92285.74, -187500.02, -187500.02, -187500.02, -187500.02, -187500.02, -119761.85, 187500.00, -0.00, -0.00, -0.00
229, 92414.13, -187500.02, -187500.02, -187500.02, -187500.02, -187500.02, -119294.38, 187500.00, -0.00, -0.00, -0.00
230, 92454.59, -187500.02, -187500.02, -187500.02, -187500.02, -187500.02, -118829.96, 187500.00, -0.00, -0.00, -0.00
231, 92362.45, -187500.02, -187500.02, -187500.02, -187500.02, -187500.02, -118231.11, 187500.00, -0.00, -0.00, -0.00
232, 92360.63, -187500.02, -187500.02, -187500.02, -187500.02, -187500.02, -117645.20, 187500.00, -0.00, -0.00, -0.00
233, 92298.51, -187500.02, -187500.02, -187500.02, -187500.02, -187500.02, -116983.20, 187500.00, -0.00, -0.00, -0.00
234, 92156.30, -187500.02, -187500.02, -187500.02, -187500.02, -187500.02, -116158.08, 187500.00, -0.00, -0.00, -0.00
235, 92073.02, -187500.02, -187500.02, -187500.02, -187500.02, -187500.02, -115316.40, 187500.00, -0.00, -0.00, -0.00
236, 92165.60, -187500.02, -187500.02, -187500.02, -187500.02, -187500.02, -114669.16, 187500.00, -0.00, -0.00, -0.00
237, 92019.20, -187500.02, -187500.02, -187500.02, -187500.02, -187500.02, -113833.85, 187500.00, -0.00, -0.00, -0.00
238, 91783.73, -187500.02, -187500.02, -187500.02, -187500.02, -187500.02, -112708.98, 187500.00, -0.00, -0.00, -0.00
239, 91711.75, -187500.02, -187500.02, -187500.02, -187500.02, -187500.02, -111661.84, 187500.00, -0.00, -0.00, -0.00
240, 91828.65, -187500.02, -187500.02, -187500.02, -187500.02, -187500.02, -110836.40, 187500.00, -0.00, -0.00, -0.00
241, 91919.40, -187500.02, -187500.02, -187500.02, -187500.02, -187500.02, -110107.88, 187500.00, -0.00, -0.00, -0.00
242, 91869.76, -187500.02, -187500.02, -187500.02, -187500.02, -187500.02, -109238.98, 187500.00, -0.00, -0.00, -0.00
243, 91796.17, -187238.64, -187500.02, -187500.02, -187500.02, -187500.02, -108324.91, 187500.00, -0.00, -0.00, -0.00
244, 91693.78, -186537.02, -187500.02, -187500.02, -187500.02, -187500.02, -107355.11, 187500.00, -0.00, -0.00, -0.00
245, 91578.18, -185699.31, -187500.02, -187500.02, -187500.02, -187500.02, -106246.51, 187500.00, -0.00, -0.00, -0.00
246, 91596.33, -184922.14, -187500.02, -187500.02, -187500.02, -187500.02, -105200.74, 187500.00, -0.00, -0.00, -0.00
247, 91643.98, -184249.53, -187500.02, -187500.02, -187500.02, -187500.02, -104260.20, 187500.00, -0.00, -0.00, -0.00
248, 91744.59, -183690.30, -187500.02, -187500.02, -187500.02, -187500.02, -103435.29, 187500.00, -0.00, -0.00, -0.00
249, 91964.64, -183356.14, -187500.02, -187500.02, -187500.02, -187500.02, -102842.66, 187500.00, -0.00, -0.00, -0.00
250, 92081.95, -183026.19, -187500.02, -187500.02, -187500.02, -187500.02, -102254.80, 187500.00, -0.00, -0.00, -0.00
251, 92124.48, -182662.61, -187500.02, -187500.02, -187500.02, -187500.02, -101630.85, 187500.00, -0.00, -0.00, -0.00
252, 92079.15, -182238.89, -187500.02, -187500.02, -187500.02, -187500.02, -100946.76, 187500.00, -0.00, -0.00, -0.00
253, 92058.09, -181780.97, -187500.02, -187500.02, -187500.02, -187500.02, -100229.89, 187500.00, -0.00, -0.00, -0.00
254, 91993.92, -181225.02, -187500.02, -187500.02, -187500.02, -187288.14, -99414.52, 187500.00, -0.00, -0.00, -0.00
255, 91946.36, -180624.48, -187500.02, -187500.02, -187500.02, -186686.03, -98552.03, 187500.00, -0.00, -0.00, -0.00
0, 91941.41, -180087.38, -187500.02, -187500.02, -187500.02, -186148.47, -97756.78, 187500.00, -0.00, -0.00, -0.00
1, 91915.53, -179544.63, -187500.02, -187500.02, -187500.02, -185605.97, -96956.66, 187500.00, -0.00, -0.00, -0.00
2, 91920.14, -178973.03, -187500.02, -187500.02, -187500.02, -185034.78, -96128.01, 187500.00, -0.00, -0.00, -0.00
3, 91941.91, -178449.27, -187500.02, -187500.02, -187500.02, -184511.09, -95348.56, 187500.00, -0.00, -0.00, -0.00
4, 91904.76, -177883.58, -187500.02, -187500.02, -187500.02, -183944.81, -94524.05, 187500.00, -0.00, -0.00, -0.00
5, 91858.27, -177307.78, -187500.02, -187500.02, -187500.02, -183365.81, -93687.98, 187500.00, -0.00, -0.00, -0.00
6, 91857.35, -176690.91, -187500.02, -187500.02, -187500.02, -182746.11, -92811.16, 187500.00, -0.00, -0.00, -0.00
7, 91903.77, -176145.17, -187500.02, -187500.02, -187500.02, -182197.59, -92007.51, 187500.00, -0.00, -0.00, -0.00
8, 91836.19, -175528.95, -187500.02, -187500.02, -187500.02, -181578.45, -91131.84, 187500.00, -0.00, -0.00, -0.00
