%OpenBCI Raw EEG Data
%
%Sample Rate = 250.0 Hz
%First Column = SampleIndex
%Other Columns = EEG data in microvolts followed by Accel Data (in G) interleaved with Aux Data
0, 95232.22, -187500.02, -187500.02, -187500.02, -187500.02, -187500.02, -187500.02, 34891.90, -0.00, -0.00, -0.00
1, 95272.84, -187500.02, -187500.02, -187500.02, -187500.02, -187500.02, -187500.02, 34919.17, -0.00, -0.00, -0.00
2, 95255.89, -187500.02, -187500.02, -187500.02, -187500.02, -187500.02, -187500.02, 34928.85, -0.00, -0.00, -0.00
3, 95176.02, -187500.02, -187500.02, -187500.02, -187500.02, -187500.02, -187500.02, 34958.02, -0.00, -0.00, -0.00
4, 95200.01, -187500.02, -187500.02, -187500.02, -187500.02, -187500.02, -187500.02, 34984.21, -0.00, -0.00, -0.00
5, 95246.99, -187500.02, -187500.02, -187500.02, -187500.02, -187500.02, -187500.02, 35025.96, -0.00, -0.00, -0.00
6, 95212.51, -187500.02, -187500.02, -187500.02, -187500.02, -187500.02, -187500.02, 35054.98, -0.00, -0.00, -0.00
7, 95175.38, -187500.02, -187500.02, -187500.02, -187500.02, -187500.02, -187500.02, 35089.69, -0.00, -0.00, -0.00
8, 95242.95, -187500.02, -187500.02, -187500.02, -187500.02, -187500.02, -187500.02, 35102.92, -0.00, -0.00, -0.00
9, 95244.47, -187500.02, -187500.02, -187500.02, -187500.02, -187500.02, -187500.02, 35130.86, -0.00, -0.00, -0.00
10, 95193.62, -187500.02, -187500.02, -187500.02, -187500.02, -187500.02, -187500.02, 35172.91, -0.00, -0.00, -0.00
11, 95181.81, -187500.02, -187500.02, -187500.02, -187500.02, -187500.02, -187500.02, 35206.16, -0.00, -0.00, -0.00
12, 95239.75, -187500.02, -187500.02, -187500.02, -187500.02, -187500.02, -187500.02, 35181.38, -0.00, -0.00, -0.00
13, 95264.02, -187500.02, -187500.02, -187500.02, -187500.02, -187500.02, -187500.02, 35197.83, -0.00, -0.00, -0.00
14, 95240.60, -187500.02, -187500.02, -187500.02, -187500.02, -187500.02, -187500.02, 35236.25, -0.00, -0.00, -0.00
15, 95186.22, -187500.02, -187500.02, -187500.02, -187500.02, -187500.02, -187500.02, 35269.58, -0.00, -0.00, -0.00
16, 95214.52, -187500.02, -187500.02, -187500.02, -187500.02, -187500.02, -187500.02, 35278.67, -0.00, -0.00, -0.00
17, 95220.57, -187500.02, -187500.02, -187500.02, -187500.02, -187500.02, -187500.02, 35322.53, -0.00, -0.00, -0.00
18, 95217.49, -187500.02, -187500.02, -187500.02, -187500.02, -187500.02, -187500.02, 35360.59, -0.00, -0.00, -0.00
19, 95193.20, -187500.02, -187500.02, -187500.02, -187500.02, -187500.02, -187500.02, 35358.49, -0.00, -0.00, -0.00
20, 95180.32, -187500.02, -187500.02, -187500.02, -187500.02, -187500.02, -187500.02, 35393.27, -0.00, -0.00, -0.00
21, 95275.80, -187500.02, -187500.02, -187500.02, -187500.02, -187500.02, -187500.02, 35430.20, -0.00, -0.00, -0.00
22, 95288.91, -187500.02, -187500.02, -187500.02, -187500.02, -187500.02, -187500.02, 35439.11, -0.00, -0.00, -0.00
23, 95220.30, -187500.02, -187500.02, -187500.02, -187500.02, -187500.02, -187500.02, 35438.89, -0.00, -0.00, -0.00
24, 95171.55, -187500.02, -187500.02, -187500.02, -187500.02, -187500.02, -187500.02, 35478.45, -0.00, -0.00, -0.00
25, 95215.34, -187500.02, -187500.02, -187500.02, -187500.02, -187500.02, -187500.02, 35524.27, -0.00, -0.00, -0.00
26, 95253.25, -187500.02, -187500.02, -187500.02, -187500.02, -187500.02, -187500.02, 35545.55, -0.00, -0.00, -0.00
27, 95229.11, -187500.02, -187500.02, -187500.02, -187500.02, -187500.02, -187500.02, 35544.41, -0.00, -0.00, -0.00
28, 95185.55, -187500.02, -187500.02, -187500.02, -187500.02, -187500.02, -187500.02, 35564.55, -0.00, -0.00, -0.00
29, 95232.35, -187500.02, -187500.02, -187500.02, -187500.02, -187500.02, -187500.02, 35593.88, -0.00, -0.00, -0.00
30, 95266.26, -187500.02, -187500.02, -187500.02, -187500.02, -187500.02, -187500.02, 35627.25, -0.00, -0.00, -0.00
31, 95226.30, -187500.02, -187500.02, -187500.02, -187500.02, -187500.02, -187500.02, 35661.58, -0.00, -0.00, -0.00
32, 95185.15, -187500.02, -187500.02, -187500.02, -187500.02, -187500.02, -187500.02, 35688.98, -0.00, -0.00, -0.00
33, 95220.06, -187500.02, -187500.02, -187500.02, -187500.02, -187500.02, -187500.02, 35702.29, -0.00, -0.00, -0.00
34, 95231.98, -187500.02, -187500.02, -187500.02, -187500.02, -187500.02, -187500.02, 35727.38, -0.00, -0.00, -0.00
35, 95201.91, -187500.02, -187500.02, -187500.02, -187500.02, -187500.02, -187500.02, 35776.74, -0.00, -0.00, -0.00
36, 95168.20, -187500.02, -187500.02, -187500.02, -187500.02, -187500.02, -187500.02, 35805.41, -0.00, -0.00, -0.00
37, 95168.94, -187500.02, -187500.02, -187500.02, -187500.02, -187500.02, -187500.02, 35829.60, -0.00, -0.00, -0.00
38, 95234.95, -187500.02, -187500.02, -187500.02, -187500.02, -187500.02, -187500.02, 35856.06, -0.00, -0.00, -0.00
39, 95261.16, -187500.02, -187500.02, -187500.02, -187500.02, -187500.02, -187500.02, 35871.98, -0.00, -0.00, -0.00
40, 95184.66, -187500.02, -187500.02, -187500.02, -187500.02, -187500.02, -187500.02, 35859.82, -0.00, -0.00, -0.00
41, 95143.84, -187500.02, -187500.02, -187500.02, -187500.02, -187500.02, -187500.02, 35907.83, -0.00, -0.00, -0.00
42, 95223.55, -187500.02, -187500.02, -187500.02, -187500.02, -187500.02, -187500.02, 35959.39, -0.00, -0.00, -0.00
43, 95234.81, -187500.02, -187500.02, -187500.02, -187500.02, -187500.02, -187500.02, 35979.67, -0.00, -0.00, -0.00
44, 95146.14, -187500.02, -187500.02, -187500.02, -187500.02, -187500.02, -187500.02, 35990.11, -0.00, -0.00, -0.00
45, 95135.57, -187500.02, -187500.02, -187500.02, -187500.02, -187500.02, -187500.02, 36016.75, -0.00, -0.00, -0.00
46, 95222.41, -187500.02, -187500.02, -187500.02, -187500.02, -187500.02, -187500.02, 36042.50, -0.00, -0.00, -0.00
47, 95197.71, -187500.02, -187500.02, -187500.02, -187500.02, -187500.02, -187500.02, 36080.68, -0.00, -0.00, -0.00
48, 95155.27, -187500.02, -187500.02, -187500.02, -187500.02, -187500.02, -187500.02, 36120.17, -0.00, -0.00, -0.00
49, 95136.93, -187500.02, -187500.02, -187500.02, -187500.02, -187500.02, -187500.02, 36151.55, -0.00, -0.00, -0.00
50, 95182.38, -187500.02, -187500.02, -187500.02, -187500.02, -187500.02, -187500.02, 36185.33, -0.00, -0.00, -0.00
51, 95190.45, -187500.02, -187500.02, -187500.02, -187500.02, -187500.02, -187500.02, 36204.62, -0.00, -0.00, -0.00
52, 95109.27, -187500.02, -187500.02, -187500.02, -187500.02, -187500.02, -187500.02, 36214.27, -0.00, -0.00, -0.00
53, 95051.23, -187500.02, -187500.02, -187500.02, -187500.02, -187500.02, -187500.02, 36234.64, -0.00, -0.00, -0.00
54, 95116.55, -187500.02, -187500.02, -187500.02, -187500.02, -187500.02, -187500.02, 36280.93, -0.00, -0.00, -0.00
55, 95140.17, -187500.02, -187500.02, -187500.02, -187500.02, -187500.02, -187500.02, 36311.88, -0.00, -0.00, -0.00
56, 95091.11, -187500.02, -187500.02, -187500.02, -187500.02, -187500.02, -187500.02, 36338.77, -0.00, -0.00, -0.00
57, 95043.73, -187500.02, -187500.02, -187500.02, -187500.02, -187500.02, -187500.02, 36349.75, -0.00, -0.00, -0.00
58, 95018.96, -187500.02, -187500.02, -187500.02, -187500.02, -187500.02, -187500.02, 36397.60, -0.00, -0.00, -0.00
59, 95097.84, -187500.02, -187500.02, -187500.02, -187500.02, -187500.02, -187500.02, 36430.08, -0.00, -0.00, -0.00
60, 95085.62, -187500.02, -187500.02, -187500.02, -187500.02, -187500.02, -187500.02, 36436.79, -0.00, -0.00, -0.00
61, 95016.32, -187500.02, -187500.02, -187500.02, -187500.02, -187500.02, -187500.02, 36455.67, -0.00, -0.00, -0.00
62, 95011.67, -187500.02, -187500.02, -187500.02, -187500.02, -187500.02, -187500.02, 36497.45, -0.00, -0.00, -0.00
63, 95081.59, -187500.02, -187500.02, -187500.02, -187500.02, -187500.02, -187500.02, 36523.29, -0.00, -0.00, -0.00
64, 95066.84, -187500.02, -187500.02, -187500.02, -187500.02, -187500.02, -187500.02, 36536.23, -0.00, -0.00, -0.00
65, 95010.29, -187500.02, -187500.02, -187500.02, -187500.02, -187500.02, -187500.02, 36543.94, -0.00, -0.00, -0.00
66, 94962.75, -187500.02, -187500.02, -187500.02, -187500.02, -187500.02, -187500.02, 36581.60, -0.00, -0.00, -0.00
67, 95042.38, -187500.02, -187500.02, -187500.02, -187500.02, -187500.02, -187500.02, 36633.41, -0.00, -0.00, -0.00
68, 95053.61, -187500.02, -187500.02, -187500.02, -187500.02, -187500.02, -187500.02, 36654.82, -0.00, -0.00, -0.00
69, 94955.03, -187500.02, -187500.02, -187500.02, -187500.02, -187500.02, -187500.02, 36672.86, -0.00, -0.00, -0.00
70, 94969.09, -187500.02, -187500.02, -187500.02, -187500.02, -187500.02, -187500.02, 36689.70, -0.00, -0.00, -0.00
71, 95074.20, -187500.02, -187500.02, -187500.02, -187500.02, -187500.02, -187500.02, 36689.74, -0.00, -0.00, -0.00
72, 95063.02, -187500.02, -187500.02, -187500.02, -187500.02, -187500.02, -187500.02, 36723.20, -0.00, -0.00, -0.00
73, 94953.65, -187500.02, -187500.02, -187500.02, -187500.02, -187500.02, -187500.02, 36753.62, -0.00, -0.00, -0.00
74, 94889.86, -187500.02, -187500.02, -187500.02, -187500.02, -187500.02, -187500.02, 36787.86, -0.00, -0.00, -0.00
75, 95000.48, -187500.02, -187500.02, -187500.02, -187500.02, -187500.02, -187500.02, 36807.82, -0.00, -0.00, -0.00
76, 95012.77, -187500.02, -187500.02, -187500.02, -187500.02, -187500.02, -187500.02, 36831.29, -0.00, -0.00, -0.00
77, 94917.82, -187500.02, -187500.02, -187500.02, -187500.02, -187500.02, -187500.02, 36847.07, -0.00, -0.00, -0.00
78, 94836.80, -187500.02, -187500.02, -187500.02, -187500.02, -187500.02, -187500.02, 36885.05, -0.00, -0.00, -0.00
79, 94893.70, -187500.02, -187500.02, -187500.02, -187500.02, -187500.02, -187500.02, 36906.73, -0.00, -0.00, -0.00
80, 94994.06, -187500.02, -187500.02, -187500.02, -187500.02, -187500.02, -187500.02, 36920.23, -0.00, -0.00, -0.00
81, 94946.99, -187500.02, -187500.02, -187500.02, -187500.02, -187500.02, -187500.02, 36922.53, -0.00, -0.00, -0.00
82, 94838.74, -187500.02, -187500.02, -187500.02, -187500.02, -187500.02, -187500.02, 36955.21, -0.00, -0.00, -0.00
83, 94879.13, -187500.02, -187500.02, -187500.02, -187500.02, -187500.02, -187500.02, 36982.73, -0.00, -0.00, -0.00
84, 94972.13, -187500.02, -187500.02, -187500.02, -187500.02, -187500.02, -187500.02, 37006.93, -0.00, -0.00, -0.00
85, 94943.75, -187500.02, -187500.02, -187500.02, -187500.02, -187500.02, -187500.02, 37028.82, -0.00, -0.00, -0.00
86, 94839.07, -187500.02, -187500.02, -187500.02, -187500.02, -187500.02, -187500.02, 37054.95, -0.00, -0.00, -0.00
87, 94878.32, -187500.02, -187500.02, -187500.02, -187500.02, -187500.02, -187500.02, 37072.31, -0.00, -0.00, -0.00
88, 94958.68, -187500.02, -187500.02, -187500.02, -187500.02, -187500.02, -187500.02, 37104.54, -0.00, -0.00, -0.00
89, 94930.16, -187500.02, -187500.02, -187500.02, -187500.02, -187500.02, -187500.02, 37135.99, -0.00, -0.00, -0.00
90, 94863.77, -187500.02, -187500.02, -187500.02, -187500.02, -187500.02, -187500.02, 37144.15, -0.00, -0.00, -0.00
91, 94865.63, -187500.02, -187500.02, -187500.02, -187500.02, -187500.02, -187500.02, 37141.47, -0.00, -0.00, -0.00
92, 94976.38, -187500.02, -187500.02, -187500.02, -187500.02, -187500.02, -187500.02, 37160.54, -0.00, -0.00, -0.00
93, 94990.66, -187500.02, -187500.02, -187500.02, -187500.02, -187500.02, -187500.02, 37170.88, -0.00, -0.00, -0.00
94, 94879.45, -187500.02, -187500.02, -187500.02, -187500.02, -187500.02, -187500.02, 37172.69, -0.00, -0.00, -0.00
95, 94853.67, -187500.02, -187500.02, -187500.02, -187500.02, -187500.02, -187500.02, 37167.29, -0.00, -0.00, -0.00
96, 94948.91, -187500.02, -187500.02, -187500.02, -187500.02, -187500.02, -187500.02, 37183.11, -0.00, -0.00, -0.00
97, 95001.23, -187500.02, -187500.02, -187500.02, -187500.02, -187500.02, -187500.02, 37201.41, -0.00, -0.00, -0.00
98, 94920.26, -187500.02, -187500.02, -187500.02, -187500.02, -187500.02, -187500.02, 37230.32, -0.00, -0.00, -0.00
99, 94894.35, -187500.02, -187500.02, -187500.02, -187500.02, -187500.02, -187500.02, 37236.26, -0.00, -0.00, -0.00
100, 94972.89, -187500.02, -187500.02, -187500.02, -187500.02, -187500.02, -187500.02, 37246.36, -0.00, -0.00, -0.00
101, 95040.24, -187500.02, -187500.02, -187500.02, -187500.02, -187500.02, -187500.02, 37248.69, -0.00, -0.00, -0.00
102, 94922.60, -187500.02, -187500.02, -187500.02, -187500.02, -187500.02, -187500.02, 37274.46, -0.00, -0.00, -0.00
103, 94864.33, -187500.02, -187500.02, -187500.02, -187500.02, -187500.02, -187500.02, 37290.66, -0.00, -0.00, -0.00
104, 94973.34, -187500.02, -187500.02, -187500.02, -187500.02, -187500.02, -187500.02, 37311.88, -0.00, -0.00, -0.00
105, 95069.25, -187500.02, -187500.02, -187500.02, -187500.02, -187500.02, -187500.02, 37311.52, -0.00, -0.00, -0.00
106, 95025.89, -187500.02, -187500.02, -187500.02, -187500.02, -187500.02, -187500.02, 37310.60, -0.00, -0.00, -0.00
107, 94916.52, -187500.02, -187500.02, -187500.02, -187500.02, -187500.02, -187500.02, 37308.05, -0.00, -0.00, -0.00
108, 94966.91, -187500.02, -187500.02, -187500.02, -187500.02, -187500.02, -187500.02, 37306.09, -0.00, -0.00, -0.00
109, 95051.57, -187500.02, -187500.02, -187500.02, -187500.02, -187500.02, -187500.02, 37319.70, -0.00, -0.00, -0.00
110, 95020.81, -187500.02, -187500.02, -187500.02, -187500.02, -187500.02, -187500.02, 37332.51, -0.00, -0.00, -0.00
111, 94922.70, -187500.02, -187500.02, -187500.02, -187500.02, -187500.02, -187500.02, 37330.25, -0.00, -0.00, -0.00
112, 94943.95, -187500.02, -187500.02, -187500.02, -187500.02, -187500.02, -187500.02, 37341.49, -0.00, -0.00, -0.00
113, 95043.70, -187500.02, -187500.02, -187500.02, -187500.02, -187500.02, -187500.02, 37338.50, -0.00, -0.00, -0.00
114, 95029.29, -187500.02, -187500.02, -187500.02, -187500.02, -187500.02, -187500.02, 37338.21, -0.00, -0.00, -0.00
115, 94914.80, -187500.02, -187500.02, -187500.02, -187500.02, -187500.02, -187500.02, 37358.44, -0.00, -0.00, -0.00
116, 94930.42, -187500.02, -187500.02, -187500.02, -187500.02, -187500.02, -187500.02, 37355.26, -0.00, -0.00, -0.00
117, 95037.29, -187500.02, -187500.02, -187500.02, -187500.02, -187500.02, -187500.02, 37353.63, -0.00, -0.00, -0.00
118, 95042.23, -187500.02, -187500.02, -187500.02, -187500.02, -187500.02, -187500.02, 37360.58, -0.00, -0.00, -0.00
119, 94947.15, -187500.02, -187500.02, -187500.02, -187500.02, -187500.02, -187500.02, 37360.87, -0.00, -0.00, -0.00
120, 94914.69, -187500.02, -187500.02, -187500.02, -187500.02, -187500.02, -187500.02, 37357.61, -0.00, -0.00, -0.00
121, 95009.20, -187500.02, -187500.02, -187500.02, -187500.02, -187500.02, -187500.02, 37343.53, -0.00, -0.00, -0.00
122, 95052.06, -187500.02, -187500.02, -187500.02, -187500.02, -187500.02, -187500.02, 37335.64, -0.00, -0.00, -0.00
123, 94958.57, -187500.02, -187500.02, -187500.02, -187500.02, -187500.02, -187500.02, 37333.11, -0.00, -0.00, -0.00
124, 94879.58, -187500.02, -187500.02, -187500.02, -187500.02, -187500.02, -187500.02, 37332.75, -0.00, -0.00, -0.00
125, 94934.98, -187500.02, -187500.02, -187500.02, -187500.02, -187500.02, -187500.02, 37367.89, -0.00, -0.00, -0.00
126, 95020.41, -187500.02, -187500.02, -187500.02, -187500.02, -187500.02, -187500.02, 37381.48, -0.00, -0.00, -0.00
127, 94943.93, -187500.02, -187500.02, -187500.02, -187500.02, -187500.02, -187500.02, 37359.00, -0.00, -0.00, -0.00
128, 94853.55, -187500.02, -187500.02, -187500.02, -187500.02, -187500.02, -187500.02, 37335.70, -0.00, -0.00, -0.00
129, 94929.51, -187500.02, -187500.02, -187500.02, -187500.02, -187500.02, -187500.02, 37349.23, -0.00, -0.00, -0.00
130, 95036.30, -187500.02, -187500.02, -187500.02, -187500.02, -187500.02, -187500.02, 37372.03, -0.00, -0.00, -0.00
131, 94975.91, -187500.02, -187500.02, -187500.02, -187500.02, -187500.02, -187500.02, 37373.39, -0.00, -0.00, -0.00
132, 94844.15, -187500.02, -187500.02, -187500.02, -187500.02, -187500.02, -187500.02, 37358.79, -0.00, -0.00, -0.00
133, 94886.86, -187500.02, -187500.02, -187500.02, -187500.02, -187500.02, -187500.02, 37345.58, -0.00, -0.00, -0.00
134, 94999.11, -187500.02, -187500.02, -187500.02, -187500.02, -187500.02, -187500.02, 37343.86, -0.00, -0.00, -0.00
135, 94960.18, -187500.02, -187500.02, -187500.02, -187500.02, -187500.02, -187500.02, 37328.95, -0.00, -0.00, -0.00
136, 94837.45, -187500.02, -187500.02, -187500.02, -187500.02, -187500.02, -187500.02, 37315.83, -0.00, -0.00, -0.00
137, 94878.30, -187500.02, -187500.02, -187500.02, -187500.02, -187500.02, -187500.02, 37291.27, -0.00, -0.00, -0.00
138, 94957.92, -187500.02, -187500.02, -187500.02, -187500.02, -187500.02, -187500.02, 37286.87, -0.00, -0.00, -0.00
139, 94946.20, -187500.02, -187500.02, -187500.02, -187500.02, -187500.02, -187500.02, 37269.16, -0.00, -0.00, -0.00
140, 94811.76, -187500.02, -187500.02, -187500.02, -187500.02, -187500.02, -187500.02, 37257.47, -0.00, -0.00, -0.00
141, 94809.48, -187500.02, -187500.02, -187500.02, -187500.02, -187500.02, -187500.02, 37260.09, -0.00, -0.00, -0.00
142, 94911.02, -187500.02, -187500.02, -187500.02, -187500.02, -187500.02, -187500.02, 37273.52, -0.00, -0.00, -0.00
143, 94944.58, -187500.02, -187500.02, -187500.02, -187500.02, -187500.02, -187500.02, 37270.32, -0.00, -0.00, -0.00
144, 94827.70, -187500.02, -187500.02, -187500.02, -187500.02, -187500.02, -187500.02, 37260.78, -0.00, -0.00, -0.00
145, 94789.19, -187500.02, -187500.02, -187500.02, -187500.02, -187500.02, -187500.02, 37246.75, -0.00, -0.00, -0.00
146, 94907.45, -187500.02, -187500.02, -187500.02, -187500.02, -187500.02, -187500.02, 37238.61, -0.00, -0.00, -0.00
147, 94949.00, -187500.02, -187500.02, -187500.02, -187500.02, -187500.02, -187500.02, 37234.41, -0.00, -0.00, -0.00
148, 94861.60, -187500.02, -187500.02, -187500.02, -187500.02, -187500.02, -187500.02, 37191.71, -0.00, -0.00, -0.00
149, 94751.48, -187500.02, -187500.02, -187500.02, -187500.02, -187500.02, -187500.02, 37176.27, -0.00, -0.00, -0.00
150, 94821.93, -187500.02, -187500.02, -187500.02, -187500.02, -187500.02, -187500.02, 37203.14, -0.00, -0.00, -0.00
151, 94948.28, -187500.02, -187500.02, -187500.02, -187500.02, -187500.02, -187500.02, 37198.26, -0.00, -0.00, -0.00
152, 94881.66, -187500.02, -187500.02, -187500.02, -187500.02, -187500.02, -187500.02, 37154.88, -0.00, -0.00, -0.00
153, 94759.55, -187500.02, -187500.02, -187500.02, -187500.02, -187500.02, -187500.02, 37124.28, -0.00, -0.00, -0.00
154, 94786.34, -187500.02, -187500.02, -187500.02, -187500.02, -187500.02, -187500.02, 37152.82, -0.00, -0.00, -0.00
155, 94934.92, -187500.02, -187500.02, -187500.02, -187500.02, -187500.02, -187500.02, 37137.18, -0.00, -0.00, -0.00
156, 94853.34, -187500.02, -187500.02, -187500.02, -187500.02, -187500.02, -187500.02, 37110.29, -0.00, -0.00, -0.00
157, 94692.45, -187500.02, -187500.02, -187500.02, -187500.02, -187500.02, -187500.02, 37115.61, -0.00, -0.00, -0.00
158, 94739.12, -187500.02, -187500.02, -187500.02, -187500.02, -187500.02, -187500.02, 37143.75, -0.00, -0.00, -0.00
159, 94906.06, -187500.02, -187500.02, -187500.02, -187500.02, -187500.02, -187500.02, 37127.99, -0.00, -0.00, -0.00
160, 94875.62, -187500.02, -187500.02, -187500.02, -187500.02, -187500.02, -187500.02, 37092.79, -0.00, -0.00, -0.00
161, 94707.49, -187500.02, -187500.02, -187500.02, -187500.02, -187500.02, -187500.02, 37089.25, -0.00, -0.00, -0.00
162, 94704.09, -187500.02, -187500.02, -187500.02, -187500.02, -187500.02, -187500.02, 37117.66, -0.00, -0.00, -0.00
163, 94836.62, -187500.02, -187500.02, -187500.02, -187500.02, -187500.02, -187500.02, 37119.07, -0.00, -0.00, -0.00
164, 94853.67, -187500.02, -187500.02, -187500.02, -187500.02, -187500.02, -187500.02, 37129.18, -0.00, -0.00, -0.00
165, 94748.73, -187500.02, -187500.02, -187500.02, -187500.02, -187500.02, -187500.02, 37090.08, -0.00, -0.00, -0.00
166, 94694.88, -187500.02, -187500.02, -187500.02, -187500.02, -187500.02, -187500.02, 37065.02, -0.00, -0.00, -0.00
167, 94824.44, -187500.02, -187500.02, -187500.02, -187500.02, -187500.02, -187500.02, 37070.39, -0.00, -0.00, -0.00
168, 94876.31, -187500.02, -187500.02, -187500.02, -187500.02, -187500.02, -187500.02, 37073.68, -0.00, -0.00, -0.00
169, 94745.09, -187500.02, -187500.02, -187500.02, -187500.02, -187500.02, -187500.02, 37066.32, -0.00, -0.00, -0.00
170, 94684.40, -187500.02, -187500.02, -187500.02, -187500.02, -187500.02, -187500.02, 37042.23, -0.00, -0.00, -0.00
171, 94816.52, -187500.02, -187500.02, -187500.02, -187500.02, -187500.02, -187500.02, 37031.83, -0.00, -0.00, -0.00
172, 94864.66, -187500.02, -187500.02, -187500.02, -187500.02, -187500.02, -187500.02, 37034.07, -0.00, -0.00, -0.00
173, 94759.75, -187500.02, -187500.02, -187500.02, -187500.02, -187500.02, -187500.02, 37004.00, -0.00, -0.00, -0.00
174, 94681.16, -187500.02, -187500.02, -187500.02, -187500.02, -187500.02, -187500.02, 36987.98, -0.00, -0.00, -0.00
175, 94788.45, -187500.02, -187500.02, -187500.02, -187500.02, -187500.02, -187500.02, 36972.80, -0.00, -0.00, -0.00
176, 94874.86, -187500.02, -187500.02, -187500.02, -187500.02, -187500.02, -187500.02, 36969.58, -0.00, -0.00, -0.00
177, 94824.37, -187500.02, -187500.02, -187500.02, -187500.02, -187500.02, -187500.02, 36964.17, -0.00, -0.00, -0.00
178, 94712.12, -187500.02, -187500.02, -187500.02, -187500.02, -187500.02, -187500.02, 36951.63, -0.00, -0.00, -0.00
179, 94774.21, -187500.02, -187500.02, -187500.02, -187500.02, -187500.02, -187500.02, 36946.94, -0.00, -0.00, -0.00
180, 94902.30, -187500.02, -187500.02, -187500.02, -187500.02, -187500.02, -187500.02, 36939.12, -0.00, -0.00, -0.00
181, 94836.46, -187500.02, -187500.02, -187500.02, -187500.02, -187500.02, -187500.02, 36932.64, -0.00, -0.00, -0.00
182, 94719.72, -187500.02, -187500.02, -187500.02, -187500.02, -187500.02, -187500.02, 36914.66, -0.00, -0.00, -0.00
183, 94764.06, -187500.02, -187500.02, -187500.02, -187500.02, -187500.02, -187500.02, 36884.87, -0.00, -0.00, -0.00
184, 94903.00, -187500.02, -187500.02, -187500.02, -187500.02, -187500.02, -187500.02, 36864.04, -0.00, -0.00, -0.00
185, 94880.98, -187500.02, -187500.02, -187500.02, -187500.02, -187500.02, -187500.02, 36845.62, -0.00, -0.00, -0.00
186, 94765.83, -187500.02, -187500.02, -187500.02, -187500.02, -187500.02, -187500.02, 36844.93, -0.00, -0.00, -0.00
187, 94773.83, -187500.02, -187500.02, -187500.02, -187500.02, -187500.02, -187500.02, 36842.54, -0.00, -0.00, -0.00
188, 94852.17, -187500.02, -187500.02, -187500.02, -187500.02, -187500.02, -187500.02, 36840.79, -0.00, -0.00, -0.00
189, 94890.77, -187500.02, -187500.02, -187500.02, -187500.02, -187500.02, -187500.02, 36837.82, -0.00, -0.00, -0.00
190, 94806.73, -187500.02, -187500.02, -187500.02, -187500.02, -187500.02, -187500.02, 36808.05, -0.00, -0.00, -0.00
191, 94771.23, -187500.02, -187500.02, -187500.02, -187500.02, -187500.02, -187500.02, 36777.61, -0.00, -0.00, -0.00
192, 94879.89, -187500.02, -187500.02, -187500.02, -187500.02, -187500.02, -187500.02, 36774.65, -0.00, -0.00, -0.00
193, 94914.31, -187500.02, -187500.02, -187500.02, -187500.02, -187500.02, -187500.02, 36768.71, -0.00, -0.00, -0.00
194, 94819.74, -187500.02, -187500.02, -187500.02, -187500.02, -187500.02, -187500.02, 36742.91, -0.00, -0.00, -0.00
195, 94762.70, -187500.02, -187500.02, -187500.02, -187500.02, -187500.02, -187500.02, 36718.95, -0.00, -0.00, -0.00
196, 94847.59, -187500.02, -187500.02, -187500.02, -187500.02, -187500.02, -187500.02, 36711.31, -0.00, -0.00, -0.00
197, 94914.53, -187500.02, -187500.02, -187500.02, -187500.02, -187500.02, -187500.02, 36707.98, -0.00, -0.00, -0.00
198, 94835.03, -187500.02, -187500.02, -187500.02, -187500.02, -187500.02, -187500.02, 36699.68, -0.00, -0.00, -0.00
199, 94755.61, -187500.02, -187500.02, -187500.02, -187500.02, -187500.02, -187500.02, 36678.43, -0.00, -0.00, -0.00
200, 94824.61, -187500.02, -187500.02, -187500.02, -187500.02, -187500.02, -187500.02, 36652.16, -0.00, -0.00, -0.00
201, 94892.30, -187500.02, -187500.02, -187500.02, -187500.02, -187500.02, -187500.02, 36649.39, -0.00, -0.00, -0.00
202, 94837.95, -187500.02, -187500.02, -187500.02, -187500.02, -187500.02, -187500.02, 36642.31, -0.00, -0.00, -0.00
203, 94744.33, -187500.02, -187500.02, -187500.02, -187500.02, -187500.02, -187500.02, 36638.93, -0.00, -0.00, -0.00
204, 94789.07, -187500.02, -187500.02, -187500.02, -187500.02, -187500.02, -187500.02, 36610.82, -0.00, -0.00, -0.00
205, 94850.23, -187500.02, -187500.02, -187500.02, -187500.02, -187500.02, -187500.02, 36627.09, -0.00, -0.00, -0.00
206, 94842.18, -187500.02, -187500.02, -187500.02, -187500.02, -187500.02, -187500.02, 36627.76, -0.00, -0.00, -0.00
207, 94765.18, -187500.02, -187500.02, -187500.02, -187500.02, -187500.02, -187500.02, 36570.80, -0.00, -0.00, -0.00
208, 94754.80, -187500.02, -187500.02, -187500.02, -187500.02, -187500.02, -187500.02, 36568.41, -0.00, -0.00, -0.00
209, 94859.41, -187500.02, -187500.02, -187500.02, -187500.02, -187500.02, -187500.02, 36563.38, -0.00, -0.00, -0.00
210, 94910.33, -187500.02, -187500.02, -187500.02, -187500.02, -187500.02, -187500.02, 36539.98, -0.00, -0.00, -0.00
211, 94843.14, -187500.02, -187500.02, -187500.02, -187500.02, -187500.02, -187500.02, 36524.49, -0.00, -0.00, -0.00
212, 94868.76, -187500.02, -187500.02, -187500.02, -187500.02, -187500.02, -187500.02, 36514.90, -0.00, -0.00, -0.00
213, 94996.50, -187500.02, -187500.02, -187500.02, -187500.02, -187500.02, -187500.02, 36510.19, -0.00, -0.00, -0.00
214, 95021.06, -187500.02, -187500.02, -187500.02, -187500.02, -187500.02, -187500.02, 36529.52, -0.00, -0.00, -0.00
215, 94982.39, -187500.02, -187500.02, -187500.02, -187500.02, -187500.02, -187500.02, 36505.85, -0.00, -0.00, -0.00
216, 94980.43, -187500.02, -187500.02, -187500.02, -187500.02, -187500.02, -187500.02, 36484.89, -0.00, -0.00, -0.00
217, 95067.38, -187500.02, -187500.02, -187500.02, -187500.02, -187500.02, -187500.02, 36486.85, -0.00, -0.00, -0.00
218, 95123.57, -187500.02, -187500.02, -187500.02, -187500.02, -187500.02, -187500.02, 36461.41, -0.00, -0.00, -0.00
219, 95093.57, -187500.02, -187500.02, -187500.02, -187500.02, -187500.02, -187500.02, 36431.53, -0.00, -0.00, -0.00
220, 95088.79, -187500.02, -187500.02, -187500.02, -187500.02, -187500.02, -187500.02, 36397.87, -0.00, -0.00, -0.00
221, 95171.20, -187500.02, -187500.02, -187500.02, -187500.02, -187500.02, -187500.02, 36376.55, -0.00, -0.00, -0.00
222, 95259.91, -187500.02, -187500.02, -187500.02, -187500.02, -187500.02, -187500.02, 36329.34, -0.00, -0.00, -0.00
223, 95227.13, -187500.02, -187500.02, -187500.02, -187500.02, -187500.02, -187500.02, 36298.07, -0.00, -0.00, -0.00
224, 95205.33, -187500.02, -187500.02, -187500.02, -187500.02, -187500.02, -187500.02, 36290.13, -0.00, -0.00, -0.00
225, 95267.52, -187500.02, -187500.02, -187500.02, -187500.02, -187500.02, -187500.02, 36271.76, -0.00, -0.00, -0.00
226, 95340.36, -187500.02, -187500.02, -187500.02, -187500.02, -187500.02, -187500.02, 36252.65, -0.00, -0.00, -0.00
227, 95313.11, -187500.02, -187500.02, -187500.02, -187500.02, -187500.02, -187500.02, 36208.66, -0.00, -0.00, -0.00
228, 95256.45, -187500.02, -187500.02, -187500.02, -187500.02, -187500.02, -187500.02, 36176.90, -0.00, -0.00, -0.00
229, 95273.99, -187500.02, -187500.02, -187500.02, -187500.02, -187500.02, -187500.02, 36173.88, -0.00, -0.00, -0.00
230, 95357.32, -187500.02, -187500.02, -187500.02, -187500.02, -187500.02, -187500.02, 36176.32, -0.00, -0.00, -0.00
231, 95365.99, -187500.02, -187500.02, -187500.02, -187500.02, -187500.02, -187500.02, 36134.03, -0.00, -0.00, -0.00
232, 95307.57, -187500.02, -187500.02, -187500.02, -187500.02, -187500.02, -187500.02, 36095.90, -0.00, -0.00, -0.00
233, 95307.95, -187500.02, -187500.02, -187500.02, -187500.02, -187500.02, -187500.02, 36068.25, -0.00, -0.00, -0.00
234, 95389.44, -187500.02, -187500.02, -187500.02, -187500.02, -187500.02, -187500.02, 36057.16, -0.00, -0.00, -0.00
235, 95405.34, -187500.02, -187500.02, -187500.02, -187500.02, -187500.02, -187500.02, 36017.33, -0.00, -0.00, -0.00
236, 95318.97, -187500.02, -187500.02, -187500.02, -187500.02, -187500.02, -187500.02, 35979.58, -0.00, -0.00, -0.00
237, 95306.31, -187500.02, -187500.02, -187500.02, -187500.02, -187500.02, -187500.02, 35975.33, -0.00, -0.00, -0.00
238, 95395.88, -187500.02, -187500.02, -187500.02, -187500.02, -187500.02, -187500.02, 35954.72, -0.00, -0.00, -0.00
239, 95446.64, -187500.02, -187500.02, -187500.02, -187500.02, -187500.02, -187500.02, 35919.90, -0.00, -0.00, -0.00
240, 95388.81, -187500.02, -187500.02, -187500.02, -187500.02, -187500.02, -187500.02, 35880.67, -0.00, -0.00, -0.00
241, 95371.72, -187500.02, -187500.02, -187500.02, -187500.02, -187500.02, -187500.02, 35849.92, -0.00, -0.00, -0.00
242, 95463.25, -187500.02, -187500.02, -187500.02, -187500.02, -187500.02, -187500.02, 35800.25, -0.00, -0.00, -0.00
243, 95503.50, -187500.02, -187500.02, -187500.02, -187500.02, -187500.02, -187500.02, 35751.91, -0.00, -0.00, -0.00
244, 95425.09, -187500.02, -187500.02, -187500.02, -187500.02, -187500.02, -187500.02, 35706.24, -0.00, -0.00, -0.00
245, 95385.15, -187500.02, -187500.02, -187500.02, -187500.02, -187500.02, -187500.02, 35666.01, -0.00, -0.00, -0.00
246, 95427.04, -187500.02, -187500.02, -187500.02, -187500.02, -187500.02, -187500.02, 35641.42, -0.00, -0.00, -0.00
247, 95473.39, -187500.02, -187500.02, -187500.02, -187500.02, -187500.02, -187500.02, 35640.26, -0.00, -0.00, -0.00
248, 95438.28, -187500.02, -187500.02, -187500.02, -187500.02, -187500.02, -187500.02, 35601.07, -0.00, -0.00, -0.00
249, 95388.03, -187500.02, -187500.02, -187500.02, -187500.02, -187500.02, -187500.02, 35539.81, -0.00, -0.00, -0.00
250, 95421.45, -187500.02, -187500.02, -187500.02, -187500.02, -187500.02, -187500.02, 35514.53, -0.00, -0.00, -0.00
251, 95476.88, -187500.02, -187500.02, -187500.02, -187500.02, -187500.02, -187500.02, 35530.71, -0.00, -0.00, -0.00
252, 95464.03, -187500.02, -187500.02, -187500.02, -187500.02, -187500.02, -187500.02, 35510.55, -0.00, -0.00, -0.00
253, 95369.88, -187500.02, -187500.02, -187500.02, -187500.02, -187500.02, -187500.02, 35492.04, -0.00, -0.00, -0.00
254, 95409.63, -187500.02, -187500.02, -187500.02, -187500.02, -187500.02, -187500.02, 35435.47, -0.00, -0.00, -0.00
255, 95473.64, -187500.02, -187500.02, -187500.02, -187500.02, -187500.02, -187500.02, 35390.43, -0.00, -0.00, -0.00
0, 95467.78, -187500.02, -187500.02, -187500.02, -187500.02, -187500.02, -187500.02, 35369.04, -0.00, -0.00, -0.00
1, 95395.25, -187500.02, -187500.02, -187500.02, -187500.02, -187500.02, -187500.02, 35349.15, -0.00, -0.00, -0.00
2, 95393.87, -187500.02, -187500.02, -187500.02, -187500.02, -187500.02, -187500.02, 35314.28, -0.00, -0.00, -0.00
3, 95460.92, -187500.02, -187500.02, -187500.02, -187500.02, -187500.02, -187500.02, 35282.77, -0.00, -0.00, -0.00
4, 95458.46, -187500.02, -187500.02, -187500.02, -187500.02, -187500.02, -187500.02, 35260.19, -0.00, -0.00, -0.00
5, 95377.46, -187500.02, -187500.02, -187500.02, -187500.02, -187500.02, -187500.02, 35213.16, -0.00, -0.00, -0.00
6, 95343.66, -187500.02, -187500.02, -187500.02, -187500.02, -187500.02, -187500.02, 35199.30, -0.00, -0.00, -0.00
7, 95415.86, -187500.02, -187500.02, -187500.02, -187500.02, -187500.02, -187500.02, 35182.52, -0.00, -0.00, -0.00
8, 95440.96, -187500.02, -187500.02, -187500.02, -187500.02, -187500.02, -187500.02, 35149.79, -0.00, -0.00, -0.00
9, 95362.40, -187500.02, -187500.02, -187500.02, -187500.02, -187500.02, -187500.02, 35126.17, -0.00, -0.00, -0.00
10, 95345.12, -187500.02, -187500.02, -187500.02, -187500.02, -187500.02, -187500.02, 35100.98, -0.00, -0.00, -0.00
11, 95398.77, -187500.02, -187500.02, -187500.02, -187500.02, -187500.02, -187500.02, 35089.02, -0.00, -0.00, -0.00
12, 95434.05, -187500.02, -187500.02, -187500.02, -187500.02, -187500.02, -187500.02, 35063.20, -0.00, -0.00, -0.00
13, 95379.98, -187500.02, -187500.02, -187500.02, -187500.02, -187500.02, -187500.02, 35027.89, -0.00, -0.00, -0.00
14, 95336.18, -187500.02, -187500.02, -187500.02, -187500.02, -187500.02, -187500.02, 35000.80, -0.00, -0.00, -0.00
15, 95365.97, -187500.02, -187500.02, -187500.02, -187500.02, -187500.02, -187500.02, 34969.26, -0.00, -0.00, -0.00
16, 95423.77, -187500.02, -187500.02, -187500.02, -187500.02, -187500.02, -187500.02, 34949.16, -0.00, -0.00, -0.00
17, 95387.36, -187500.02, -187500.02, -187500.02, -187500.02, -187500.02, -187500.02, 34932.00, -0.00, -0.00, -0.00
18, 95356.20, -187500.02, -187500.02, -187500.02, -187500.02, -187500.02, -187500.02, 34896.68, -0.00, -0.00, -0.00
19, 95355.35, -187500.02, -187500.02, -187500.02, -187500.02, -187500.02, -187500.02, 34884.10, -0.00, -0.00, -0.00
20, 95410.09, -187500.02, -187500.02, -187500.02, -187500.02, -187500.02, -187500.02, 34870.46, -0.00, -0.00, -0.00
21, 95403.34, -187500.02, -187500.02, -187500.02, -187500.02, -187500.02, -187500.02, 34840.31, -0.00, -0.00, -0.00
22, 95324.45, -187500.02, -187500.02, -187500.02, -187500.02, -187500.02, -187500.02, 34817.60, -0.00, -0.00, -0.00
23, 95347.89, -187500.02, -187500.02, -187500.02, -187500.02, -187500.02, -187500.02, 34781.93, -0.00, -0.00, -0.00
24, 95417.67, -187500.02, -187500.02, -187500.02, -187500.02, -187500.02, -187500.02, 34761.45, -0.00, -0.00, -0.00
25, 95415.70, -187500.02, -187500.02, -187500.02, -187500.02, -187500.02, -187500.02, 34721.51, -0.00, -0.00, -0.00
26, 95339.62, -187500.02, -187500.02, -187500.02, -187500.02, -187500.02, -187500.02, 34693.95, -0.00, -0.00, -0.00
27, 95353.23, -187500.02, -187500.02, -187500.02, -187500.02, -187500.02, -187500.02, 34674.80, -0.00, -0.00, -0.00
28, 95415.01, -187500.02, -187500.02, -187500.02, -187500.02, -187500.02, -187500.02, 34658.88, -0.00, -0.00, -0.00
29, 95408.30, -187500.02, -187500.02, -187500.02, -187500.02, -187500.02, -187500.02, 34636.73, -0.00, -0.00, -0.00
30, 95341.01, -187500.02, -187500.02, -187500.02, -187500.02, -187500.02, -187500.02, 34620.93, -0.00, -0.00, -0.00
31, 95321.23, -187500.02, -187500.02, -187500.02, -187500.02, -187500.02, -187500.02, 34613.55, -0.00, -0.00, -0.00
32, 95377.59, -187500.02, -187500.02, -187500.02, -187500.02, -187500.02, -187500.02, 34586.15, -0.00, -0.00, -0.00
33, 95398.63, -187500.02, -187500.02, -187500.02, -187500.02, -187500.02, -187500.02, 34563.60, -0.00, -0.00, -0.00
34, 95342.77, -187500.02, -187500.02, -187500.02, -187500.02, -187500.02, -187500.02, 34538.20, -0.00, -0.00, -0.00
35, 95332.00, -187500.02, -187500.02, -187500.02, -187500.02, -187500.02, -187500.02, 34488.47, -0.00, -0.00, -0.00
36, 95351.33, -187500.02, -187500.02, -187500.02, -187500.02, -187500.02, -187500.02, 34483.11, -0.00, -0.00, -0.00
37, 95399.14, -187500.02, -187500.02, -187500.02, -187500.02, -187500.02, -187500.02, 34472.40, -0.00, -0.00, -0.00
38, 95362.22, -187500.02, -187500.02, -187500.02, -187500.02, -187500.02, -187500.02, 34431.86, -0.00, -0.00, -0.00
39, 95314.16, -187500.02, -187500.02, -187500.02, -187500.02, -187500.02, -187500.02, 34392.47, -0.00, -0.00, -0.00
40, 95361.73, -187500.02, -187500.02, -187500.02, -187500.02, -187500.02, -187500.02, 34388.00, -0.00, -0.00, -0.00
41, 95422.90, -187500.02, -187500.02, -187500.02, -187500.02, -187500.02, -187500.02, 34373.85, -0.00, -0.00, -0.00
42, 95375.67, -187500.02, -187500.02, -187500.02, -187500.02, -187500.02, -187500.02, 34341.40, -0.00, -0.00, -0.00
43, 95323.33, -187500.02, -187500.02, -187500.02, -187500.02, -187500.02, -187500.02, 34299.38, -0.00, -0.00, -0.00
44, 95339.77, -187500.02, -187500.02, -187500.02, -187500.02, -187500.02, -187500.02, 34280.55, -0.00, -0.00, -0.00
45, 95417.23, -187500.02, -187500.02, -187500.02, -187500.02, -187500.02, -187500.02, 34251.19, -0.00, -0.00, -0.00
46, 95406.67, -187500.02, -187500.02, -187500.02, -187500.02, -187500.02, -187500.02, 34203.11, -0.00, -0.00, -0.00
47, 95333.34, -187500.02, -187500.02, -187500.02, -187500.02, -187500.02, -187500.02, 34194.99, -0.00, -0.00, -0.00
48, 95340.49, -187500.02, -187500.02, -187500.02, -187500.02, -187500.02, -187500.02, 34184.22, -0.00, -0.00, -0.00
49, 95398.72, -187500.02, -187500.02, -187500.02, -187500.02, -187500.02, -187500.02, 34149.98, -0.00, -0.00, -0.00
50, 95360.88, -187500.02, -187500.02, -187500.02, -187500.02, -187500.02, -187500.02, 34158.96, -0.00, -0.00, -0.00
51, 95341.56, -187500.02, -187500.02, -187500.02, -187500.02, -187500.02, -187500.02, 34139.74, -0.00, -0.00, -0.00
52, 95339.66, -187500.02, -187500.02, -187500.02, -187500.02, -187500.02, -187500.02, 34103.98, -0.00, -0.00, -0.00
53, 95395.32, -187500.02, -187500.02, -187500.02, -187500.02, -187500.02, -187500.02, 34098.55, -0.00, -0.00, -0.00
54, 95436.42, -187500.02, -187500.02, -187500.02, -187500.02, -187500.02, -187500.02, 34054.16, -0.00, -0.00, -0.00
55, 95364.92, -187500.02, -187500.02, -187500.02, -187500.02, -187500.02, -187500.02, 34003.55, -0.00, -0.00, -0.00
56, 95317.80, -187500.02, -187500.02, -187500.02, -187500.02, -187500.02, -187500.02, 33988.73, -0.00, -0.00, -0.00
57, 95387.32, -187500.02, -187500.02, -187500.02, -187500.02, -187500.02, -187500.02, 33967.57, -0.00, -0.00, -0.00
58, 95415.95, -187500.02, -187500.02, -187500.02, -187500.02, -187500.02, -187500.02, 33940.70, -0.00, -0.00, -0.00
59, 95361.37, -187500.02, -187500.02, -187500.02, -187500.02, -187500.02, -187500.02, 33914.59, -0.00, -0.00, -0.00
60, 95315.79, -187500.02, -187500.02, -187500.02, -187500.02, -187500.02, -187500.02, 33909.25, -0.00, -0.00, -0.00
61, 95364.85, -187500.02, -187500.02, -187500.02, -187500.02, -187500.02, -187500.02, 33895.68, -0.00, -0.00, -0.00
62, 95431.20, -187500.02, -187500.02, -187500.02, -187500.02, -187500.02, -187500.02, 33855.45, -0.00, -0.00, -0.00
63, 95363.71, -187500.02, -187500.02, -187500.02, -187500.02, -187500.02, -187500.02, 33836.81, -0.00, -0.00, -0.00
64, 95329.70, -187500.02, -187500.02, -187500.02, -187500.02, -187500.02, -187500.02, 33801.31, -0.00, -0.00, -0.00
65, 95374.98, -187500.02, -187500.02, -187500.02, -187500.02, -187500.02, -187500.02, 33769.75, -0.00, -0.00, -0.00
66, 95446.21, -187500.02, -187500.02, -187500.02, -187500.02, -187500.02, -187500.02, 33767.36, -0.00, -0.00, -0.00
67, 95405.78, -187500.02, -187500.02, -187500.02, -187500.02, -187500.02, -187500.02, 33740.65, -0.00, -0.00, -0.00
68, 95333.30, -187500.02, -187500.02, -187500.02, -187500.02, -187500.02, -187500.02, 33697.60, -0.00, -0.00, -0.00
69, 95358.75, -187500.02, -187500.02, -187500.02, -187500.02, -187500.02, -187500.02, 33668.77, -0.00, -0.00, -0.00
70, 95448.67, -187500.02, -187500.02, -187500.02, -187500.02, -187500.02, -187500.02, 33625.92, -0.00, -0.00, -0.00
71, 95410.61, -187500.02, -187500.02, -187500.02, -187500.02, -187500.02, -187500.02, 33606.36, -0.00, -0.00, -0.00
72, 95358.41, -187500.02, -187500.02, -187500.02, -187500.02, -187500.02, -187500.02, 33568.83, -0.00, -0.00, -0.00
73, 95359.34, -187500.02, -187500.02, -187500.02, -187500.02, -187500.02, -187500.02, 33546.41, -0.00, -0.00, -0.00
74, 95442.46, -187500.02, -187500.02, -187500.02, -187500.02, -187500.02, -187500.02, 33525.74, -0.00, -0.00, -0.00
75, 95454.75, -187500.02, -187500.02, -187500.02, -187500.02, -187500.02, -187500.02, 33491.34, -0.00, -0.00, -0.00
76, 95381.64, -187500.02, -187500.02, -187500.02, -187500.02, -187500.02, -187500.02, 33443.66, -0.00, -0.00, -0.00
77, 95365.21, -187500.02, -187500.02, -187500.02, -187500.02, -187500.02, -187500.02, 33397.59, -0.00, -0.00, -0.00
78, 95462.06, -187500.02, -187500.02, -187500.02, -187500.02, -187500.02, -187500.02, 33342.83, -0.00, -0.00, -0.00
79, 95477.51, -187500.02, -187500.02, -187500.02, -187500.02, -187500.02, -187500.02, 33304.10, -0.00, -0.00, -0.00
80, 95415.50, -187500.02, -187500.02, -187500.02, -187500.02, -187500.02, -187500.02, 33251.37, -0.00, -0.00, -0.00
81, 95394.91, -187500.02, -187500.02, -187500.02, -187500.02, -187500.02, -187500.02, 33202.87, -0.00, -0.00, -0.00
82, 95446.05, -187500.02, -187500.02, -187500.02, -187500.02, -187500.02, -187500.02, 33181.97, -0.00, -0.00, -0.00
83, 95487.77, -187500.02, -187500.02, -187500.02, -187500.02, -187500.02, -187500.02, 33160.58, -0.00, -0.00, -0.00
84, 95430.37, -187500.02, -187500.02, -187500.02, -187500.02, -187500.02, -187500.02, 33115.85, -0.00, -0.00, -0.00
85, 95406.05, -187500.02, -187500.02, -187500.02, -187500.02, -187500.02, -187500.02, 33063.86, -0.00, -0.00, -0.00
86, 95474.11, -187500.02, -187500.02, -187500.02, -187500.02, -187500.02, -187500.02, 33026.69, -0.00, -0.00, -0.00
87, 95568.10, -187500.02, -187500.02, -187500.02, -187500.02, -187500.02, -187500.02, 32992.47, -0.00, -0.00, -0.00
88, 95527.59, -187500.02, -187500.02, -187500.02, -187500.02, -187500.02, -187500.02, 32937.37, -0.00, -0.00, -0.00
89, 95462.62, -187500.02, -187500.02, -187500.02, -187500.02, -187500.02, -187500.02, 32911.91, -0.00, -0.00, -0.00
90, 95536.67, -187500.02, -187500.02, -187500.02, -187500.02, -187500.02, -187500.02, 32868.30, -0.00, -0.00, -0.00
91, 95627.29, -187500.02, -187500.02, -187500.02, -187500.02, -187500.02, -187500.02, 32813.01, -0.00, -0.00, -0.00
92, 95605.83, -187500.02, -187500.02, -187500.02, -187500.02, -187500.02, -187500.02, 32767.57, -0.00, -0.00, -0.00
93, 95574.80, -187500.02, -187500.02, -187500.02, -187500.02, -187500.02, -187500.02, 32710.26, -0.00, -0.00, -0.00
94, 95574.63, -187500.02, -187500.02, -187500.02, -187500.02, -187500.02, -187500.02, 32682.72, -0.00, -0.00, -0.00
95, 95658.06, -187500.02, -187500.02, -187500.02, -187500.02, -187500.02, -187500.02, 32651.96, -0.00, -0.00, -0.00
96, 95681.98, -187500.02, -187500.02, -187500.02, -187500.02, -187500.02, -187500.02, 32588.53, -0.00, -0.00, -0.00
97, 95653.02, -187500.02, -187500.02, -187500.02, -187500.02, -187500.02, -187500.02, 32515.64, -0.00, -0.00, -0.00
98, 95653.35, -187500.02, -187500.02, -187500.02, -187500.02, -187500.02, -187500.02, 32469.39, -0.00, -0.00, -0.00
99, 95731.83, -187500.02, -187500.02, -187500.02, -187500.02, -187500.02, -187500.02, 32424.31, -0.00, -0.00, -0.00
100, 95754.29, -187500.02, -187500.02, -187500.02, -187500.02, -187500.02, -187500.02, 32359.85, -0.00, -0.00, -0.00
101, 95696.51, -187500.02, -187500.02, -187500.02, -187500.02, -187500.02, -187500.02, 32318.92, -0.00, -0.00, -0.00
102, 95669.77, -187500.02, -187500.02, -187500.02, -187500.02, -187500.02, -187500.02, 32273.41, -0.00, -0.00, -0.00
103, 95718.05, -187500.02, -187500.02, -187500.02, -187500.02, -187500.02, -187500.02, 32262.57, -0.00, -0.00, -0.00
104, 95775.61, -187500.02, -187500.02, -187500.02, -187500.02, -187500.02, -187500.02, 32220.02, -0.00, -0.00, -0.00
105, 95745.84, -187500.02, -187500.02, -187500.02, -187500.02, -187500.02, -187500.02, 32149.03, -0.00, -0.00, -0.00
106, 95698.72, -187500.02, -187500.02, -187500.02, -187500.02, -187500.02, -187500.02, 32092.39, -0.00, -0.00, -0.00
107, 95759.01, -187500.02, -187500.02, -187500.02, -187500.02, -187500.02, -187500.02, 32044.98, -0.00, -0.00, -0.00
108, 95804.78, -187500.02, -187500.02, -187500.02, -187500.02, -187500.02, -187500.02, 31984.88, -0.00, -0.00, -0.00
109, 95775.08, -187500.02, -187500.02, -187500.02, -187500.02, -187500.02, -187500.02, 31897.19, -0.00, -0.00, -0.00
110, 95715.71, -187500.02, -187500.02, -187500.02, -187500.02, -187500.02, -187500.02, 31843.86, -0.00, -0.00, -0.00
111, 95757.30, -187500.02, -187500.02, -187500.02, -187500.02, -187500.02, -187500.02, 31812.97, -0.00, -0.00, -0.00
112, 95825.77, -187500.02, -187500.02, -187500.02, -187500.02, -187500.02, -187500.02, 31771.01, -0.00, -0.00, -0.00
113, 95794.21, -187500.02, -187500.02, -187500.02, -187500.02, -187500.02, -187500.02, 31704.52, -0.00, -0.00, -0.00
114, 95740.52, -187500.02, -187500.02, -187500.02, -187500.02, -187500.02, -187500.02, 31643.36, -0.00, -0.00, -0.00
115, 95778.02, -187500.02, -187500.02, -187500.02, -187500.02, -187500.02, -187500.02, 31585.79, -0.00, -0.00, -0.00
116, 95816.59, -187500.02, -187500.02, -187500.02, -187500.02, -187500.02, -187500.02, 31559.95, -0.00, -0.00, -0.00
117, 95803.98, -187500.02, -187500.02, -187500.02, -187500.02, -187500.02, -187500.02, 31520.79, -0.00, -0.00, -0.00
118, 95778.41, -187500.02, -187500.02, -187500.02, -187500.02, -187500.02, -187500.02, 31454.80, -0.00, -0.00, -0.00
119, 95772.95, -187500.02, -187500.02, -187500.02, -187500.02, -187500.02, -187500.02, 31413.10, -0.00, -0.00, -0.00
120, 95844.37, -187500.02, -187500.02, -187500.02, -187500.02, -187500.02, -187500.02, 31360.48, -0.00, -0.00, -0.00
121, 95831.45, -187500.02, -187500.02, -187500.02, -187500.02, -187500.02, -187500.02, 31319.44, -0.00, -0.00, -0.00
122, 95767.68, -187500.02, -187500.02, -187500.02, -187500.02, -187500.02, -187500.02, 31275.92, -0.00, -0.00, -0.00
123, 95767.21, -187500.02, -187500.02, -187500.02, -187500.02, -187500.02, -187500.02, 31230.15, -0.00, -0.00, -0.00
124, 95843.41, -187500.02, -187500.02, -187500.02, -187500.02, -187500.02, -187500.02, 31191.61, -0.00, -0.00, -0.00
125, 95869.00, -187500.02, -187500.02, -187500.02, -187500.02, -187500.02, -187500.02, 31128.13, -0.00, -0.00, -0.00
126, 95811.89, -187500.02, -187500.02, -187500.02, -187500.02, -187500.02, -187500.02, 31059.85, -0.00, -0.00, -0.00
127, 95770.74, -187500.02, -187500.02, -187500.02, -187500.02, -187500.02, -187500.02, 31016.06, -0.00, -0.00, -0.00
128, 95803.82, -187500.02, -187500.02, -187500.02, -187500.02, -187500.02, -187500.02, 30990.00, -0.00, -0.00, -0.00
129, 95859.16, -187500.02, -187500.02, -187500.02, -187500.02, -187500.02, -187500.02, 30955.33, -0.00, -0.00, -0.00
130, 95917.26, -187500.02, -187500.02, -187500.02, -187500.02, -187500.02, -187500.02, 30901.15, -0.00, -0.00, -0.00
131, 95976.73, -187500.02, -187500.02, -187500.02, -187500.02, -187500.02, -187500.02, 30840.73, -0.00, -0.00, -0.00
132, 96097.73, -187500.02, -187500.02, -187500.02, -187500.02, -187500.02, -187500.02, 30793.91, -0.00, -0.00, -0.00
133, 96755.13, -187500.02, -187500.02, -187500.02, -187500.02, -187500.02, -187500.02, 30794.31, -0.00, -0.00, -0.00
134, 97306.05, -187500.02, -187500.02, -187500.02, -187500.02, -187500.02, -187500.02, 30784.25, -0.00, -0.00, -0.00
135, 97530.67, -187500.02, -187500.02, -187500.02, -187500.02, -187500.02, -187500.02, 30749.96, -0.00, -0.00, -0.00
136, 97723.90, -187500.02, -187500.02, -187500.02, -187500.02, -187500.02, -187500.02, 30708.70, -0.00, -0.00, -0.00
137, 97892.39, -187500.02, -187500.02, -187500.02, -187500.02, -187500.02, -187500.02, 30644.20, -0.00, -0.00, -0.00
138, 97918.97, -187500.02, -187500.02, -187500.02, -187500.02, -187500.02, -187500.02, 30581.23, -0.00, -0.00, -0.00
139, 97914.74, -187500.02, -187500.02, -187500.02, -187500.02, -187500.02, -187500.02, 30540.48, -0.00, -0.00, -0.00
140, 97985.66, -187500.02, -187500.02, -187500.02, -187500.02, -187500.02, -187500.02, 30482.66, -0.00, -0.00, -0.00
141, 98066.89, -187500.02, -187500.02, -187500.02, -187500.02, -187500.02, -187500.02, 30443.37, -0.00, -0.00, -0.00
142, 98056.63, -187500.02, -187500.02, -187500.02, -187500.02, -187500.02, -187500.02, 30424.14, -0.00, -0.00, -0.00
143, 98026.68, -187500.02, -187500.02, -187500.02, -187500.02, -187500.02, -187500.02, 30387.13, -0.00, -0.00, -0.00
144, 98028.84, -187500.02, -187500.02, -187500.02, -187500.02, -187500.02, -187500.02, 30343.56, -0.00, -0.00, -0.00
145, 98088.73, -187500.02, -187500.02, -187500.02, -187500.02, -187500.02, -187500.02, 30290.81, -0.00, -0.00, -0.00
146, 98124.73, -187500.02, -187500.02, -187500.02, -187500.02, -187500.02, -187500.02, 30250.31, -0.00, -0.00, -0.00
147, 98080.99, -187500.02, -187500.02, -187500.02, -187500.02, -187500.02, -187500.02, 30190.90, -0.00, -0.00, -0.00
148, 98064.09, -187500.02, -187500.02, -187500.02, -187500.02, -187500.02, -187500.02, 30147.45, -0.00, -0.00, -0.00
149, 98131.71, -187500.02, -187500.02, -187500.02, -187500.02, -187500.02, -187500.02, 30102.63, -0.00, -0.00, -0.00
150, 98134.02, -187500.02, -187500.02, -187500.02, -187500.02, -187500.02, -187500.02, 30051.23, -0.00, -0.00, -0.00
151, 98088.98, -187500.02, -187500.02, -187500.02, -187500.02, -187500.02, -187500.02, 29995.39, -0.00, -0.00, -0.00
152, 98083.36, -187500.02, -187500.02, -187500.02, -187500.02, -187500.02, -187500.02, 29915.48, -0.00, -0.00, -0.00
153, 98094.77, -187500.02, -187500.02, -187500.02, -187500.02, -187500.02, -187500.02, 29880.62, -0.00, -0.00, -0.00
154, 98110.95, -187500.02, -187500.02, -187500.02, -187500.02, -187500.02, -187500.02, 29856.48, -0.00, -0.00, -0.00
155, 98086.18, -187500.02, -187500.02, -187500.02, -187500.02, -187500.02, -187500.02, 29800.31, -0.00, -0.00, -0.00
156, 98047.11, -187500.02, -187500.02, -187500.02, -187500.02, -187500.02, -187500.02, 29767.81, -0.00, -0.00, -0.00
157, 98101.27, -187500.02, -187500.02, -187500.02, -187500.02, -187500.02, -187500.02, 29719.57, -0.00, -0.00, -0.00
158, 98145.52, -187500.02, -187500.02, -187500.02, -187500.02, -187500.02, -187500.02, 29657.28, -0.00, -0.00, -0.00
159, 98072.05, -187500.02, -187500.02, -187500.02, -187500.02, -187500.02, -187500.02, 29616.40, -0.00, -0.00, -0.00
160, 98039.06, -187500.02, -187500.02, -187500.02, -187500.02, -187500.02, -187500.02, 29567.60, -0.00, -0.00, -0.00
161, 98047.69, -187500.02, -187500.02, -187500.02, -187500.02, -187500.02, -187500.02, 29528.13, -0.00, -0.00, -0.00
162, 98087.84, -187500.02, -187500.02, -187500.02, -187500.02, -187500.02, -187500.02, 29484.63, -0.00, -0.00, -0.00
163, 98067.98, -187500.02, -187500.02, -187500.02, -187500.02, -187500.02, -187500.02, 29439.73, -0.00, -0.00, -0.00
164, 98030.91, -187500.02, -187500.02, -187500.02, -187500.02, -187500.02, -187500.02, 29393.01, -0.00, -0.00, -0.00
165, 98043.15, -187500.02, -187500.02, -187500.02, -187500.02, -187500.02, -187500.02, 29332.08, -0.00, -0.00, -0.00
166, 98106.38, -187500.02, -187500.02, -187500.02, -187500.02, -187500.02, -187500.02, 29261.99, -0.00, -0.00, -0.00
167, 98059.76, -187500.02, -187500.02, -187500.02, -187500.02, -187500.02, -187500.02, 29214.73, -0.00, -0.00, -0.00
168, 97983.07, -187500.02, -187500.02, -187500.02, -187500.02, -187500.02, -187500.02, 29180.60, -0.00, -0.00, -0.00
169, 97985.30, -187500.02, -187500.02, -187500.02, -187500.02, -187500.02, -187500.02, 29132.95, -0.00, -0.00, -0.00
170, 98030.45, -187500.02, -187500.02, -187500.02, -187500.02, -187500.02, -187500.02, 29099.45, -0.00, -0.00, -0.00
171, 98035.89, -187500.02, -187500.02, -187500.02, -187500.02, -187500.02, -187500.02, 29055.08, -0.00, -0.00, -0.00
172, 97952.56, -187500.02, -187500.02, -187500.02, -187500.02, -187500.02, -187500.02, 29005.03, -0.00, -0.00, -0.00
173, 97938.39, -187500.02, -187500.02, -187500.02, -187500.02, -187500.02, -187500.02, 28956.84, -0.00, -0.00, -0.00
174, 97980.86, -187500.02, -187500.02, -187500.02, -187500.02, -187500.02, -187500.02, 28927.09, -0.00, -0.00, -0.00
175, 98004.13, -187500.02, -187500.02, -187500.02, -187500.02, -187500.02, -187500.02, 28878.25, -0.00, -0.00, -0.00
176, 97952.65, -187500.02, -187500.02, -187500.02, -187500.02, -187500.02, -187500.02, 28815.96, -0.00, -0.00, -0.00
177, 97902.38, -187500.02, -187500.02, -187500.02, -187500.02, -187500.02, -187500.02, 28778.79, -0.00, -0.00, -0.00
178, 97949.95, -187500.02, -187500.02, -187500.02, -187500.02, -187500.02, -187500.02, 28720.94, -0.00, -0.00, -0.00
179, 97985.38, -187500.02, -187500.02, -187500.02, -187500.02, -187500.02, -187500.02, 28668.82, -0.00, -0.00, -0.00
180, 97936.09, -187500.02, -187500.02, -187500.02, -187500.02, -187500.02, -187500.02, 28602.59, -0.00, -0.00, -0.00
181, 97888.43, -187500.02, -187500.02, -187500.02, -187500.02, -187500.02, -187500.02, 28545.63, -0.00, -0.00, -0.00
182, 97890.60, -187500.02, -187500.02, -187500.02, -187500.02, -187500.02, -187500.02, 28511.84, -0.00, -0.00, -0.00
183, 97913.45, -187500.02, -187500.02, -187500.02, -187500.02, -187500.02, -187500.02, 28504.26, -0.00, -0.00, -0.00
184, 97912.10, -187500.02, -187500.02, -187500.02, -187500.02, -187500.02, -187500.02, 28465.15, -0.00, -0.00, -0.00
185, 97866.20, -187500.02, -187500.02, -187500.02, -187500.02, -187500.02, -187500.02, 28405.51, -0.00, -0.00, -0.00
186, 97877.99, -187500.02, -187500.02, -187500.02, -187500.02, -187500.02, -187500.02, 28336.02, -0.00, -0.00, -0.00
187, 97899.43, -187500.02, -187500.02, -187500.02, -187500.02, -187500.02, -187500.02, 28317.94, -0.00, -0.00, -0.00
188, 97864.80, -187500.02, -187500.02, -187500.02, -187500.02, -187500.02, -187500.02, 28287.00, -0.00, -0.00, -0.00
189, 97821.45, -187500.02, -187500.02, -187500.02, -187500.02, -187500.02, -187500.02, 28242.34, -0.00, -0.00, -0.00
190, 97834.52, -187500.02, -187500.02, -187500.02, -187500.02, -187500.02, -187500.02, 28183.94, -0.00, -0.00, -0.00
191, 97894.13, -187500.02, -187500.02, -187500.02, -187500.02, -187500.02, -187500.02, 28122.03, -0.00, -0.00, -0.00
192, 97889.04, -187500.02, -187500.02, -187500.02, -187500.02, -187500.02, -187500.02, 28073.37, -0.00, -0.00, -0.00
193, 97829.31, -187500.02, -187500.02, -187500.02, -187500.02, -187500.02, -187500.02, 28021.55, -0.00, -0.00, -0.00
194, 97811.66, -187500.02, -187500.02, -187500.02, -187500.02, -187500.02, -187500.02, 27980.45, -0.00, -0.00, -0.00
195, 97867.84, -187500.02, -187500.02, -187500.02, -187500.02, -187500.02, -187500.02, 27931.39, -0.00, -0.00, -0.00
196, 97874.58, -187500.02, -187500.02, -187500.02, -187500.02, -187500.02, -187500.02, 27888.49, -0.00, -0.00, -0.00
197, 97811.55, -187500.02, -187500.02, -187500.02, -187500.02, -187500.02, -187500.02, 27843.77, -0.00, -0.00, -0.00
198, 97771.20, -187500.02, -187500.02, -187500.02, -187500.02, -187500.02, -187500.02, 27820.30, -0.00, -0.00, -0.00
199, 97824.73, -187500.02, -187500.02, -187500.02, -187500.02, -187500.02, -187500.02, 27759.44, -0.00, -0.00, -0.00
200, 97847.51, -187500.02, -187500.02, -187500.02, -187500.02, -187500.02, -187500.02, 27714.31, -0.00, -0.00, -0.00
201, 97819.81, -187500.02, -187500.02, -187500.02, -187500.02, -187500.02, -187500.02, 27659.43, -0.00, -0.00, -0.00
202, 97788.99, -187500.02, -187500.02, -187500.02, -187500.02, -187500.02, -187500.02, 27608.81, -0.00, -0.00, -0.00
203, 97801.24, -187500.02, -187500.02, -187500.02, -187500.02, -187500.02, -187500.02, 27576.44, -0.00, -0.00, -0.00
204, 97836.22, -187500.02, -187500.02, -187500.02, -187500.02, -187500.02, -187500.02, 27542.29, -0.00, -0.00, -0.00
205, 97797.35, -187500.02, -187500.02, -187500.02, -187500.02, -187500.02, -187500.02, 27475.72, -0.00, -0.00, -0.00
206, 97749.00, -187500.02, -187500.02, -187500.02, -187500.02, -187500.02, -187500.02, 27442.62, -0.00, -0.00, -0.00
207, 97800.50, -187500.02, -187500.02, -187500.02, -187500.02, -187500.02, -187500.02, 27391.73, -0.00, -0.00, -0.00
208, 97844.52, -187500.02, -187500.02, -187500.02, -187500.02, -187500.02, -187500.02, 27350.53, -0.00, -0.00, -0.00
209, 97818.00, -187500.02, -187500.02, -187500.02, -187500.02, -187500.02, -187500.02, 27301.40, -0.00, -0.00, -0.00
210, 97762.34, -187500.02, -187500.02, -187500.02, -187500.02, -187500.02, -187500.02, 27245.39, -0.00, -0.00, -0.00
211, 97772.52, -187500.02, -187500.02, -187500.02, -187500.02, -187500.02, -187500.02, 27205.51, -0.00, -0.00, -0.00
212, 97828.76, -187500.02, -187500.02, -187500.02, -187500.02, -187500.02, -187500.02, 27159.49, -0.00, -0.00, -0.00
213, 97813.20, -187500.02, -187500.02, -187500.02, -187500.02, -187500.02, -187500.02, 27120.24, -0.00, -0.00, -0.00
214, 97769.57, -187500.02, -187500.02, -187500.02, -187500.02, -187500.02, -187500.02, 27073.33, -0.00, -0.00, -0.00
215, 97752.40, -187500.02, -187500.02, -187500.02, -187500.02, -187500.02, -187500.02, 27034.57, -0.00, -0.00, -0.00
216, 97803.30, -187500.02, -187500.02, -187500.02, -187500.02, -187500.02, -187500.02, 27004.91, -0.00, -0.00, -0.00
217, 97816.80, -187500.02, -187500.02, -187500.02, -187500.02, -187500.02, -187500.02, 26976.10, -0.00, -0.00, -0.00
218, 97773.43, -187500.02, -187500.02, -187500.02, -187500.02, -187500.02, -187500.02, 26921.31, -0.00, -0.00, -0.00
219, 97775.42, -187500.02, -187500.02, -187500.02, -187500.02, -187500.02, -187500.02, 26853.18, -0.00, -0.00, -0.00
220, 97798.38, -187500.02, -187500.02, -187500.02, -187500.02, -187500.02, -187500.02, 26836.42, -0.00, -0.00, -0.00
221, 97831.01, -187500.02, -187500.02, -187500.02, -187500.02, -187500.02, -187500.02, 26787.96, -0.00, -0.00, -0.00
222, 97767.89, -187500.02, -187500.02, -187500.02, -187500.02, -187500.02, -187500.02, 26726.72, -0.00, -0.00, -0.00
223, 97739.91, -187500.02, -187500.02, -187500.02, -187500.02, -187500.02, -187500.02, 26695.49, -0.00, -0.00, -0.00
224, 97789.80, -187500.02, -187500.02, -187500.02, -187500.02, -187500.02, -187500.02, 26656.80, -0.00, -0.00, -0.00
225, 97839.46, -187500.02, -187500.02, -187500.02, -187500.02, -187500.02, -187500.02, 26592.67, -0.00, -0.00, -0.00
226, 97777.45, -187500.02, -187500.02, -187500.02, -187500.02, -187500.02, -187500.02, 26544.01, -0.00, -0.00, -0.00
227, 97742.66, -187500.02, -187500.02, -187500.02, -187500.02, -187500.02, -187500.02, 26504.52, -0.00, -0.00, -0.00
228, 97777.23, -187500.02, -187500.02, -187500.02, -187500.02, -187500.02, -187500.02, 26468.73, -0.00, -0.00, -0.00
229, 97816.64, -187500.02, -187500.02, -187500.02, -187500.02, -187500.02, -187500.02, 26438.22, -0.00, -0.00, -0.00
230, 97783.23, -187500.02, -187500.02, -187500.02, -187500.02, -187500.02, -187500.02, 26399.49, -0.00, -0.00, -0.00
231, 97721.82, -187500.02, -187500.02, -187500.02, -187500.02, -187500.02, -187500.02, 26378.66, -0.00, -0.00, -0.00
232, 97767.51, -187500.02, -187500.02, -187500.02, -187500.02, -187500.02, -187500.02, 26325.59, -0.00, -0.00, -0.00
233, 97810.98, -187500.02, -187500.02, -187500.02, -187500.02, -187500.02, -187500.02, 26287.75, -0.00, -0.00, -0.00
234, 97786.76, -187500.02, -187500.02, -187500.02, -187500.02, -187500.02, -187500.02, 26245.75, -0.00, -0.00, -0.00
235, 97739.86, -187500.02, -187500.02, -187500.02, -187500.02, -187500.02, -187500.02, 26180.29, -0.00, -0.00, -0.00
236, 97758.21, -187500.02, -187500.02, -187500.02, -187500.02, -187500.02, -187500.02, 26140.56, -0.00, -0.00, -0.00
237, 97795.70, -187500.02, -187500.02, -187500.02, -187500.02, -187500.02, -187500.02, 26118.21, -0.00, -0.00, -0.00
238, 97800.23, -187500.02, -187500.02, -187500.02, -187500.02, -187500.02, -187500.02, 26056.30, -0.00, -0.00, -0.00
239, 97725.27, -187500.02, -187500.02, -187500.02, -187500.02, -187500.02, -187500.02, 26011.71, -0.00, -0.00, -0.00
240, 97734.59, -187500.02, -187500.02, -187500.02, -187500.02, -187500.02, -187500.02, 25980.57, -0.00, -0.00, -0.00
241, 97792.12, -187500.02, -187500.02, -187500.02, -187500.02, -187500.02, -187500.02, 25946.60, -0.00, -0.00, -0.00
242, 97806.96, -187500.02, -187500.02, -187500.02, -187500.02, -187500.02, -187500.02, 25897.04, -0.00, -0.00, -0.00
243, 97744.82, -187500.02, -187500.02, -187500.02, -187500.02, -187500.02, -187500.02, 25849.59, -0.00, -0.00, -0.00
244, 97714.16, -187500.02, -187500.02, -187500.02, -187500.02, -187500.02, -187500.02, 25810.70, -0.00, -0.00, -0.00
245, 97780.77, -187500.02, -187500.02, -187500.02, -187500.02, -187500.02, -187500.02, 25760.76, -0.00, -0.00, -0.00
246, 97789.59, -187500.02, -187500.02, -187500.02, -187500.02, -187500.02, -187500.02, 25734.26, -0.00, -0.00, -0.00
247, 97766.37, -187500.02, -187500.02, -187500.02, -187500.02, -187500.02, -187500.02, 25661.90, -0.00, -0.00, -0.00
248, 97719.45, -187500.02, -187500.02, -187500.02, -187500.02, -187500.02, -187500.02, 25611.34, -0.00, -0.00, -0.00
249, 97737.42, -187500.02, -187500.02, -187500.02, -187500.02, -187500.02, -187500.02, 25596.08, -0.00, -0.00, -0.00
250, 97778.91, -187500.02, -187500.02, -187500.02, -187500.02, -187500.02, -187500.02, 25565.03, -0.00, -0.00, -0.00
251, 97735.16, -187500.02, -187500.02, -187500.02, -187500.02, -187500.02, -187500.02, 25508.06, -0.00, -0.00, -0.00
252, 97677.41, -187500.02, -187500.02, -187500.02, -187500.02, -187500.02, -187500.02, 25476.16, -0.00, -0.00, -0.00
253, 97707.77, -187500.02, -187500.02, -187500.02, -187500.02, -187500.02, -187500.02, 25469.39, -0.00, -0.00, -0.00
254, 97773.03, -187500.02, -187500.02, -187500.02, -187500.02, -187500.02, -187500.02, 25426.54, -0.00, -0.00, -0.00
255, 97747.10, -187500.02, -187500.02, -187500.02, -187500.02, -187500.02, -187500.02, 25364.54, -0.00, -0.00, -0.00
0, 97678.23, -187500.02, -187500.02, -187500.02, -187500.02, -187500.02, -187500.02, 25313.75, -0.00, -0.00, -0.00
1, 97706.98, -187500.02, -187500.02, -187500.02, -187500.02, -187500.02, -187500.02, 25281.03, -0.00, -0.00, -0.00
2, 97756.89, -187500.02, -187500.02, -187500.02, -187500.02, -187500.02, -187500.02, 25238.29, -0.00, -0.00, -0.00
3, 97718.67, -187500.02, -187500.02, -187500.02, -187500.02, -187500.02, -187500.02, 25202.13, -0.00, -0.00, -0.00
4, 97644.04, -187500.02, -187500.02, -187500.02, -187500.02, -187500.02, -187500.02, 25179.44, -0.00, -0.00, -0.00
5, 97679.49, -187500.02, -187500.02, -187500.02, -187500.02, -187500.02, -187500.02, 25147.30, -0.00, -0.00, -0.00
6, 97745.90, -187500.02, -187500.02, -187500.02, -187500.02, -187500.02, -187500.02, 25092.18, -0.00, -0.00, -0.00
7, 97713.09, -187500.02, -187500.02, -187500.02, -187500.02, -187500.02, -187500.02, 25063.99, -0.00, -0.00, -0.00
8, 97661.67, -187500.02, -187500.02, -187500.02, -187500.02, -187500.02, -187500.02, 25007.18, -0.00, -0.00, -0.00
9, 97651.82, -187500.02, -187500.02, -187500.02, -187500.02, -187500.02, -187500.02, 24973.63, -0.00, -0.00, -0.00
10, 97722.02, -187500.02, -187500.02, -187500.02, -187500.02, -187500.02, -187500.02, 24945.95, -0.00, -0.00, -0.00
11, 97750.95, -187500.02, -187500.02, -187500.02, -187500.02, -187500.02, -187500.02, 24908.98, -0.00, -0.00, -0.00
12, 97699.16, -187500.02, -187500.02, -187500.02, -187500.02, -187500.02, -187500.02, 24852.66, -0.00, -0.00, -0.00
13, 97650.95, -187500.02, -187500.02, -187500.02, -187500.02, -187500.02, -187500.02, 24802.75, -0.00, -0.00, -0.00
14, 97674.21, -187500.02, -187500.02, -187500.02, -187500.02, -187500.02, -187500.02, 24775.21, -0.00, -0.00, -0.00
15, 97689.52, -187500.02, -187500.02, -187500.02, -187500.02, -187500.02, -187500.02, 24732.34, -0.00, -0.00, -0.00
16, 97650.12, -187500.02, -187500.02, -187500.02, -187500.02, -187500.02, -187500.02, 24686.54, -0.00, -0.00, -0.00
17, 97636.73, -187500.02, -187500.02, -187500.02, -187500.02, -187500.02, -187500.02, 24617.67, -0.00, -0.00, -0.00
18, 97675.55, -187500.02, -187500.02, -187500.02, -187500.02, -187500.02, -187500.02, 24586.13, -0.00, -0.00, -0.00
19, 97686.06, -187500.02, -187500.02, -187500.02, -187500.02, -187500.02, -187500.02, 24558.96, -0.00, -0.00, -0.00
20, 97619.90, -187500.02, -187500.02, -187500.02, -187500.02, -187500.02, -187500.02, 24544.14, -0.00, -0.00, -0.00
21, 97614.98, -187500.02, -187500.02, -187500.02, -187500.02, -187500.02, -187500.02, 24491.68, -0.00, -0.00, -0.00
22, 97654.55, -187500.02, -187500.02, -187500.02, -187500.02, -187500.02, -187500.02, 24437.41, -0.00, -0.00, -0.00
23, 97681.95, -187500.02, -187500.02, -187500.02, -187500.02, -187500.02, -187500.02, 24398.89, -0.00, -0.00, -0.00
24, 97656.58, -187500.02, -187500.02, -187500.02, -187500.02, -187500.02, -187500.02, 24354.97, -0.00, -0.00, -0.00
25, 97596.61, -187500.02, -187500.02, -187500.02, -187500.02, -187500.02, -187500.02, 24319.50, -0.00, -0.00, -0.00
26, 97621.33, -187500.02, -187500.02, -187500.02, -187500.02, -187500.02, -187500.02, 24283.00, -0.00, -0.00, -0.00
27, 97675.60, -187500.02, -187500.02, -187500.02, -187500.02, -187500.02, -187500.02, 24249.85, -0.00, -0.00, -0.00
28, 97662.95, -187500.02, -187500.02, -187500.02, -187500.02, -187500.02, -187500.02, 24210.69, -0.00, -0.00, -0.00
29, 97614.53, -187500.02, -187500.02, -187500.02, -187500.02, -187500.02, -187500.02, 24153.34, -0.00, -0.00, -0.00
30, 97606.87, -187500.02, -187500.02, -187500.02, -187500.02, -187500.02, -187500.02, 24117.53, -0.00, -0.00, -0.00
31, 97651.13, -187500.02, -187500.02, -187500.02, -187500.02, -187500.02, -187500.02, 24094.02, -0.00, -0.00, -0.00
32, 97669.84, -187500.02, -187500.02, -187500.02, -187500.02, -187500.02, -187500.02, 24049.25, -0.00, -0.00, -0.00
33, 97596.92, -187500.02, -187500.02, -187500.02, -187500.02, -187500.02, -187500.02, 24011.21, -0.00, -0.00, -0.00
34, 97597.26, -187500.02, -187500.02, -187500.02, -187500.02, -187500.02, -187500.02, 23973.25, -0.00, -0.00, -0.00
35, 97654.61, -187500.02, -187500.02, -187500.02, -187500.02, -187500.02, -187500.02, 23947.90, -0.00, -0.00, -0.00
36, 97664.94, -187500.02, -187500.02, -187500.02, -187500.02, -187500.02, -187500.02, 23908.45, -0.00, -0.00, -0.00
37, 97605.91, -187500.02, -187500.02, -187500.02, -187500.02, -187500.02, -187500.02, 23864.26, -0.00, -0.00, -0.00
38, 97568.40, -187500.02, -187500.02, -187500.02, -187500.02, -187500.02, -187500.02, 23841.33, -0.00, -0.00, -0.00
39, 97633.89, -187500.02, -187500.02, -187500.02, -187500.02, -187500.02, -187500.02, 23803.91, -0.00, -0.00, -0.00
40, 97656.78, -187500.02, -187500.02, -187500.02, -187500.02, -187500.02, -187500.02, 23763.14, -0.00, -0.00, -0.00
41, 97608.19, -187500.02, -187500.02, -187500.02, -187500.02, -187500.02, -187500.02, 23720.61, -0.00, -0.00, -0.00
42, 97570.88, -187500.02, -187500.02, -187500.02, -187500.02, -187500.02, -187500.02, 23689.05, -0.00, -0.00, -0.00
43, 97595.02, -187500.02, -187500.02, -187500.02, -187500.02, -187500.02, -187500.02, 23658.49, -0.00, -0.00, -0.00
44, 97647.52, -187500.02, -187500.02, -187500.02, -187500.02, -187500.02, -187500.02, 23623.51, -0.00, -0.00, -0.00
45, 97632.28, -187500.02, -187500.02, -187500.02, -187500.02, -187500.02, -187500.02, 23554.45, -0.00, -0.00, -0.00
46, 97584.54, -187500.02, -187500.02, -187500.02, -187500.02, -187500.02, -187500.02, 23506.32, -0.00, -0.00, -0.00
47, 97603.60, -187500.02, -187500.02, -187500.02, -187500.02, -187500.02, -187500.02, 23494.41, -0.00, -0.00, -0.00
48, 97656.53, -187500.02, -187500.02, -187500.02, -187500.02, -187500.02, -187500.02, 23468.86, -0.00, -0.00, -0.00
49, 97620.19, -187500.02, -187500.02, -187500.02, -187500.02, -187500.02, -187500.02, 23430.80, -0.00, -0.00, -0.00
50, 97561.30, -187500.02, -187500.02, -187500.02, -187500.02, -187500.02, -187500.02, 23395.79, -0.00, -0.00, -0.00
51, 97575.89, -187500.02, -187500.02, -187500.02, -187500.02, -187500.02, -187500.02, 23349.93, -0.00, -0.00, -0.00
52, 97640.66, -187500.02, -187500.02, -187500.02, -187500.02, -187500.02, -187500.02, 23308.91, -0.00, -0.00, -0.00
53, 97634.31, -187500.02, -187500.02, -187500.02, -187500.02, -187500.02, -187500.02, 23265.57, -0.00, -0.00, -0.00
54, 97581.32, -187500.02, -187500.02, -187500.02, -187500.02, -187500.02, -187500.02, 23226.01, -0.00, -0.00, -0.00
55, 97582.73, -187500.02, -187500.02, -187500.02, -187500.02, -187500.02, -187500.02, 23197.73, -0.00, -0.00, -0.00
56, 97662.13, -187500.02, -187500.02, -187500.02, -187500.02, -187500.02, -187500.02, 23143.13, -0.00, -0.00, -0.00
57, 97622.78, -187500.02, -187500.02, -187500.02, -187500.02, -187500.02, -187500.02, 23110.90, -0.00, -0.00, -0.00
58, 97548.35, -187500.02, -187500.02, -187500.02, -187500.02, -187500.02, -187500.02, 23090.42, -0.00, -0.00, -0.00
59, 97560.89, -187500.02, -187500.02, -187500.02, -187500.02, -187500.02, -187500.02, 23052.18, -0.00, -0.00, -0.00
60, 97620.13, -187500.02, -187500.02, -187500.02, -187500.02, -187500.02, -187500.02, 23012.77, -0.00, -0.00, -0.00
61, 97642.61, -187500.02, -187500.02, -187500.02, -187500.02, -187500.02, -187500.02, 22958.33, -0.00, -0.00, -0.00
62, 97577.54, -187500.02, -187500.02, -187500.02, -187500.02, -187500.02, -187500.02, 22931.35, -0.00, -0.00, -0.00
63, 97559.20, -187500.02, -187500.02, -187500.02, -187500.02, -187500.02, -187500.02, 22898.11, -0.00, -0.00, -0.00
64, 97584.72, -187500.02, -187500.02, -187500.02, -187500.02, -187500.02, -187500.02, 22896.41, -0.00, -0.00, -0.00
65, 97639.01, -187500.02, -187500.02, -187500.02, -187500.02, -187500.02, -187500.02, 22869.01, -0.00, -0.00, -0.00
66, 97583.84, -187500.02, -187500.02, -187500.02, -187500.02, -187500.02, -187500.02, 22818.20, -0.00, -0.00, -0.00
67, 97533.20, -187500.02, -187500.02, -187500.02, -187500.02, -187500.02, -187500.02, 22789.79, -0.00, -0.00, -0.00
68, 97564.31, -187500.02, -187500.02, -187500.02, -187500.02, -187500.02, -187500.02, 22760.63, -0.00, -0.00, -0.00
69, 97587.84, -187500.02, -187500.02, -187500.02, -187500.02, -187500.02, -187500.02, 22745.38, -0.00, -0.00, -0.00
70, 97584.56, -187500.02, -187500.02, -187500.02, -187500.02, -187500.02, -187500.02, 22705.66, -0.00, -0.00, -0.00
71, 97535.27, -187500.02, -187500.02, -187500.02, -187500.02, -187500.02, -187500.02, 22666.28, -0.00, -0.00, -0.00
72, 97557.72, -187500.02, -187500.02, -187500.02, -187500.02, -187500.02, -187500.02, 22637.33, -0.00, -0.00, -0.00
73, 97634.23, -187500.02, -187500.02, -187500.02, -187500.02, -187500.02, -187500.02, 22583.67, -0.00, -0.00, -0.00
74, 97607.38, -187500.02, -187500.02, -187500.02, -187500.02, -187500.02, -187500.02, 22548.01, -0.00, -0.00, -0.00
75, 97540.06, -187500.02, -187500.02, -187500.02, -187500.02, -187500.02, -187500.02, 22508.05, -0.00, -0.00, -0.00
76, 97532.30, -187500.02, -187500.02, -187500.02, -187500.02, -187500.02, -187500.02, 22492.87, -0.00, -0.00, -0.00
77, 97571.98, -187500.02, -187500.02, -187500.02, -187500.02, -187500.02, -187500.02, 22481.09, -0.00, -0.00, -0.00
78, 97581.72, -187500.02, -187500.02, -187500.02, -187500.02, -187500.02, -187500.02, 22436.48, -0.00, -0.00, -0.00
79, 97525.35, -187500.02, -187500.02, -187500.02, -187500.02, -187500.02, -187500.02, 22406.17, -0.00, -0.00, -0.00
80, 97536.88, -187500.02, -187500.02, -187500.02, -187500.02, -187500.02, -187500.02, 22385.34, -0.00, -0.00, -0.00
81, 97601.28, -187500.02, -187500.02, -187500.02, -187500.02, -187500.02, -187500.02, 22346.00, -0.00, -0.00, -0.00
82, 97583.53, -187500.02, -187500.02, -187500.02, -187500.02, -187500.02, -187500.02, 22316.16, -0.00, -0.00, -0.00
83, 97537.47, -187500.02, -187500.02, -187500.02, -187500.02, -187500.02, -187500.02, 22270.94, -0.00, -0.00, -0.00
84, 97497.88, -187500.02, -187500.02, -187500.02, -187500.02, -187500.02, -187500.02, 22264.91, -0.00, -0.00, -0.00
85, 97550.43, -187500.02, -187500.02, -187500.02, -187500.02, -187500.02, -187500.02, 22236.65, -0.00, -0.00, -0.00
86, 97574.68, -187500.02, -187500.02, -187500.02, -187500.02, -187500.02, -187500.02, 22209.77, -0.00, -0.00, -0.00
87, 97546.50, -187500.02, -187500.02, -187500.02, -187500.02, -187500.02, -187500.02, 22165.46, -0.00, -0.00, -0.00
88, 97494.69, -187500.02, -187500.02, -187500.02, -187500.02, -187500.02, -187500.02, 22131.02, -0.00, -0.00, -0.00
89, 97543.55, -187500.02, -187500.02, -187500.02, -187500.02, -187500.02, -187500.02, 22116.76, -0.00, -0.00, -0.00
90, 97597.68, -187500.02, -187500.02, -187500.02, -187500.02, -187500.02, -187500.02, 22066.98, -0.00, -0.00, -0.00
91, 97525.17, -187500.02, -187500.02, -187500.02, -187500.02, -187500.02, -187500.02, 22038.57, -0.00, -0.00, -0.00
92, 97467.69, -187500.02, -187500.02, -187500.02, -187500.02, -187500.02, -187500.02, 22025.01, -0.00, -0.00, -0.00
93, 97509.28, -187500.02, -187500.02, -187500.02, -187500.02, -187500.02, -187500.02, 22008.53, -0.00, -0.00, -0.00
94, 97564.60, -187500.02, -187500.02, -187500.02, -187500.02, -187500.02, -187500.02, 21974.92, -0.00, -0.00, -0.00
95, 97535.99, -187500.02, -187500.02, -187500.02, -187500.02, -187500.02, -187500.02, 21944.92, -0.00, -0.00, -0.00
96, 97479.15, -187500.02, -187500.02, -187500.02, -187500.02, -187500.02, -187500.02, 21916.69, -0.00, -0.00, -0.00
97, 97498.35, -187500.02, -187500.02, -187500.02, -187500.02, -187500.02, -187500.02, 21882.80, -0.00, -0.00, -0.00
98, 97549.80, -187500.02, -187500.02, -187500.02, -187500.02, -187500.02, -187500.02, 21848.79, -0.00, -0.00, -0.00
99, 97517.69, -187500.02, -187500.02, -187500.02, -187500.02, -187500.02, -187500.02, 21837.90, -0.00, -0.00, -0.00
100, 97483.73, -187500.02, -187500.02, -187500.02, -187500.02, -187500.02, -187500.02, 21790.85, -0.00, -0.00, -0.00
101, 97478.88, -187500.02, -187500.02, -187500.02, -187500.02, -187500.02, -187500.02, 21761.32, -0.00, -0.00, -0.00
102, 97537.09, -187500.02, -187500.02, -187500.02, -187500.02, -187500.02, -187500.02, 21740.45, -0.00, -0.00, -0.00
103, 97520.68, -187500.02, -187500.02, -187500.02, -187500.02, -187500.02, -187500.02, 21722.97, -0.00, -0.00, -0.00
104, 97477.70, -187500.02, -187500.02, -187500.02, -187500.02, -187500.02, -187500.02, 21675.98, -0.00, -0.00, -0.00
105, 97447.01, -187500.02, -187500.02, -187500.02, -187500.02, -187500.02, -187500.02, 21663.64, -0.00, -0.00, -0.00
106, 97520.73, -187500.02, -187500.02, -187500.02, -187500.02, -187500.02, -187500.02, 21636.31, -0.00, -0.00, -0.00
107, 97540.55, -187500.02, -187500.02, -187500.02, -187500.02, -187500.02, -187500.02, 21598.69, -0.00, -0.00, -0.00
108, 97464.69, -187500.02, -187500.02, -187500.02, -187500.02, -187500.02, -187500.02, 21587.76, -0.00, -0.00, -0.00
109, 97475.82, -187500.02, -187500.02, -187500.02, -187500.02, -187500.02, -187500.02, 21534.12, -0.00, -0.00, -0.00
110, 97491.96, -187500.02, -187500.02, -187500.02, -187500.02, -187500.02, -187500.02, 21524.30, -0.00, -0.00, -0.00
111, 97548.73, -187500.02, -187500.02, -187500.02, -187500.02, -187500.02, -187500.02, 21492.30, -0.00, -0.00, -0.00
112, 97502.62, -187500.02, -187500.02, -187500.02, -187500.02, -187500.02, -187500.02, 21442.25, -0.00, -0.00, -0.00
113, 97445.69, -187500.02, -187500.02, -187500.02, -187500.02, -187500.02, -187500.02, 21425.64, -0.00, -0.00, -0.00
114, 97479.06, -187500.02, -187500.02, -187500.02, -187500.02, -187500.02, -187500.02, 21425.35, -0.00, -0.00, -0.00
115, 97530.90, -187500.02, -187500.02, -187500.02, -187500.02, -187500.02, -187500.02, 21400.28, -0.00, -0.00, -0.00
116, 97484.31, -187500.02, -187500.02, -187500.02, -187500.02, -187500.02, -187500.02, 21364.71, -0.00, -0.00, -0.00
117, 97447.37, -187500.02, -187500.02, -187500.02, -187500.02, -187500.02, -187500.02, 21335.70, -0.00, -0.00, -0.00
118, 97482.66, -187500.02, -187500.02, -187500.02, -187500.02, -187500.02, -187500.02, 21307.83, -0.00, -0.00, -0.00
119, 97535.61, -187500.02, -187500.02, -187500.02, -187500.02, -187500.02, -187500.02, 21287.51, -0.00, -0.00, -0.00
120, 97501.99, -187500.02, -187500.02, -187500.02, -187500.02, -187500.02, -187500.02, 21253.13, -0.00, -0.00, -0.00
121, 97451.10, -187500.02, -187500.02, -187500.02, -187500.02, -187500.02, -187500.02, 21220.10, -0.00, -0.00, -0.00
122, 97451.45, -187500.02, -187500.02, -187500.02, -187500.02, -187500.02, -187500.02, 21207.98, -0.00, -0.00, -0.00
123, 97507.11, -187500.02, -187500.02, -187500.02, -187500.02, -187500.02, -187500.02, 21206.73, -0.00, -0.00, -0.00
124, 97485.92, -187500.02, -187500.02, -187500.02, -187500.02, -187500.02, -187500.02, 21193.21, -0.00, -0.00, -0.00
125, 97432.91, -187500.02, -187500.02, -187500.02, -187500.02, -187500.02, -187500.02, 21179.06, -0.00, -0.00, -0.00
126, 97465.36, -187500.02, -187500.02, -187500.02, -187500.02, -187500.02, -187500.02, 21137.17, -0.00, -0.00, -0.00
127, 97534.38, -187500.02, -187500.02, -187500.02, -187500.02, -187500.02, -187500.02, 21093.99, -0.00, -0.00, -0.00
128, 97554.72, -187500.02, -187500.02, -187500.02, -187500.02, -187500.02, -187500.02, 21039.45, -0.00, -0.00, -0.00
129, 97465.23, -187500.02, -187500.02, -187500.02, -187500.02, -187500.02, -187500.02, 21012.79, -0.00, -0.00, -0.00
130, 97442.29, -187500.02, -187500.02, -187500.02, -187500.02, -187500.02, -187500.02, 20989.27, -0.00, -0.00, -0.00
131, 97506.15, -187500.02, -187500.02, -187500.02, -187500.02, -187500.02, -187500.02, 20960.59, -0.00, -0.00, -0.00
132, 97517.62, -187500.02, -187500.02, -187500.02, -187500.02, -187500.02, -187500.02, 20941.33, -0.00, -0.00, -0.00
133, 97464.80, -187500.02, -187500.02, -187500.02, -187500.02, -187500.02, -187500.02, 20907.35, -0.00, -0.00, -0.00
134, 97433.22, -187500.02, -187500.02, -187500.02, -187500.02, -187500.02, -187500.02, 20883.03, -0.00, -0.00, -0.00
135, 97492.98, -187500.02, -187500.02, -187500.02, -187500.02, -187500.02, -187500.02, 20864.50, -0.00, -0.00, -0.00
136, 97502.51, -187500.02, -187500.02, -187500.02, -187500.02, -187500.02, -187500.02, 20851.25, -0.00, -0.00, -0.00
137, 97448.88, -187500.02, -187500.02, -187500.02, -187500.02, -187500.02, -187500.02, 20851.43, -0.00, -0.00, -0.00
138, 97434.18, -187500.02, -187500.02, -187500.02, -187500.02, -187500.02, -187500.02, 20813.81, -0.00, -0.00, -0.00
139, 97469.09, -187500.02, -187500.02, -187500.02, -187500.02, -187500.02, -187500.02, 20786.36, -0.00, -0.00, -0.00
140, 97511.56, -187500.02, -187500.02, -187500.02, -187500.02, -187500.02, -187500.02, 20770.27, -0.00, -0.00, -0.00
141, 97457.73, -187500.02, -187500.02, -187500.02, -187500.02, -187500.02, -187500.02, 20747.65, -0.00, -0.00, -0.00
142, 97416.01, -187500.02, -187500.02, -187500.02, -187500.02, -187500.02, -187500.02, 20716.20, -0.00, -0.00, -0.00
143, 97441.42, -187500.02, -187500.02, -187500.02, -187500.02, -187500.02, -187500.02, 20723.69, -0.00, -0.00, -0.00
144, 97525.22, -187500.02, -187500.02, -187500.02, -187500.02, -187500.02, -187500.02, 20686.54, -0.00, -0.00, -0.00
145, 97478.44, -187500.02, -187500.02, -187500.02, -187500.02, -187500.02, -187500.02, 20668.23, -0.00, -0.00, -0.00
146, 97428.39, -187500.02, -187500.02, -187500.02, -187500.02, -187500.02, -187500.02, 20632.02, -0.00, -0.00, -0.00
147, 97432.99, -187500.02, -187500.02, -187500.02, -187500.02, -187500.02, -187500.02, 20619.30, -0.00, -0.00, -0.00
148, 97491.66, -187500.02, -187500.02, -187500.02, -187500.02, -187500.02, -187500.02, 20602.45, -0.00, -0.00, -0.00
149, 97468.49, -187500.02, -187500.02, -187500.02, -187500.02, -187500.02, -187500.02, 20579.00, -0.00, -0.00, -0.00
150, 97437.69, -187500.02, -187500.02, -187500.02, -187500.02, -187500.02, -187500.02, 20535.55, -0.00, -0.00, -0.00
151, 97434.67, -187500.02, -187500.02, -187500.02, -187500.02, -187500.02, -187500.02, 20513.78, -0.00, -0.00, -0.00
152, 97490.02, -187500.02, -187500.02, -187500.02, -187500.02, -187500.02, -187500.02, 20495.34, -0.00, -0.00, -0.00
153, 97507.16, -187500.02, -187500.02, -187500.02, -187500.02, -187500.02, -187500.02, 20467.58, -0.00, -0.00, -0.00
154, 97448.22, -187500.02, -187500.02, -187500.02, -187500.02, -187500.02, -187500.02, 20430.54, -0.00, -0.00, -0.00
155, 97429.09, -187500.02, -187500.02, -187500.02, -187500.02, -187500.02, -187500.02, 20413.00, -0.00, -0.00, -0.00
156, 97474.52, -187500.02, -187500.02, -187500.02, -187500.02, -187500.02, -187500.02, 20401.06, -0.00, -0.00, -0.00
157, 97494.71, -187500.02, -187500.02, -187500.02, -187500.02, -187500.02, -187500.02, 20376.21, -0.00, -0.00, -0.00
158, 97453.29, -187500.02, -187500.02, -187500.02, -187500.02, -187500.02, -187500.02, 20349.68, -0.00, -0.00, -0.00
159, 97430.05, -187500.02, -187500.02, -187500.02, -187500.02, -187500.02, -187500.02, 20309.02, -0.00, -0.00, -0.00
160, 97469.83, -187500.02, -187500.02, -187500.02, -187500.02, -187500.02, -187500.02, 20283.76, -0.00, -0.00, -0.00
161, 97494.64, -187500.02, -187500.02, -187500.02, -187500.02, -187500.02, -187500.02, 20268.03, -0.00, -0.00, -0.00
162, 97452.17, -187500.02, -187500.02, -187500.02, -187500.02, -187500.02, -187500.02, 20234.54, -0.00, -0.00, -0.00
163, 97413.30, -187500.02, -187500.02, -187500.02, -187500.02, -187500.02, -187500.02, 20204.32, -0.00, -0.00, -0.00
164, 97465.90, -187500.02, -187500.02, -187500.02, -187500.02, -187500.02, -187500.02, 20173.21, -0.00, -0.00, -0.00
165, 97497.68, -187500.02, -187500.02, -187500.02, -187500.02, -187500.02, -187500.02, 20156.06, -0.00, -0.00, -0.00
166, 97450.20, -187500.02, -187500.02, -187500.02, -187500.02, -187500.02, -187500.02, 20138.70, -0.00, -0.00, -0.00
167, 97400.95, -187500.02, -187500.02, -187500.02, -187500.02, -187500.02, -187500.02, 20105.30, -0.00, -0.00, -0.00
168, 97428.86, -187500.02, -187500.02, -187500.02, -187500.02, -187500.02, -187500.02, 20098.13, -0.00, -0.00, -0.00
169, 97492.23, -187500.02, -187500.02, -187500.02, -187500.02, -187500.02, -187500.02, 20074.73, -0.00, -0.00, -0.00
170, 97475.41, -187500.02, -187500.02, -187500.02, -187500.02, -187500.02, -187500.02, 20045.98, -0.00, -0.00, -0.00
171, 97426.83, -187500.02, -187500.02, -187500.02, -187500.02, -187500.02, -187500.02, 20014.51, -0.00, -0.00, -0.00
172, 97412.01, -187500.02, -187500.02, -187500.02, -187500.02, -187500.02, -187500.02, 19997.21, -0.00, -0.00, -0.00
173, 97478.05, -187500.02, -187500.02, -187500.02, -187500.02, -187500.02, -187500.02, 19978.53, -0.00, -0.00, -0.00
174, 97474.59, -187500.02, -187500.02, -187500.02, -187500.02, -187500.02, -187500.02, 19933.64, -0.00, -0.00, -0.00
175, 97399.76, -187500.02, -187500.02, -187500.02, -187500.02, -187500.02, -187500.02, 19923.18, -0.00, -0.00, -0.00
176, 97415.80, -187500.02, -187500.02, -187500.02, -187500.02, -187500.02, -187500.02, 19895.49, -0.00, -0.00, -0.00
177, 97483.40, -187500.02, -187500.02, -187500.02, -187500.02, -187500.02, -187500.02, 19864.71, -0.00, -0.00, -0.00
178, 97476.98, -187500.02, -187500.02, -187500.02, -187500.02, -187500.02, -187500.02, 19846.36, -0.00, -0.00, -0.00
179, 97436.97, -187500.02, -187500.02, -187500.02, -187500.02, -187500.02, -187500.02, 19813.01, -0.00, -0.00, -0.00
180, 97406.82, -187500.02, -187500.02, -187500.02, -187500.02, -187500.02, -187500.02, 19789.65, -0.00, -0.00, -0.00
181, 97447.97, -187500.02, -187500.02, -187500.02, -187500.02, -187500.02, -187500.02, 19788.58, -0.00, -0.00, -0.00
182, 97467.21, -187500.02, -187500.02, -187500.02, -187500.02, -187500.02, -187500.02, 19766.27, -0.00, -0.00, -0.00
183, 97400.61, -187500.02, -187500.02, -187500.02, -187500.02, -187500.02, -187500.02, 19761.06, -0.00, -0.00, -0.00
184, 97385.67, -187500.02, -187500.02, -187500.02, -187500.02, -187500.02, -187500.02, 19747.86, -0.00, -0.00, -0.00
185, 97446.70, -187500.02, -187500.02, -187500.02, -187500.02, -187500.02, -187500.02, 19719.27, -0.00, -0.00, -0.00
186, 97477.48, -187500.02, -187500.02, -187500.02, -187500.02, -187500.02, -187500.02, 19690.93, -0.00, -0.00, -0.00
187, 97428.63, -187500.02, -187500.02, -187500.02, -187500.02, -187500.02, -187500.02, 19682.65, -0.00, -0.00, -0.00
188, 97383.69, -187500.02, -187500.02, -187500.02, -187500.02, -187500.02, -187500.02, 19661.89, -0.00, -0.00, -0.00
189, 97418.47, -187500.02, -187500.02, -187500.02, -187500.02, -187500.02, -187500.02, 19660.15, -0.00, -0.00, -0.00
190, 97522.67, -187500.02, -187500.02, -187500.02, -187500.02, -187500.02, -187500.02, 19588.87, -0.00, -0.00, -0.00
191, 97464.95, -187500.02, -187500.02, -187500.02, -187500.02, -187500.02, -187500.02, 19562.83, -0.00, -0.00, -0.00
192, 97380.49, -187500.02, -187500.02, -187500.02, -187500.02, -187500.02, -187500.02, 19560.57, -0.00, -0.00, -0.00
193, 97427.14, -187500.02, -187500.02, -187500.02, -187500.02, -187500.02, -187500.02, 19524.36, -0.00, -0.00, -0.00
194, 97483.22, -187500.02, -187500.02, -187500.02, -187500.02, -187500.02, -187500.02, 19486.09, -0.00, -0.00, -0.00
195, 97441.11, -187500.02, -187500.02, -187500.02, -187500.02, -187500.02, -187500.02, 19486.27, -0.00, -0.00, -0.00
196, 97394.28, -187500.02, -187500.02, -187500.02, -187500.02, -187500.02, -187500.02, 19456.16, -0.00, -0.00, -0.00
197, 97405.70, -187500.02, -187500.02, -187500.02, -187500.02, -187500.02, -187500.02, 19430.75, -0.00, -0.00, -0.00
198, 97468.13, -187500.02, -187500.02, -187500.02, -187500.02, -187500.02, -187500.02, 19401.38, -0.00, -0.00, -0.00
199, 97472.80, -187500.02, -187500.02, -187500.02, -187500.02, -187500.02, -187500.02, 19365.86, -0.00, -0.00, -0.00
200, 97410.76, -187500.02, -187500.02, -187500.02, -187500.02, -187500.02, -187500.02, 19346.62, -0.00, -0.00, -0.00
201, 97383.41, -187500.02, -187500.02, -187500.02, -187500.02, -187500.02, -187500.02, 19333.34, -0.00, -0.00, -0.00
202, 97432.28, -187500.02, -187500.02, -187500.02, -187500.02, -187500.02, -187500.02, 19326.26, -0.00, -0.00, -0.00
203, 97463.13, -187500.02, -187500.02, -187500.02, -187500.02, -187500.02, -187500.02, 19293.15, -0.00, -0.00, -0.00
204, 97412.45, -187500.02, -187500.02, -187500.02, -187500.02, -187500.02, -187500.02, 19257.35, -0.00, -0.00, -0.00
205, 97374.92, -187500.02, -187500.02, -187500.02, -187500.02, -187500.02, -187500.02, 19243.96, -0.00, -0.00, -0.00
206, 97429.77, -187500.02, -187500.02, -187500.02, -187500.02, -187500.02, -187500.02, 19242.86, -0.00, -0.00, -0.00
207, 97464.53, -187500.02, -187500.02, -187500.02, -187500.02, -187500.02, -187500.02, 19213.56, -0.00, -0.00, -0.00
208, 97409.99, -187500.02, -187500.02, -187500.02, -187500.02, -187500.02, -187500.02, 19187.34, -0.00, -0.00, -0.00
209, 97383.58, -187500.02, -187500.02, -187500.02, -187500.02, -187500.02, -187500.02, 19154.01, -0.00, -0.00, -0.00
210, 97433.55, -187500.02, -187500.02, -187500.02, -187500.02, -187500.02, -187500.02, 19121.58, -0.00, -0.00, -0.00
211, 97468.06, -187500.02, -187500.02, -187500.02, -187500.02, -187500.02, -187500.02, 19086.62, -0.00, -0.00, -0.00
212, 97421.21, -187500.02, -187500.02, -187500.02, -187500.02, -187500.02, -187500.02, 19060.58, -0.00, -0.00, -0.00
213, 97397.12, -187500.02, -187500.02, -187500.02, -187500.02, -187500.02, -187500.02, 19016.62, -0.00, -0.00, -0.00
214, 97411.63, -187500.02, -187500.02, -187500.02, -187500.02, -187500.02, -187500.02, 19006.20, -0.00, -0.00, -0.00
215, 97442.38, -187500.02, -187500.02, -187500.02, -187500.02, -187500.02, -187500.02, 18998.67, -0.00, -0.00, -0.00
216, 97416.30, -187500.02, -187500.02, -187500.02, -187500.02, -187500.02, -187500.02, 18990.69, -0.00, -0.00, -0.00
217, 97381.20, -187500.02, -187500.02, -187500.02, -187500.02, -187500.02, -187500.02, 18954.14, -0.00, -0.00, -0.00
218, 97411.56, -187500.02, -187500.02, -187500.02, -187500.02, -187500.02, -187500.02, 18909.11, -0.00, -0.00, -0.00
219, 97472.47, -187500.02, -187500.02, -187500.02, -187500.02, -187500.02, -187500.02, 18869.65, -0.00, -0.00, -0.00
220, 97451.61, -187500.02, -187500.02, -187500.02, -187500.02, -187500.02, -187500.02, 18836.13, -0.00, -0.00, -0.00
221, 97394.21, -187500.02, -187500.02, -187500.02, -187500.02, -187500.02, -187500.02, 18807.00, -0.00, -0.00, -0.00
222, 97413.15, -187500.02, -187500.02, -187500.02, -187500.02, -187500.02, -187500.02, 18767.87, -0.00, -0.00, -0.00
223, 97458.72, -187500.02, -187500.02, -187500.02, -187500.02, -187500.02, -187500.02, 18739.81, -0.00, -0.00, -0.00
224, 97448.39, -187500.02, -187500.02, -187500.02, -187500.02, -187500.02, -187500.02, 18714.91, -0.00, -0.00, -0.00
225, 97393.30, -187500.02, -187500.02, -187500.02, -187500.02, -187500.02, -187500.02, 18700.21, -0.00, -0.00, -0.00
226, 97417.48, -187500.02, -187500.02, -187500.02, -187500.02, -187500.02, -187500.02, 18638.13, -0.00, -0.00, -0.00
227, 97460.82, -187500.02, -187500.02, -187500.02, -187500.02, -187500.02, -187500.02, 18608.88, -0.00, -0.00, -0.00
228, 97491.58, -187500.02, -187500.02, -187500.02, -187500.02, -187500.02, -187500.02, 18558.92, -0.00, -0.00, -0.00
229, 97407.85, -187500.02, -187500.02, -187500.02, -187500.02, -187500.02, -187500.02, 18530.22, -0.00, -0.00, -0.00
230, 97356.91, -187500.02, -187500.02, -187500.02, -187500.02, -187500.02, -187500.02, 18537.96, -0.00, -0.00, -0.00
231, 97426.47, -187500.02, -187500.02, -187500.02, -187500.02, -187500.02, -187500.02, 18514.57, -0.00, -0.00, -0.00
232, 97476.34, -187500.02, -187500.02, -187500.02, -187500.02, -187500.02, -187500.02, 18476.44, -0.00, -0.00, -0.00
233, 97409.48, -187500.02, -187500.02, -187500.02, -187500.02, -187500.02, -187500.02, 18452.01, -0.00, -0.00, -0.00
234, 97379.69, -187500.02, -187500.02, -187500.02, -187500.02, -187500.02, -187500.02, 18429.82, -0.00, -0.00, -0.00
235, 97420.73, -187500.02, -187500.02, -187500.02, -187500.02, -187500.02, -187500.02, 18405.81, -0.00, -0.00, -0.00
236, 97466.73, -187500.02, -187500.02, -187500.02, -187500.02, -187500.02, -187500.02, 18377.02, -0.00, -0.00, -0.00
237, 97436.05, -187500.02, -187500.02, -187500.02, -187500.02, -187500.02, -187500.02, 18328.21, -0.00, -0.00, -0.00
238, 97376.58, -187500.02, -187500.02, -187500.02, -187500.02, -187500.02, -187500.02, 18309.52, -0.00, -0.00, -0.00
239, 97406.30, -187500.02, -187500.02, -187500.02, -187500.02, -187500.02, -187500.02, 18295.64, -0.00, -0.00, -0.00
240, 97474.01, -187500.02, -187500.02, -187500.02, -187500.02, -187500.02, -187500.02, 18259.21, -0.00, -0.00, -0.00
241, 97412.77, -187500.02, -187500.02, -187500.02, -187500.02, -187500.02, -187500.02, 18254.69, -0.00, -0.00, -0.00
242, 97373.31, -187500.02, -187500.02, -187500.02, -187500.02, -187500.02, -187500.02, 18232.94, -0.00, -0.00, -0.00
243, 97411.76, -187500.02, -187500.02, -187500.02, -187500.02, -187500.02, -187500.02, 18163.79, -0.00, -0.00, -0.00
244, 97458.81, -187500.02, -187500.02, -187500.02, -187500.02, -187500.02, -187500.02, 18125.56, -0.00, -0.00, -0.00
245, 97427.90, -187500.02, -187500.02, -187500.02, -187500.02, -187500.02, -187500.02, 18116.89, -0.00, -0.00, -0.00
246, 97390.81, -187500.02, -187500.02, -187500.02, -187500.02, -187500.02, -187500.02, 18082.47, -0.00, -0.00, -0.00
247, 97395.24, -187500.02, -187500.02, -187500.02, -187500.02, -187500.02, -187500.02, 18036.49, -0.00, -0.00, -0.00
248, 97447.86, -187500.02, -187500.02, -187500.02, -187500.02, -187500.02, -187500.02, 18011.73, -0.00, -0.00, -0.00
249, 97457.31, -187500.02, -187500.02, -187500.02, -187500.02, -187500.02, -187500.02, 17983.99, -0.00, -0.00, -0.00
250, 97396.59, -187500.02, -187500.02, -187500.02, -187500.02, -187500.02, -187500.02, 17944.76, -0.00, -0.00, -0.00
251, 97341.33, -187500.02, -187500.02, -187500.02, -187500.02, -187500.02, -187500.02, 17943.69, -0.00, -0.00, -0.00
252, 97418.33, -187500.02, -187500.02, -187500.02, -187500.02, -187500.02, -187500.02, 17917.92, -0.00, -0.00, -0.00
253, 97439.37, -187500.02, -187500.02, -187500.02, -187500.02, -187500.02, -187500.02, 17881.98, -0.00, -0.00, -0.00
254, 97377.49, -187500.02, -187500.02, -187500.02, -187500.02, -187500.02, -187500.02, 17855.00, -0.00, -0.00, -0.00
255, 97359.61, -187500.02, -187500.02, -187500.02, -187500.02, -187500.02, -187500.02, 17830.01, -0.00, -0.00, -0.00
0, 97425.41, -187500.02, -187500.02, -187500.02, -187500.02, -187500.02, -187500.02, 17787.72, -0.00, -0.00, -0.00
1, 97457.49, -187500.02, -187500.02, -187500.02, -187500.02, -187500.02, -187500.02, 17747.80, -0.00, -0.00, -0.00
2, 97401.08, -187500.02, -187500.02, -187500.02, -187500.02, -187500.02, -187500.02, 17720.15, -0.00, -0.00, -0.00
3, 97359.34, -187500.02, -187500.02, -187500.02, -187500.02, -187500.02, -187500.02, 17701.06, -0.00, -0.00, -0.00
4, 97404.30, -187500.02, -187500.02, -187500.02, -187500.02, -187500.02, -187500.02, 17663.96, -0.00, -0.00, -0.00
5, 97435.68, -187500.02, -187500.02, -187500.02, -187500.02, -187500.02, -187500.02, 17644.82, -0.00, -0.00, -0.00
6, 97413.64, -187500.02, -187500.02, -187500.02, -187500.02, -187500.02, -187500.02, 17599.99, -0.00, -0.00, -0.00
7, 97374.52, -187500.02, -187500.02, -187500.02, -187500.02, -187500.02, -187500.02, 17548.67, -0.00, -0.00, -0.00
8, 97392.20, -187500.02, -187500.02, -187500.02, -187500.02, -187500.02, -187500.02, 17519.54, -0.00, -0.00, -0.00
9, 97445.17, -187500.02, -187500.02, -187500.02, -187500.02, -187500.02, -187500.02, 17492.68, -0.00, -0.00, -0.00
10, 97429.38, -187500.02, -187500.02, -187500.02, -187500.02, -187500.02, -187500.02, 17452.09, -0.00, -0.00, -0.00
11, 97359.34, -187500.02, -187500.02, -187500.02, -187500.02, -187500.02, -187500.02, 17438.70, -0.00, -0.00, -0.00
12, 97366.09, -187500.02, -187500.02, -187500.02, -187500.02, -187500.02, -187500.02, 17439.88, -0.00, -0.00, -0.00
13, 97457.54, -187500.02, -187500.02, -187500.02, -187500.02, -187500.02, -187500.02, 17400.01, -0.00, -0.00, -0.00
14, 97443.21, -187500.02, -187500.02, -187500.02, -187500.02, -187500.02, -187500.02, 17357.54, -0.00, -0.00, -0.00
15, 97386.88, -187500.02, -187500.02, -187500.02, -187500.02, -187500.02, -187500.02, 17317.30, -0.00, -0.00, -0.00
16, 97365.56, -187500.02, -187500.02, -187500.02, -187500.02, -187500.02, -187500.02, 17293.19, -0.00, -0.00, -0.00
17, 97425.77, -187500.02, -187500.02, -187500.02, -187500.02, -187500.02, -187500.02, 17271.01, -0.00, -0.00, -0.00
18, 97423.92, -187500.02, -187500.02, -187500.02, -187500.02, -187500.02, -187500.02, 17250.81, -0.00, -0.00, -0.00
19, 97391.11, -187500.02, -187500.02, -187500.02, -187500.02, -187500.02, -187500.02, 17206.84, -0.00, -0.00, -0.00
20, 97376.00, -187500.02, -187500.02, -187500.02, -187500.02, -187500.02, -187500.02, 17161.67, -0.00, -0.00, -0.00
21, 97412.23, -187500.02, -187500.02, -187500.02, -187500.02, -187500.02, -187500.02, 17138.49, -0.00, -0.00, -0.00
22, 97447.88, -187500.02, -187500.02, -187500.02, -187500.02, -187500.02, -187500.02, 17096.98, -0.00, -0.00, -0.00
23, 97380.80, -187500.02, -187500.02, -187500.02, -187500.02, -187500.02, -187500.02, 17071.28, -0.00, -0.00, -0.00
24, 97370.84, -187500.02, -187500.02, -187500.02, -187500.02, -187500.02, -187500.02, 17032.56, -0.00, -0.00, -0.00
25, 97423.36, -187500.02, -187500.02, -187500.02, -187500.02, -187500.02, -187500.02, 16989.83, -0.00, -0.00, -0.00
26, 97433.58, -187500.02, -187500.02, -187500.02, -187500.02, -187500.02, -187500.02, 16975.10, -0.00, -0.00, -0.00
27, 97407.60, -187500.02, -187500.02, -187500.02, -187500.02, -187500.02, -187500.02, 16940.39, -0.00, -0.00, -0.00
28, 97360.35, -187500.02, -187500.02, -187500.02, -187500.02, -187500.02, -187500.02, 16903.21, -0.00, -0.00, -0.00
29, 97380.58, -187500.02, -187500.02, -187500.02, -187500.02, -187500.02, -187500.02, 16892.40, -0.00, -0.00, -0.00
30, 97447.84, -187500.02, -187500.02, -187500.02, -187500.02, -187500.02, -187500.02, 16874.90, -0.00, -0.00, -0.00
31, 97441.27, -187500.02, -187500.02, -187500.02, -187500.02, -187500.02, -187500.02, 16819.40, -0.00, -0.00, -0.00
32, 97373.12, -187500.02, -187500.02, -187500.02, -187500.02, -187500.02, -187500.02, 16773.98, -0.00, -0.00, -0.00
33, 97397.27, -187500.02, -187500.02, -187500.02, -187500.02, -187500.02, -187500.02, 16746.11, -0.00, -0.00, -0.00
34, 97448.77, -187500.02, -187500.02, -187500.02, -187500.02, -187500.02, -187500.02, 16710.30, -0.00, -0.00, -0.00
35, 97410.30, -187500.02, -187500.02, -187500.02, -187500.02, -187500.02, -187500.02, 16684.15, -0.00, -0.00, -0.00
36, 97350.02, -187500.02, -187500.02, -187500.02, -187500.02, -187500.02, -187500.02, 16660.90, -0.00, -0.00, -0.00
37, 97369.49, -187500.02, -187500.02, -187500.02, -187500.02, -187500.02, -187500.02, 16639.29, -0.00, -0.00, -0.00
38, 97428.23, -187500.02, -187500.02, -187500.02, -187500.02, -187500.02, -187500.02, 16605.07, -0.00, -0.00, -0.00
39, 97436.97, -187500.02, -187500.02, -187500.02, -187500.02, -187500.02, -187500.02, 16560.36, -0.00, -0.00, -0.00
40, 97353.82, -187500.02, -187500.02, -187500.02, -187500.02, -187500.02, -187500.02, 16541.30, -0.00, -0.00, -0.00
41, 97357.06, -187500.02, -187500.02, -187500.02, -187500.02, -187500.02, -187500.02, 16534.43, -0.00, -0.00, -0.00
42, 97429.53, -187500.02, -187500.02, -187500.02, -187500.02, -187500.02, -187500.02, 16488.39, -0.00, -0.00, -0.00
43, 97444.59, -187500.02, -187500.02, -187500.02, -187500.02, -187500.02, -187500.02, 16449.19, -0.00, -0.00, -0.00
44, 97380.96, -187500.02, -187500.02, -187500.02, -187500.02, -187500.02, -187500.02, 16406.31, -0.00, -0.00, -0.00
45, 97360.38, -187500.02, -187500.02, -187500.02, -187500.02, -187500.02, -187500.02, 16371.53, -0.00, -0.00, -0.00
46, 97396.96, -187500.02, -187500.02, -187500.02, -187500.02, -187500.02, -187500.02, 16350.88, -0.00, -0.00, -0.00
47, 97428.03, -187500.02, -187500.02, -187500.02, -187500.02, -187500.02, -187500.02, 16337.92, -0.00, -0.00, -0.00
48, 97390.99, -187500.02, -187500.02, -187500.02, -187500.02, -187500.02, -187500.02, 16297.06, -0.00, -0.00, -0.00
49, 97383.20, -187500.02, -187500.02, -187500.02, -187500.02, -187500.02, -187500.02, 16240.35, -0.00, -0.00, -0.00
50, 97422.38, -187500.02, -187500.02, -187500.02, -187500.02, -187500.02, -187500.02, 16197.28, -0.00, -0.00, -0.00
51, 97427.80, -187500.02, -187500.02, -187500.02, -187500.02, -187500.02, -187500.02, 16193.53, -0.00, -0.00, -0.00
52, 97389.88, -187500.02, -187500.02, -187500.02, -187500.02, -187500.02, -187500.02, 16179.51, -0.00, -0.00, -0.00
53, 97369.85, -187500.02, -187500.02, -187500.02, -187500.02, -187500.02, -187500.02, 16130.18, -0.00, -0.00, -0.00
54, 97377.12, -187500.02, -187500.02, -187500.02, -187500.02, -187500.02, -187500.02, 16116.28, -0.00, -0.00, -0.00
55, 97402.38, -187500.02, -187500.02, -187500.02, -187500.02, -187500.02, -187500.02, 16113.80, -0.00, -0.00, -0.00
56, 97401.73, -187500.02, -187500.02, -187500.02, -187500.02, -187500.02, -187500.02, 16080.09, -0.00, -0.00, -0.00
57, 97358.30, -187500.02, -187500.02, -187500.02, -187500.02, -187500.02, -187500.02, 16027.41, -0.00, -0.00, -0.00
58, 97344.05, -187500.02, -187500.02, -187500.02, -187500.02, -187500.02, -187500.02, 16031.03, -0.00, -0.00, -0.00
59, 97438.38, -187500.02, -187500.02, -187500.02, -187500.02, -187500.02, -187500.02, 15988.02, -0.00, -0.00, -0.00
60, 97421.95, -187500.02, -187500.02, -187500.02, -187500.02, -187500.02, -187500.02, 15944.82, -0.00, -0.00, -0.00
61, 97364.33, -187500.02, -187500.02, -187500.02, -187500.02, -187500.02, -187500.02, 15902.06, -0.00, -0.00, -0.00
62, 97376.98, -187500.02, -187500.02, -187500.02, -187500.02, -187500.02, -187500.02, 15864.17, -0.00, -0.00, -0.00
63, 97421.93, -187500.02, -187500.02, -187500.02, -187500.02, -187500.02, -187500.02, 15842.38, -0.00, -0.00, -0.00
64, 97407.91, -187500.02, -187500.02, -187500.02, -187500.02, -187500.02, -187500.02, 15830.82, -0.00, -0.00, -0.00
65, 97366.41, -187500.02, -187500.02, -187500.02, -187500.02, -187500.02, -187500.02, 15794.84, -0.00, -0.00, -0.00
66, 97360.98, -187500.02, -187500.02, -187500.02, -187500.02, -187500.02, -187500.02, 15763.41, -0.00, -0.00, -0.00
67, 97420.61, -187500.02, -187500.02, -187500.02, -187500.02, -187500.02, -187500.02, 15721.46, -0.00, -0.00, -0.00
68, 97417.21, -187500.02, -187500.02, -187500.02, -187500.02, -187500.02, -187500.02, 15697.96, -0.00, -0.00, -0.00
69, 97370.03, -187500.02, -187500.02, -187500.02, -187500.02, -187500.02, -187500.02, 15666.67, -0.00, -0.00, -0.00
70, 97338.18, -187500.02, -187500.02, -187500.02, -187500.02, -187500.02, -187500.02, 15643.67, -0.00, -0.00, -0.00
71, 97393.25, -187500.02, -187500.02, -187500.02, -187500.02, -187500.02, -187500.02, 15618.57, -0.00, -0.00, -0.00
72, 97422.47, -187500.02, -187500.02, -187500.02, -187500.02, -187500.02, -187500.02, 15594.19, -0.00, -0.00, -0.00
73, 97395.06, -187500.02, -187500.02, -187500.02, -187500.02, -187500.02, -187500.02, 15550.91, -0.00, -0.00, -0.00
74, 97352.70, -187500.02, -187500.02, -187500.02, -187500.02, -187500.02, -187500.02, 15513.63, -0.00, -0.00, -0.00
75, 97382.44, -187500.02, -187500.02, -187500.02, -187500.02, -187500.02, -187500.02, 15494.18, -0.00, -0.00, -0.00
76, 97426.52, -187500.02, -187500.02, -187500.02, -187500.02, -187500.02, -187500.02, 15490.18, -0.00, -0.00, -0.00
77, 97410.89, -187500.02, -187500.02, -187500.02, -187500.02, -187500.02, -187500.02, 15438.68, -0.00, -0.00, -0.00
78, 97362.38, -187500.02, -187500.02, -187500.02, -187500.02, -187500.02, -187500.02, 15380.19, -0.00, -0.00, -0.00
79, 97367.30, -187500.02, -187500.02, -187500.02, -187500.02, -187500.02, -187500.02, 15351.87, -0.00, -0.00, -0.00
80, 97393.14, -187500.02, -187500.02, -187500.02, -187500.02, -187500.02, -187500.02, 15349.81, -0.00, -0.00, -0.00
81, 97374.12, -187500.02, -187500.02, -187500.02, -187500.02, -187500.02, -187500.02, 15313.47, -0.00, -0.00, -0.00
82, 97318.22, -187500.02, -187500.02, -187500.02, -187500.02, -187500.02, -187500.02, 15265.35, -0.00, -0.00, -0.00
83, 97310.91, -187500.02, -187500.02, -187500.02, -187500.02, -187500.02, -187500.02, 15227.24, -0.00, -0.00, -0.00
84, 97332.75, -187500.02, -187500.02, -187500.02, -187500.02, -187500.02, -187500.02, 15198.16, -0.00, -0.00, -0.00
85, 97276.73, -187500.02, -187500.02, -187500.02, -187500.02, -187500.02, -187500.02, 15174.46, -0.00, -0.00, -0.00
86, 97215.76, -187500.02, -187500.02, -187500.02, -187500.02, -187500.02, -187500.02, 15122.36, -0.00, -0.00, -0.00
87, 97164.35, -187500.02, -187500.02, -187500.02, -187500.02, -187500.02, -187500.02, 15108.15, -0.00, -0.00, -0.00
88, 97189.09, -187500.02, -187500.02, -187500.02, -187500.02, -187500.02, -187500.02, 15102.87, -0.00, -0.00, -0.00
89, 97188.27, -187500.02, -187500.02, -187500.02, -187500.02, -187500.02, -187500.02, 15059.22, -0.00, -0.00, -0.00
90, 97112.76, -187500.02, -187500.02, -187500.02, -187500.02, -187500.02, -187500.02, 15019.52, -0.00, -0.00, -0.00
91, 97070.72, -187500.02, -187500.02, -187500.02, -187500.02, -187500.02, -187500.02, 14999.54, -0.00, -0.00, -0.00
92, 97129.70, -187500.02, -187500.02, -187500.02, -187500.02, -187500.02, -187500.02, 14970.82, -0.00, -0.00, -0.00
93, 97142.09, -187500.02, -187500.02, -187500.02, -187500.02, -187500.02, -187500.02, 14942.59, -0.00, -0.00, -0.00
94, 97062.54, -187500.02, -187500.02, -187500.02, -187500.02, -187500.02, -187500.02, 14925.67, -0.00, -0.00, -0.00
95, 97016.56, -187500.02, -187500.02, -187500.02, -187500.02, -187500.02, -187500.02, 14906.38, -0.00, -0.00, -0.00
96, 97072.57, -187500.02, -187500.02, -187500.02, -187500.02, -187500.02, -187500.02, 14879.67, -0.00, -0.00, -0.00
97, 97128.97, -187500.02, -187500.02, -187500.02, -187500.02, -187500.02, -187500.02, 14846.09, -0.00, -0.00, -0.00
98, 97069.89, -187500.02, -187500.02, -187500.02, -187500.02, -187500.02, -187500.02, 14817.87, -0.00, -0.00, -0.00
99, 97039.78, -187500.02, -187500.02, -187500.02, -187500.02, -187500.02, -187500.02, 14751.79, -0.00, -0.00, -0.00
100, 97048.03, -187500.02, -187500.02, -187500.02, -187500.02, -187500.02, -187500.02, 14725.40, -0.00, -0.00, -0.00
101, 97106.55, -187500.02, -187500.02, -187500.02, -187500.02, -187500.02, -187500.02, 14701.73, -0.00, -0.00, -0.00
102, 97079.73, -187500.02, -187500.02, -187500.02, -187500.02, -187500.02, -187500.02, 14664.26, -0.00, -0.00, -0.00
103, 97003.73, -187500.02, -187500.02, -187500.02, -187500.02, -187500.02, -187500.02, 14628.95, -0.00, -0.00, -0.00
104, 97019.22, -187500.02, -187500.02, -187500.02, -187500.02, -187500.02, -187500.02, 14604.70, -0.00, -0.00, -0.00
105, 97069.13, -187500.02, -187500.02, -187500.02, -187500.02, -187500.02, -187500.02, 14578.52, -0.00, -0.00, -0.00
106, 97067.66, -187500.02, -187500.02, -187500.02, -187500.02, -187500.02, -187500.02, 14554.14, -0.00, -0.00, -0.00
107, 97025.55, -187500.02, -187500.02, -187500.02, -187500.02, -187500.02, -187500.02, 14508.83, -0.00, -0.00, -0.00
108, 97025.23, -187500.02, -187500.02, -187500.02, -187500.02, -187500.02, -187500.02, 14496.29, -0.00, -0.00, -0.00
109, 97078.32, -187500.02, -187500.02, -187500.02, -187500.02, -187500.02, -187500.02, 14478.32, -0.00, -0.00, -0.00
110, 97064.81, -187500.02, -187500.02, -187500.02, -187500.02, -187500.02, -187500.02, 14450.76, -0.00, -0.00, -0.00
111, 97010.73, -187500.02, -187500.02, -187500.02, -187500.02, -187500.02, -187500.02, 14413.43, -0.00, -0.00, -0.00
112, 96997.36, -187500.02, -187500.02, -187500.02, -187500.02, -187500.02, -187500.02, 14386.19, -0.00, -0.00, -0.00
113, 97044.74, -187500.02, -187500.02, -187500.02, -187500.02, -187500.02, -187500.02, 14350.22, -0.00, -0.00, -0.00
114, 97033.08, -187500.02, -187500.02, -187500.02, -187500.02, -187500.02, -187500.02, 14326.98, -0.00, -0.00, -0.00
115, 96978.18, -187500.02, -187500.02, -187500.02, -187500.02, -187500.02, -187500.02, 14302.57, -0.00, -0.00, -0.00
116, 96970.34, -187500.02, -187500.02, -187500.02, -187500.02, -187500.02, -187500.02, 14263.56, -0.00, -0.00, -0.00
117, 97015.76, -187500.02, -187500.02, -187500.02, -187500.02, -187500.02, -187500.02, 14242.38, -0.00, -0.00, -0.00
118, 97043.72, -187500.02, -187500.02, -187500.02, -187500.02, -187500.02, -187500.02, 14223.00, -0.00, -0.00, -0.00
119, 97001.67, -187500.02, -187500.02, -187500.02, -187500.02, -187500.02, -187500.02, 14191.41, -0.00, -0.00, -0.00
120, 96961.66, -187500.02, -187500.02, -187500.02, -187500.02, -187500.02, -187500.02, 14172.39, -0.00, -0.00, -0.00
121, 97025.99, -187500.02, -187500.02, -187500.02, -187500.02, -187500.02, -187500.02, 14129.99, -0.00, -0.00, -0.00
122, 97063.36, -187500.02, -187500.02, -187500.02, -187500.02, -187500.02, -187500.02, 14085.89, -0.00, -0.00, -0.00
123, 97012.02, -187500.02, -187500.02, -187500.02, -187500.02, -187500.02, -187500.02, 14046.66, -0.00, -0.00, -0.00
124, 96947.54, -187500.02, -187500.02, -187500.02, -187500.02, -187500.02, -187500.02, 14026.97, -0.00, -0.00, -0.00
125, 96964.23, -187500.02, -187500.02, -187500.02, -187500.02, -187500.02, -187500.02, 14017.85, -0.00, -0.00, -0.00
126, 97019.82, -187500.02, -187500.02, -187500.02, -187500.02, -187500.02, -187500.02, 14000.26, -0.00, -0.00, -0.00
127, 97011.71, -187500.02, -187500.02, -187500.02, -187500.02, -187500.02, -187500.02, 13965.88, -0.00, -0.00, -0.00
128, 96989.52, -187500.02, -187500.02, -187500.02, -187500.02, -187500.02, -187500.02, 13917.72, -0.00, -0.00, -0.00
129, 96987.93, -187500.02, -187500.02, -187500.02, -187500.02, -187500.02, -187500.02, 13896.50, -0.00, -0.00, -0.00
130, 97010.68, -187500.02, -187500.02, -187500.02, -187500.02, -187500.02, -187500.02, 13887.79, -0.00, -0.00, -0.00
131, 96988.41, -187500.02, -187500.02, -187500.02, -187500.02, -187500.02, -187500.02, 13854.21, -0.00, -0.00, -0.00
132, 96956.03, -187500.02, -187500.02, -187500.02, -187500.02, -187500.02, -187500.02, 13817.36, -0.00, -0.00, -0.00
133, 96969.84, -187500.02, -187500.02, -187500.02, -187500.02, -187500.02, -187500.02, 13780.25, -0.00, -0.00, -0.00
134, 97023.66, -187500.02, -187500.02, -187500.02, -187500.02, -187500.02, -187500.02, 13759.53, -0.00, -0.00, -0.00
135, 97037.26, -187500.02, -187500.02, -187500.02, -187500.02, -187500.02, -187500.02, 13710.54, -0.00, -0.00, -0.00
136, 96971.54, -187500.02, -187500.02, -187500.02, -187500.02, -187500.02, -187500.02, 13677.99, -0.00, -0.00, -0.00
137, 96961.57, -187500.02, -187500.02, -187500.02, -187500.02, -187500.02, -187500.02, 13655.08, -0.00, -0.00, -0.00
138, 97000.31, -187500.02, -187500.02, -187500.02, -187500.02, -187500.02, -187500.02, 13646.70, -0.00, -0.00, -0.00
139, 97009.95, -187500.02, -187500.02, -187500.02, -187500.02, -187500.02, -187500.02, 13598.71, -0.00, -0.00, -0.00
140, 96945.73, -187500.02, -187500.02, -187500.02, -187500.02, -187500.02, -187500.02, 13577.70, -0.00, -0.00, -0.00
141, 96918.26, -187500.02, -187500.02, -187500.02, -187500.02, -187500.02, -187500.02, 13559.80, -0.00, -0.00, -0.00
142, 96965.44, -187500.02, -187500.02, -187500.02, -187500.02, -187500.02, -187500.02, 13534.90, -0.00, -0.00, -0.00
143, 96985.67, -187500.02, -187500.02, -187500.02, -187500.02, -187500.02, -187500.02, 13526.09, -0.00, -0.00, -0.00
144, 96961.30, -187500.02, -187500.02, -187500.02, -187500.02, -187500.02, -187500.02, 13498.51, -0.00, -0.00, -0.00
145, 96929.66, -187500.02, -187500.02, -187500.02, -187500.02, -187500.02, -187500.02, 13460.26, -0.00, -0.00, -0.00
146, 96988.91, -187500.02, -187500.02, -187500.02, -187500.02, -187500.02, -187500.02, 13432.59, -0.00, -0.00, -0.00
147, 97013.48, -187500.02, -187500.02, -187500.02, -187500.02, -187500.02, -187500.02, 13424.37, -0.00, -0.00, -0.00
148, 96984.46, -187500.02, -187500.02, -187500.02, -187500.02, -187500.02, -187500.02, 13392.87, -0.00, -0.00, -0.00
149, 96909.27, -187500.02, -187500.02, -187500.02, -187500.02, -187500.02, -187500.02, 13373.00, -0.00, -0.00, -0.00
150, 96949.19, -187500.02, -187500.02, -187500.02, -187500.02, -187500.02, -187500.02, 13347.43, -0.00, -0.00, -0.00
151, 97001.47, -187500.02, -187500.02, -187500.02, -187500.02, -187500.02, -187500.02, 13310.33, -0.00, -0.00, -0.00
152, 96993.16, -187500.02, -187500.02, -187500.02, -187500.02, -187500.02, -187500.02, 13266.05, -0.00, -0.00, -0.00
153, 96930.33, -187500.02, -187500.02, -187500.02, -187500.02, -187500.02, -187500.02, 13236.46, -0.00, -0.00, -0.00
154, 96918.63, -187500.02, -187500.02, -187500.02, -187500.02, -187500.02, -187500.02, 13240.57, -0.00, -0.00, -0.00
155, 97005.34, -187500.02, -187500.02, -187500.02, -187500.02, -187500.02, -187500.02, 13209.46, -0.00, -0.00, -0.00
156, 97008.65, -187500.02, -187500.02, -187500.02, -187500.02, -187500.02, -187500.02, 13165.45, -0.00, -0.00, -0.00
157, 96930.86, -187500.02, -187500.02, -187500.02, -187500.02, -187500.02, -187500.02, 13161.71, -0.00, -0.00, -0.00
158, 96933.84, -187500.02, -187500.02, -187500.02, -187500.02, -187500.02, -187500.02, 13142.18, -0.00, -0.00, -0.00
159, 96977.53, -187500.02, -187500.02, -187500.02, -187500.02, -187500.02, -187500.02, 13128.12, -0.00, -0.00, -0.00
160, 96991.44, -187500.02, -187500.02, -187500.02, -187500.02, -187500.02, -187500.02, 13083.55, -0.00, -0.00, -0.00
161, 96947.34, -187500.02, -187500.02, -187500.02, -187500.02, -187500.02, -187500.02, 13039.92, -0.00, -0.00, -0.00
162, 96924.18, -187500.02, -187500.02, -187500.02, -187500.02, -187500.02, -187500.02, 13022.71, -0.00, -0.00, -0.00
163, 96988.80, -187500.02, -187500.02, -187500.02, -187500.02, -187500.02, -187500.02, 12986.65, -0.00, -0.00, -0.00
164, 97002.99, -187500.02, -187500.02, -187500.02, -187500.02, -187500.02, -187500.02, 12943.47, -0.00, -0.00, -0.00
165, 96943.54, -187500.02, -187500.02, -187500.02, -187500.02, -187500.02, -187500.02, 12918.12, -0.00, -0.00, -0.00
166, 96932.92, -187500.02, -187500.02, -187500.02, -187500.02, -187500.02, -187500.02, 12894.56, -0.00, -0.00, -0.00
167, 96983.75, -187500.02, -187500.02, -187500.02, -187500.02, -187500.02, -187500.02, 12880.88, -0.00, -0.00, -0.00
168, 97001.90, -187500.02, -187500.02, -187500.02, -187500.02, -187500.02, -187500.02, 12851.83, -0.00, -0.00, -0.00
169, 96933.21, -187500.02, -187500.02, -187500.02, -187500.02, -187500.02, -187500.02, 12841.01, -0.00, -0.00, -0.00
170, 96904.98, -187500.02, -187500.02, -187500.02, -187500.02, -187500.02, -187500.02, 12827.17, -0.00, -0.00, -0.00
171, 96963.83, -187500.02, -187500.02, -187500.02, -187500.02, -187500.02, -187500.02, 12796.33, -0.00, -0.00, -0.00
172, 96991.21, -187500.02, -187500.02, -187500.02, -187500.02, -187500.02, -187500.02, 12766.96, -0.00, -0.00, -0.00
173, 96960.55, -187500.02, -187500.02, -187500.02, -187500.02, -187500.02, -187500.02, 12746.73, -0.00, -0.00, -0.00
174, 96918.97, -187500.02, -187500.02, -187500.02, -187500.02, -187500.02, -187500.02, 12721.79, -0.00, -0.00, -0.00
175, 96963.05, -187500.02, -187500.02, -187500.02, -187500.02, -187500.02, -187500.02, 12686.16, -0.00, -0.00, -0.00
176, 97009.67, -187500.02, -187500.02, -187500.02, -187500.02, -187500.02, -187500.02, 12653.46, -0.00, -0.00, -0.00
177, 96992.62, -187500.02, -187500.02, -187500.02, -187500.02, -187500.02, -187500.02, 12625.07, -0.00, -0.00, -0.00
178, 96946.33, -187500.02, -187500.02, -187500.02, -187500.02, -187500.02, -187500.02, 12593.62, -0.00, -0.00, -0.00
179, 96945.77, -187500.02, -187500.02, -187500.02, -187500.02, -187500.02, -187500.02, 12576.19, -0.00, -0.00, -0.00
180, 97003.84, -187500.02, -187500.02, -187500.02, -187500.02, -187500.02, -187500.02, 12544.67, -0.00, -0.00, -0.00
181, 96989.34, -187500.02, -187500.02, -187500.02, -187500.02, -187500.02, -187500.02, 12524.00, -0.00, -0.00, -0.00
182, 96917.92, -187500.02, -187500.02, -187500.02, -187500.02, -187500.02, -187500.02, 12511.81, -0.00, -0.00, -0.00
183, 96936.00, -187500.02, -187500.02, -187500.02, -187500.02, -187500.02, -187500.02, 12499.47, -0.00, -0.00, -0.00
184, 97016.83, -187500.02, -187500.02, -187500.02, -187500.02, -187500.02, -187500.02, 12468.12, -0.00, -0.00, -0.00
185, 97011.10, -187500.02, -187500.02, -187500.02, -187500.02, -187500.02, -187500.02, 12421.38, -0.00, -0.00, -0.00
186, 96944.72, -187500.02, -187500.02, -187500.02, -187500.02, -187500.02, -187500.02, 12397.01, -0.00, -0.00, -0.00
187, 96934.69, -187500.02, -187500.02, -187500.02, -187500.02, -187500.02, -187500.02, 12372.41, -0.00, -0.00, -0.00
188, 97006.19, -187500.02, -187500.02, -187500.02, -187500.02, -187500.02, -187500.02, 12336.98, -0.00, -0.00, -0.00
189, 97033.81, -187500.02, -187500.02, -187500.02, -187500.02, -187500.02, -187500.02, 12301.33, -0.00, -0.00, -0.00
190, 96964.81, -187500.02, -187500.02, -187500.02, -187500.02, -187500.02, -187500.02, 12268.49, -0.00, -0.00, -0.00
191, 96918.95, -187500.02, -187500.02, -187500.02, -187500.02, -187500.02, -187500.02, 12232.62, -0.00, -0.00, -0.00
192, 96958.76, -187500.02, -187500.02, -187500.02, -187500.02, -187500.02, -187500.02, 12220.06, -0.00, -0.00, -0.00
193, 97009.23, -187500.02, -187500.02, -187500.02, -187500.02, -187500.02, -187500.02, 12191.62, -0.00, -0.00, -0.00
194, 96967.43, -187500.02, -187500.02, -187500.02, -187500.02, -187500.02, -187500.02, 12164.96, -0.00, -0.00, -0.00
195, 96919.58, -187500.02, -187500.02, -187500.02, -187500.02, -187500.02, -187500.02, 12144.02, -0.00, -0.00, -0.00
196, 96947.47, -187500.02, -187500.02, -187500.02, -187500.02, -187500.02, -187500.02, 12132.08, -0.00, -0.00, -0.00
197, 96991.57, -187500.02, -187500.02, -187500.02, -187500.02, -187500.02, -187500.02, 12124.90, -0.00, -0.00, -0.00
198, 96995.19, -187500.02, -187500.02, -187500.02, -187500.02, -187500.02, -187500.02, 12085.16, -0.00, -0.00, -0.00
199, 96944.05, -187500.02, -187500.02, -187500.02, -187500.02, -187500.02, -187500.02, 12050.58, -0.00, -0.00, -0.00
200, 96972.10, -187500.02, -187500.02, -187500.02, -187500.02, -187500.02, -187500.02, 12035.63, -0.00, -0.00, -0.00
201, 97006.43, -187500.02, -187500.02, -187500.02, -187500.02, -187500.02, -187500.02, 12025.10, -0.00, -0.00, -0.00
202, 96964.08, -187500.02, -187500.02, -187500.02, -187500.02, -187500.02, -187500.02, 12023.88, -0.00, -0.00, -0.00
203, 96918.14, -187500.02, -187500.02, -187500.02, -187500.02, -187500.02, -187500.02, 11986.64, -0.00, -0.00, -0.00
204, 96945.03, -187500.02, -187500.02, -187500.02, -187500.02, -187500.02, -187500.02, 11937.24, -0.00, -0.00, -0.00
205, 97002.30, -187500.02, -187500.02, -187500.02, -187500.02, -187500.02, -187500.02, 11917.77, -0.00, -0.00, -0.00
206, 97012.13, -187500.02, -187500.02, -187500.02, -187500.02, -187500.02, -187500.02, 11899.20, -0.00, -0.00, -0.00
207, 96962.22, -187500.02, -187500.02, -187500.02, -187500.02, -187500.02, -187500.02, 11849.04, -0.00, -0.00, -0.00
208, 96932.96, -187500.02, -187500.02, -187500.02, -187500.02, -187500.02, -187500.02, 11822.20, -0.00, -0.00, -0.00
209, 96983.50, -187500.02, -187500.02, -187500.02, -187500.02, -187500.02, -187500.02, 11810.75, -0.00, -0.00, -0.00
210, 97011.02, -187500.02, -187500.02, -187500.02, -187500.02, -187500.02, -187500.02, 11812.47, -0.00, -0.00, -0.00
211, 96967.92, -187500.02, -187500.02, -187500.02, -187500.02, -187500.02, -187500.02, 11784.69, -0.00, -0.00, -0.00
212, 96942.82, -187500.02, -187500.02, -187500.02, -187500.02, -187500.02, -187500.02, 11737.79, -0.00, -0.00, -0.00
213, 96969.84, -187500.02, -187500.02, -187500.02, -187500.02, -187500.02, -187500.02, 11709.83, -0.00, -0.00, -0.00
214, 96987.10, -187500.02, -187500.02, -187500.02, -187500.02, -187500.02, -187500.02, 11697.18, -0.00, -0.00, -0.00
215, 96943.54, -187500.02, -187500.02, -187500.02, -187500.02, -187500.02, -187500.02, 11678.85, -0.00, -0.00, -0.00
216, 96905.07, -187500.02, -187500.02, -187500.02, -187500.02, -187500.02, -187500.02, 11671.50, -0.00, -0.00, -0.00
217, 96969.20, -187500.02, -187500.02, -187500.02, -187500.02, -187500.02, -187500.02, 11645.44, -0.00, -0.00, -0.00
218, 97002.68, -187500.02, -187500.02, -187500.02, -187500.02, -187500.02, -187500.02, 11622.97, -0.00, -0.00, -0.00
219, 96953.84, -187500.02, -187500.02, -187500.02, -187500.02, -187500.02, -187500.02, 11606.25, -0.00, -0.00, -0.00
220, 96937.86, -187500.02, -187500.02, -187500.02, -187500.02, -187500.02, -187500.02, 11564.43, -0.00, -0.00, -0.00
221, 96985.06, -187500.02, -187500.02, -187500.02, -187500.02, -187500.02, -187500.02, 11514.79, -0.00, -0.00, -0.00
222, 97035.55, -187500.02, -187500.02, -187500.02, -187500.02, -187500.02, -187500.02, 11497.76, -0.00, -0.00, -0.00
223, 96993.11, -187500.02, -187500.02, -187500.02, -187500.02, -187500.02, -187500.02, 11474.94, -0.00, -0.00, -0.00
224, 96925.92, -187500.02, -187500.02, -187500.02, -187500.02, -187500.02, -187500.02, 11452.79, -0.00, -0.00, -0.00
225, 96928.88, -187500.02, -187500.02, -187500.02, -187500.02, -187500.02, -187500.02, 11446.86, -0.00, -0.00, -0.00
226, 96984.73, -187500.02, -187500.02, -187500.02, -187500.02, -187500.02, -187500.02, 11436.31, -0.00, -0.00, -0.00
227, 96996.95, -187500.02, -187500.02, -187500.02, -187500.02, -187500.02, -187500.02, 11391.30, -0.00, -0.00, -0.00
228, 96948.12, -187500.02, -187500.02, -187500.02, -187500.02, -187500.02, -187500.02, 11341.14, -0.00, -0.00, -0.00
229, 96945.88, -187500.02, -187500.02, -187500.02, -187500.02, -187500.02, -187500.02, 11325.47, -0.00, -0.00, -0.00
230, 97011.24, -187500.02, -187500.02, -187500.02, -187500.02, -187500.02, -187500.02, 11305.56, -0.00, -0.00, -0.00
231, 96991.15, -187500.02, -187500.02, -187500.02, -187500.02, -187500.02, -187500.02, 11304.24, -0.00, -0.00, -0.00
232, 96933.70, -187500.02, -187500.02, -187500.02, -187500.02, -187500.02, -187500.02, 11283.70, -0.00, -0.00, -0.00
233, 96917.20, -187500.02, -187500.02, -187500.02, -187500.02, -187500.02, -187500.02, 11263.25, -0.00, -0.00, -0.00
234, 96993.29, -187500.02, -187500.02, -187500.02, -187500.02, -187500.02, -187500.02, 11214.56, -0.00, -0.00, -0.00
235, 96995.75, -187500.02, -187500.02, -187500.02, -187500.02, -187500.02, -187500.02, 11197.55, -0.00, -0.00, -0.00
236, 96945.81, -187500.02, -187500.02, -187500.02, -187500.02, -187500.02, -187500.02, 11192.39, -0.00, -0.00, -0.00
237, 96926.55, -187500.02, -187500.02, -187500.02, -187500.02, -187500.02, -187500.02, 11162.59, -0.00, -0.00, -0.00
238, 96959.49, -187500.02, -187500.02, -187500.02, -187500.02, -187500.02, -187500.02, 11141.81, -0.00, -0.00, -0.00
239, 96998.14, -187500.02, -187500.02, -187500.02, -187500.02, -187500.02, -187500.02, 11125.98, -0.00, -0.00, -0.00
240, 96955.05, -187500.02, -187500.02, -187500.02, -187500.02, -187500.02, -187500.02, 11098.56, -0.00, -0.00, -0.00
241, 96949.34, -187500.02, -187500.02, -187500.02, -187500.02, -187500.02, -187500.02, 11060.83, -0.00, -0.00, -0.00
242, 97003.30, -187500.02, -187500.02, -187500.02, -187500.02, -187500.02, -187500.02, 11018.49, -0.00, -0.00, -0.00
243, 97007.04, -187500.02, -187500.02, -187500.02, -187500.02, -187500.02, -187500.02, 10986.24, -0.00, -0.00, -0.00
244, 96939.87, -187500.02, -187500.02, -187500.02, -187500.02, -187500.02, -187500.02, 10976.02, -0.00, -0.00, -0.00
245, 96923.98, -187500.02, -187500.02, -187500.02, -187500.02, -187500.02, -187500.02, 10935.17, -0.00, -0.00, -0.00
246, 96949.59, -187500.02, -187500.02, -187500.02, -187500.02, -187500.02, -187500.02, 10922.98, -0.00, -0.00, -0.00
247, 97018.95, -187500.02, -187500.02, -187500.02, -187500.02, -187500.02, -187500.02, 10897.39, -0.00, -0.00, -0.00
248, 96995.34, -187500.02, -187500.02, -187500.02, -187500.02, -187500.02, -187500.02, 10848.40, -0.00, -0.00, -0.00
249, 96928.52, -187500.02, -187500.02, -187500.02, -187500.02, -187500.02, -187500.02, 10829.93, -0.00, -0.00, -0.00
250, 96941.13, -187500.02, -187500.02, -187500.02, -187500.02, -187500.02, -187500.02, 10822.40, -0.00, -0.00, -0.00
251, 97025.03, -187500.02, -187500.02, -187500.02, -187500.02, -187500.02, -187500.02, 10804.07, -0.00, -0.00, -0.00
252, 97048.30, -187500.02, -187500.02, -187500.02, -187500.02, -187500.02, -187500.02, 10757.98, -0.00, -0.00, -0.00
253, 96960.95, -187500.02, -187500.02, -187500.02, -187500.02, -187500.02, -187500.02, 10722.71, -0.00, -0.00, -0.00
254, 96925.81, -187500.02, -187500.02, -187500.02, -187500.02, -187500.02, -187500.02, 10715.72, -0.00, -0.00, -0.00
255, 96980.59, -187500.02, -187500.02, -187500.02, -187500.02, -187500.02, -187500.02, 10703.85, -0.00, -0.00, -0.00
0, 97010.63, -187500.02, -187500.02, -187500.02, -187500.02, -187500.02, -187500.02, 10673.76, -0.00, -0.00, -0.00
1, 96944.30, -187500.02, -187500.02, -187500.02, -187500.02, -187500.02, -187500.02, 10661.18, -0.00, -0.00, -0.00
2, 96938.15, -187500.02, -187500.02, -187500.02, -187500.02, -187500.02, -187500.02, 10627.87, -0.00, -0.00, -0.00
3, 96971.32, -187500.02, -187500.02, -187500.02, -187500.02, -187500.02, -187500.02, 10617.37, -0.00, -0.00, -0.00
