%OpenBCI Raw EEG Data
%
%Sample Rate = 250.0 Hz
%First Column = SampleIndex
%Other Columns = EEG data in microvolts followed by Accel Data (in G) interleaved with Aux Data
0, 35855.82, 18240.23, 22385.88, 4631.13, -187500.02, -187500.02, -187500.02, -71693.38, 0.05, -0.02, 0.53
1, 43753.49, 26341.28, 27875.57, 12413.62, -187500.02, -187500.02, -187500.02, -70771.59, 0.05, -0.02, 0.53
2, 52581.85, 35169.42, 36355.63, 21423.95, -187500.02, -187500.02, -187500.02, -67448.33, 0.09, -0.05, 1.01
3, 45744.83, 28137.85, 31895.63, 14735.05, -187500.02, -187500.02, -187500.02, -67956.34, 0.09, -0.05, 1.01
4, 36089.48, 18476.20, 22885.26, 4924.51, -187500.02, -187500.02, -187500.02, -71356.82, 0.09, -0.05, 1.01
5, 41568.50, 24158.81, 26077.76, 10243.42, -187500.02, -187500.02, -187500.02, -71326.07, 0.09, -0.05, 1.01
6, 52049.07, 34685.64, 35582.55, 20861.87, -187500.02, -187500.02, -187500.02, -67920.09, 0.09, -0.05, 1.01
7, 47853.21, 30296.31, 33576.75, 16853.68, -187500.02, -187500.02, -187500.02, -67526.83, 0.10, -0.04, 1.05
8, 36900.80, 19286.96, 23851.57, 5793.82, -187500.02, -187500.02, -187500.02, -70879.26, 0.10, -0.04, 1.05
9, 39614.75, 22191.50, 24555.67, 8311.99, -187500.02, -187500.02, -187500.02, -71721.36, 0.10, -0.04, 1.05
10, 50910.88, 33590.91, 34357.58, 19695.98, -187500.02, -187500.02, -187500.02, -68508.45, 0.10, -0.04, 1.05
11, 49624.47, 32142.77, 34885.55, 18625.62, -187500.02, -187500.02, -187500.02, -67265.92, 0.10, -0.04, 1.05
12, 38216.96, 20631.58, 25201.48, 7163.58, -187500.02, -187500.02, -187500.02, -70321.78, 0.11, -0.05, 1.06
13, 38004.22, 20588.08, 23419.55, 6741.78, -187500.02, -187500.02, -187500.02, -71961.75, 0.11, -0.05, 1.06
14, 49400.46, 32127.28, 32875.64, 18174.40, -187500.02, -187500.02, -187500.02, -69129.85, 0.11, -0.05, 1.06
15, 51107.13, 33694.20, 35908.28, 20105.10, -187477.69, -187500.02, -187500.02, -67118.45, 0.11, -0.05, 1.06
16, 39896.81, 22329.82, 26815.48, 8890.72, -187500.02, -187500.02, -187500.02, -69721.30, 0.11, -0.05, 1.06
17, 36752.55, 19312.00, 22609.30, 5527.27, -187500.02, -187500.02, -187500.02, -72075.39, 0.11, -0.05, 1.06
18, 47525.35, 30251.32, 31122.48, 16273.05, -187500.02, -187500.02, -187500.02, -69803.52, 0.11, -0.05, 1.06
19, 52122.63, 34757.99, 36482.92, 21094.28, -187476.80, -187500.02, -187500.02, -67147.84, 0.11, -0.05, 1.06
20, 41890.99, 24354.86, 28614.84, 10925.58, -187500.02, -187500.02, -187500.02, -69105.96, 0.11, -0.05, 1.06
21, 35994.27, 18540.46, 22242.15, 4819.13, -187500.02, -187500.02, -187500.02, -72024.94, 0.11, -0.05, 1.06
22, 45402.80, 28146.93, 29251.44, 14149.73, -187500.02, -187500.02, -187500.02, -70472.73, 0.11, -0.04, 1.05
23, 52528.90, 35229.61, 36523.51, 21480.67, -187500.02, -187500.02, -187500.02, -67373.68, 0.11, -0.04, 1.05
24, 44071.18, 26574.57, 30476.24, 13133.28, -187500.02, -187500.02, -187500.02, -68515.63, 0.11, -0.04, 1.05
25, 35856.06, 18390.05, 22409.10, 4737.18, -187500.02, -187500.02, -187500.02, -71768.86, 0.11, -0.04, 1.05
26, 43214.53, 25953.79, 27384.75, 11967.68, -187500.02, -187500.02, -187500.02, -71068.11, 0.11, -0.04, 1.05
27, 52436.97, 35179.27, 36130.03, 21357.14, -187500.02, -187500.02, -187500.02, -67727.82, 0.10, -0.05, 1.07
28, 46254.61, 28804.71, 32271.09, 15336.63, -187500.02, -187500.02, -187500.02, -68003.08, 0.10, -0.05, 1.07
29, 36232.38, 18763.80, 23048.25, 5166.45, -187500.02, -187500.02, -187500.02, -71397.03, 0.10, -0.05, 1.07
30, 41153.07, 23883.62, 25726.14, 9916.26, -187500.02, -187500.02, -187500.02, -71548.60, 0.10, -0.05, 1.07
31, 51810.70, 34601.39, 35305.34, 20702.36, -187500.02, -187500.02, -187500.02, -68190.70, 0.10, -0.05, 1.07
32, 48300.31, 30904.01, 33914.14, 17385.81, -187500.02, -187500.02, -187500.02, -67594.63, 0.10, -0.04, 1.06
33, 37131.23, 19661.96, 24089.99, 6116.98, -187500.02, -187500.02, -187500.02, -70913.09, 0.10, -0.04, 1.06
34, 39272.08, 21989.78, 24274.11, 8060.66, -187500.02, -187500.02, -187500.02, -71915.82, 0.10, -0.04, 1.06
35, 50611.10, 33433.02, 34032.74, 19475.90, -187500.02, -187500.02, -187500.02, -68778.35, 0.10, -0.04, 1.06
36, 50022.44, 32686.34, 35192.42, 19104.19, -187500.02, -187500.02, -187500.02, -67351.77, 0.10, -0.04, 1.06
37, 38512.14, 21060.97, 25536.15, 7551.45, -187500.02, -187500.02, -187500.02, -70350.41, 0.10, -0.04, 1.06
38, 37648.63, 20353.41, 23193.26, 6473.56, -187500.02, -187500.02, -187500.02, -72169.55, 0.10, -0.05, 1.05
39, 48952.98, 31802.37, 32481.29, 17795.83, -187500.02, -187500.02, -187500.02, -69452.32, 0.10, -0.05, 1.05
40, 51376.02, 34100.04, 36091.90, 20441.32, -187471.23, -187500.02, -187500.02, -67272.60, 0.10, -0.05, 1.05
41, 40291.30, 22858.10, 27222.50, 9369.16, -187500.02, -187500.02, -187500.02, -69747.16, 0.10, -0.05, 1.05
42, 36573.11, 19246.82, 22579.60, 5429.24, -187500.02, -187500.02, -187500.02, -72215.53, 0.10, -0.05, 1.05
43, 47008.29, 29852.74, 30748.31, 15824.77, -187500.02, -187500.02, -187500.02, -70117.66, 0.09, -0.05, 1.05
44, 52259.54, 35016.67, 36628.34, 21292.74, -187500.02, -187500.02, -187500.02, -67335.50, 0.09, -0.05, 1.05
45, 42355.06, 24932.56, 29130.11, 11460.88, -187500.02, -187500.02, -187500.02, -69113.88, 0.09, -0.05, 1.05
46, 35898.78, 18549.64, 22359.79, 4800.66, -187500.02, -187500.02, -187500.02, -72128.02, 0.09, -0.05, 1.05
47, 44850.02, 27697.25, 28894.08, 13658.73, -187500.02, -187500.02, -187500.02, -70779.03, 0.09, -0.05, 1.05
48, 52666.95, 35478.66, 36706.57, 21669.79, -187500.02, -187500.02, -187500.02, -67550.79, 0.10, -0.05, 1.07
49, 44606.59, 27211.73, 31113.69, 13728.26, -187500.02, -187500.02, -187500.02, -68508.97, 0.10, -0.05, 1.07
50, 35860.78, 18486.26, 22681.57, 4805.49, -187500.02, -187500.02, -187500.02, -71849.34, 0.10, -0.05, 1.07
51, 42692.75, 25523.10, 27117.43, 11498.76, -187500.02, -187500.02, -187500.02, -71343.86, 0.10, -0.05, 1.07
52, 52355.00, 35206.19, 36162.75, 21321.51, -187500.02, -187500.02, -187500.02, -67964.37, 0.10, -0.05, 1.07
53, 46681.55, 29339.37, 32815.91, 15814.06, -187500.02, -187500.02, -187500.02, -68068.55, 0.09, -0.05, 1.06
54, 36407.10, 19027.39, 23454.00, 5401.28, -187500.02, -187500.02, -187500.02, -71453.25, 0.09, -0.05, 1.06
55, 40656.84, 23473.53, 25537.67, 9471.53, -187500.02, -187500.02, -187500.02, -71814.19, 0.09, -0.05, 1.06
56, 51578.50, 34466.01, 35240.07, 20506.56, -187500.02, -187500.02, -187500.02, -68477.72, 0.09, -0.05, 1.06
57, 48702.44, 31400.45, 34412.32, 17822.74, -187500.02, -187500.02, -187500.02, -67691.23, 0.09, -0.05, 1.06
58, 37450.04, 20062.72, 24637.57, 6484.55, -187500.02, -187500.02, -187500.02, -70944.63, 0.10, -0.05, 1.05
59, 38816.62, 21609.17, 24162.32, 7650.17, -187500.02, -187500.02, -187500.02, -72170.45, 0.10, -0.05, 1.05
60, 50298.11, 33208.57, 33917.61, 19190.22, -187500.02, -187500.02, -187500.02, -69091.61, 0.10, -0.05, 1.05
61, 50409.64, 33163.59, 35673.81, 19524.92, -187500.02, -187500.02, -187500.02, -67459.48, 0.10, -0.05, 1.05
62, 38942.01, 21569.01, 26136.32, 8029.77, -187500.02, -187500.02, -187500.02, -70350.98, 0.10, -0.05, 1.05
63, 37340.80, 20115.92, 23167.56, 6210.34, -187500.02, -187500.02, -187500.02, -72356.02, 0.10, -0.05, 1.06
64, 48559.88, 31488.91, 32292.53, 17433.78, -187500.02, -187500.02, -187500.02, -69761.63, 0.10, -0.05, 1.06
65, 51618.76, 34426.38, 36450.48, 20714.99, -187480.55, -187500.02, -187500.02, -67433.34, 0.10, -0.05, 1.06
66, 40824.97, 23463.47, 27883.33, 9942.14, -187500.02, -187500.02, -187500.02, -69738.24, 0.10, -0.05, 1.06
67, 36334.91, 19074.93, 22584.04, 5234.53, -187500.02, -187500.02, -187500.02, -72388.00, 0.10, -0.05, 1.06
68, 46586.69, 29514.05, 30490.82, 15436.45, -187500.02, -187500.02, -187500.02, -70433.01, 0.10, -0.05, 1.06
69, 52397.85, 35252.39, 36807.02, 21465.47, -187500.02, -187500.02, -187500.02, -67546.34, 0.10, -0.05, 1.06
70, 42902.81, 25571.31, 29714.86, 12052.53, -187500.02, -187500.02, -187500.02, -69145.74, 0.10, -0.05, 1.06
71, 35874.30, 18604.12, 22505.52, 4829.50, -187500.02, -187500.02, -187500.02, -72243.65, 0.10, -0.05, 1.06
72, 44411.95, 27347.56, 28632.74, 13266.86, -187500.02, -187500.02, -187500.02, -71071.21, 0.10, -0.05, 1.06
73, 52601.57, 35520.59, 36682.48, 21649.50, -187500.02, -187500.02, -187500.02, -67817.07, 0.10, -0.05, 1.05
74, 45105.10, 27826.11, 31608.41, 14287.26, -187500.02, -187500.02, -187500.02, -68577.83, 0.10, -0.05, 1.05
75, 35953.85, 18676.71, 22914.36, 4967.54, -187500.02, -187500.02, -187500.02, -71947.05, 0.10, -0.05, 1.05
76, 42269.00, 25197.79, 26871.18, 11129.72, -187500.02, -187500.02, -187500.02, -71632.42, 0.10, -0.05, 1.05
77, 52220.45, 35174.18, 36063.24, 21232.86, -187500.02, -187500.02, -187500.02, -68256.16, 0.10, -0.05, 1.05
78, 47210.13, 29966.58, 33296.18, 16400.35, -187500.02, -187500.02, -187500.02, -68136.25, 0.10, -0.05, 1.06
79, 36539.49, 19254.31, 23691.15, 5609.37, -187500.02, -187500.02, -187500.02, -71543.73, 0.10, -0.05, 1.06
80, 40174.60, 23088.95, 25218.15, 9060.37, -187500.02, -187500.02, -187500.02, -72117.79, 0.10, -0.05, 1.06
81, 51268.21, 34272.02, 35000.35, 20260.63, -187500.02, -187500.02, -187500.02, -68827.55, 0.10, -0.05, 1.06
82, 49095.07, 31923.72, 34798.65, 18292.64, -187500.02, -187500.02, -187500.02, -67836.23, 0.10, -0.05, 1.06
83, 37652.99, 20387.34, 24949.93, 6775.93, -187500.02, -187500.02, -187500.02, -71049.40, 0.11, -0.05, 1.07
84, 38413.68, 21325.78, 23972.02, 7331.13, -187500.02, -187500.02, -187500.02, -72448.53, 0.11, -0.05, 1.07
85, 49843.43, 32875.64, 33629.45, 18808.63, -187500.02, -187500.02, -187500.02, -69471.73, 0.11, -0.05, 1.07
86, 50716.84, 33590.18, 36034.03, 19897.81, -187500.02, -187500.02, -187500.02, -67654.52, 0.11, -0.05, 1.07
87, 39306.08, 22035.64, 26647.84, 8468.47, -187500.02, -187500.02, -187500.02, -70435.15, 0.11, -0.05, 1.07
88, 37049.16, 19916.48, 23148.09, 5990.07, -187500.02, -187500.02, -187500.02, -72597.55, 0.11, -0.05, 1.07
89, 48081.91, 31117.90, 32051.80, 17021.93, -187500.02, -187500.02, -187500.02, -70131.52, 0.11, -0.05, 1.07
90, 51940.56, 34874.58, 36864.39, 21109.43, -187473.42, -187500.02, -187500.02, -67606.63, 0.11, -0.05, 1.07
91, 41302.63, 24067.17, 28561.93, 10516.85, -187500.02, -187500.02, -187500.02, -69779.84, 0.11, -0.05, 1.07
92, 36192.82, 19062.42, 22800.32, 5200.33, -187500.02, -187500.02, -187500.02, -72565.18, 0.11, -0.05, 1.07
93, 46020.86, 29086.66, 30283.35, 14966.71, -187500.02, -187500.02, -187500.02, -70801.70, 0.11, -0.05, 1.07
94, 52505.16, 35506.04, 37128.55, 21656.40, -187500.02, -187500.02, -187500.02, -67792.68, 0.11, -0.04, 1.06
95, 43384.64, 26188.38, 30474.01, 12630.48, -187500.02, -187500.02, -187500.02, -69208.71, 0.11, -0.04, 1.06
96, 35897.64, 18740.91, 22936.91, 4946.31, -187500.02, -187500.02, -187500.02, -72371.13, 0.11, -0.04, 1.06
97, 43904.30, 26940.89, 28540.18, 12834.17, -187500.02, -187500.02, -187500.02, -71404.70, 0.11, -0.04, 1.06
98, 52579.37, 35606.84, 36938.56, 21690.78, -187500.02, -187500.02, -187500.02, -68095.98, 0.11, -0.04, 1.06
99, 45563.70, 28393.22, 32356.21, 14819.97, -187500.02, -187500.02, -187500.02, -68665.14, 0.10, -0.05, 1.06
100, 36034.01, 18860.47, 23402.30, 5132.77, -187500.02, -187500.02, -187500.02, -72066.31, 0.10, -0.05, 1.06
101, 41691.79, 24728.23, 26781.17, 10638.63, -187500.02, -187500.02, -187500.02, -71973.15, 0.10, -0.05, 1.06
102, 52055.22, 35141.93, 36251.13, 21145.17, -187500.02, -187500.02, -187500.02, -68575.75, 0.10, -0.05, 1.06
103, 47664.18, 30547.73, 34071.23, 16932.61, -187500.02, -187500.02, -187500.02, -68249.75, 0.10, -0.05, 1.06
104, 36787.68, 19610.17, 24382.27, 5942.52, -187500.02, -187500.02, -187500.02, -71627.70, 0.10, -0.05, 1.06
105, 39703.00, 22719.18, 25276.18, 8674.17, -187500.02, -187500.02, -187500.02, -72414.82, 0.10, -0.05, 1.06
106, 51000.87, 34112.76, 35148.96, 20064.42, -187500.02, -187500.02, -187500.02, -69165.50, 0.10, -0.05, 1.06
107, 49487.39, 32418.16, 35530.18, 18756.53, -187500.02, -187500.02, -187500.02, -67981.87, 0.10, -0.05, 1.06
108, 38085.40, 20903.33, 25781.44, 7288.19, -187500.02, -187500.02, -187500.02, -71087.30, 0.10, -0.05, 1.06
109, 38071.08, 21048.70, 24119.99, 7066.26, -187500.02, -187500.02, -187500.02, -72691.73, 0.09, -0.05, 1.06
110, 49490.80, 32605.03, 33614.52, 18519.56, -187500.02, -187500.02, -187500.02, -69826.65, 0.09, -0.05, 1.06
111, 51004.71, 33969.51, 36449.23, 20255.33, -187500.02, -187500.02, -187500.02, -67854.53, 0.09, -0.05, 1.06
112, 39765.70, 22589.61, 27197.63, 9012.25, -187500.02, -187500.02, -187500.02, -70502.74, 0.09, -0.05, 1.06
113, 36791.17, 19754.92, 23040.20, 5830.21, -187500.02, -187500.02, -187500.02, -72834.43, 0.09, -0.05, 1.06
114, 47652.60, 30787.20, 31630.38, 16670.13, -187500.02, -187500.02, -187500.02, -70515.70, 0.09, -0.05, 1.06
115, 52206.97, 35243.40, 37019.72, 21447.79, -187460.92, -187500.02, -187500.02, -67819.41, 0.09, -0.05, 1.06
116, 41858.27, 24712.04, 29106.96, 11150.17, -187500.02, -187500.02, -187500.02, -69823.96, 0.09, -0.05, 1.06
117, 36097.84, 19030.52, 22969.34, 5179.77, -187500.02, -187500.02, -187500.02, -72730.88, 0.09, -0.05, 1.06
118, 45619.46, 28744.50, 30292.60, 14626.40, -187500.02, -187500.02, -187500.02, -71122.11, 0.09, -0.05, 1.06
119, 52566.47, 35637.40, 37603.63, 21776.99, -187500.02, -187500.02, -187500.02, -68040.43, 0.09, -0.05, 1.06
120, 43869.61, 26745.81, 31399.48, 13183.97, -187500.02, -187500.02, -187500.02, -69284.75, 0.09, -0.05, 1.06
121, 35737.31, 18653.16, 23375.14, 4870.62, -187500.02, -187500.02, -187500.02, -72572.45, 0.09, -0.05, 1.06
122, 43325.91, 26450.29, 28477.91, 12333.71, -187500.02, -187500.02, -187500.02, -71793.45, 0.09, -0.05, 1.06
123, 52463.70, 35589.00, 37124.44, 21643.04, -187500.02, -187500.02, -187500.02, -68433.20, 0.09, -0.05, 1.06
124, 46040.37, 28966.23, 33019.56, 15372.37, -187500.02, -187500.02, -187500.02, -68802.29, 0.10, -0.04, 1.07
125, 36089.10, 18995.16, 23774.21, 5270.23, -187500.02, -187500.02, -187500.02, -72233.26, 0.10, -0.04, 1.07
126, 41205.55, 24313.24, 26650.56, 10219.28, -187500.02, -187500.02, -187500.02, -72332.66, 0.10, -0.04, 1.07
127, 51852.54, 35009.63, 36273.10, 20994.95, -187500.02, -187500.02, -187500.02, -68933.49, 0.10, -0.04, 1.07
128, 48140.54, 31107.17, 34674.91, 17470.30, -187500.02, -187500.02, -187500.02, -68394.03, 0.10, -0.04, 1.07
129, 37052.69, 19950.29, 24890.34, 6283.08, -187500.02, -187500.02, -187500.02, -71726.39, 0.10, -0.04, 1.07
130, 39383.35, 22464.53, 25243.46, 8418.40, -187500.02, -187500.02, -187500.02, -72682.35, 0.10, -0.04, 1.07
131, 50692.26, 33885.40, 35020.80, 19812.38, -187500.02, -187500.02, -187500.02, -69512.11, 0.10, -0.04, 1.07
132, 49887.84, 32922.64, 35990.80, 19225.23, -187500.02, -187500.02, -187500.02, -68132.56, 0.10, -0.04, 1.07
133, 38398.24, 21315.99, 26290.61, 7692.40, -187500.02, -187500.02, -187500.02, -71154.30, 0.10, -0.04, 1.07
134, 37720.67, 20796.91, 24090.58, 6801.17, -187500.02, -187500.02, -187500.02, -72935.98, 0.10, -0.05, 1.06
135, 49094.22, 32311.59, 33492.05, 18199.55, -187500.02, -187500.02, -187500.02, -70160.70, 0.10, -0.05, 1.06
136, 51293.25, 34372.36, 36940.59, 20619.73, -187461.08, -187500.02, -187500.02, -68020.70, 0.10, -0.05, 1.06
137, 40114.56, 23033.11, 27910.94, 9447.79, -187500.02, -187500.02, -187500.02, -70555.70, 0.10, -0.05, 1.06
138, 36576.93, 19615.71, 23361.28, 5693.41, -187500.02, -187500.02, -187500.02, -73004.95, 0.10, -0.05, 1.06
139, 47158.91, 30373.54, 31703.27, 16244.00, -187500.02, -187500.02, -187500.02, -70828.41, 0.10, -0.05, 1.06
140, 52227.15, 35357.57, 37466.53, 21524.08, -187479.05, -187500.02, -187500.02, -68065.95, 0.10, -0.04, 1.06
141, 42214.91, 25167.86, 29834.57, 11583.99, -187500.02, -187500.02, -187500.02, -69894.91, 0.10, -0.04, 1.06
142, 35906.60, 18937.80, 23128.96, 5075.16, -187500.02, -187500.02, -187500.02, -72895.32, 0.10, -0.04, 1.06
143, 44996.27, 28225.74, 29825.56, 14080.79, -187500.02, -187500.02, -187500.02, -71474.55, 0.10, -0.04, 1.06
144, 52616.86, 35814.07, 37493.15, 21902.32, -187500.02, -187500.02, -187500.02, -68267.41, 0.10, -0.04, 1.06
145, 44448.75, 27447.63, 31754.41, 13859.38, -187500.02, -187500.02, -187500.02, -69269.30, 0.10, -0.05, 1.05
146, 35864.07, 18878.35, 23424.96, 5093.85, -187500.02, -187500.02, -187500.02, -72594.71, 0.10, -0.05, 1.05
147, 42872.37, 26084.46, 28053.79, 11960.51, -187500.02, -187500.02, -187500.02, -72014.68, 0.10, -0.05, 1.05
148, 52371.30, 35592.49, 36975.55, 21616.57, -187500.02, -187500.02, -187500.02, -68635.74, 0.10, -0.05, 1.05
149, 46490.73, 29509.78, 33419.16, 15901.77, -187500.02, -187500.02, -187500.02, -68789.99, 0.10, -0.05, 1.05
150, 36306.41, 19297.47, 24064.65, 5577.94, -187500.02, -187500.02, -187500.02, -72182.34, 0.11, -0.05, 1.06
151, 40797.39, 23987.69, 26399.96, 9893.98, -187500.02, -187500.02, -187500.02, -72465.94, 0.11, -0.05, 1.06
152, 51629.53, 34883.25, 36059.93, 20840.01, -187500.02, -187500.02, -187500.02, -69107.03, 0.11, -0.05, 1.06
153, 48538.93, 31606.04, 35027.04, 17950.04, -187500.02, -187500.02, -187500.02, -68357.48, 0.11, -0.05, 1.06
154, 37277.07, 20266.06, 25199.27, 6599.29, -187500.02, -187500.02, -187500.02, -71638.91, 0.11, -0.05, 1.06
155, 38899.34, 22069.24, 24974.47, 8021.26, -187500.02, -187500.02, -187500.02, -72791.85, 0.10, -0.05, 1.06
156, 50342.50, 33623.91, 34731.79, 19528.12, -187500.02, -187500.02, -187500.02, -69681.38, 0.10, -0.05, 1.06
157, 50203.87, 33321.06, 36280.30, 19610.01, -187442.22, -187500.02, -187500.02, -68106.91, 0.10, -0.05, 1.06
158, 38741.41, 21734.25, 26686.44, 8113.71, -187500.02, -187500.02, -187500.02, -71028.05, 0.10, -0.05, 1.06
159, 37424.31, 20568.70, 23959.46, 6582.34, -187500.02, -187500.02, -187500.02, -72979.25, 0.10, -0.05, 1.06
160, 48678.90, 31967.71, 33165.56, 17839.02, -187500.02, -187500.02, -187500.02, -70342.01, 0.10, -0.05, 1.06
161, 51469.38, 34631.10, 37109.39, 20851.29, -187345.19, -187500.02, -187500.02, -68029.48, 0.10, -0.05, 1.06
162, 40557.33, 23560.62, 28400.17, 9957.17, -187500.02, -187500.02, -187500.02, -70365.99, 0.10, -0.05, 1.06
163, 36406.54, 19516.29, 23394.74, 5593.64, -187500.02, -187500.02, -187500.02, -72939.08, 0.10, -0.05, 1.06
164, 46712.26, 30005.63, 31408.63, 15854.63, -187500.02, -187500.02, -187500.02, -70943.59, 0.10, -0.05, 1.06
165, 52253.39, 35464.21, 37533.41, 21609.80, -187400.30, -187500.02, -187500.02, -68076.05, 0.10, -0.05, 1.06
166, 42562.73, 25582.15, 30226.08, 11994.35, -187500.02, -187500.02, -187500.02, -69721.95, 0.10, -0.05, 1.06
167, 35747.23, 18825.85, 23190.83, 4979.32, -187500.02, -187500.02, -187500.02, -72805.75, 0.10, -0.05, 1.06
168, 44497.83, 27775.19, 29544.78, 13627.57, -187500.02, -187500.02, -187500.02, -71574.22, 0.10, -0.05, 1.06
169, 52521.55, 35766.57, 37501.20, 21842.19, -187500.02, -187500.02, -187500.02, -68307.02, 0.10, -0.05, 1.06
170, 44763.48, 27810.44, 32150.66, 14215.51, -187500.02, -187500.02, -187500.02, -69115.26, 0.09, -0.05, 1.06
171, 35780.02, 18834.21, 23568.68, 5060.32, -187500.02, -187500.02, -187500.02, -72467.46, 0.09, -0.05, 1.06
172, 42345.40, 25611.41, 27793.81, 11474.40, -187500.02, -187500.02, -187500.02, -72082.12, 0.09, -0.05, 1.06
173, 52176.52, 35464.08, 36963.14, 21458.66, -187500.02, -187500.02, -187500.02, -68678.93, 0.09, -0.05, 1.06
174, 46891.45, 29983.54, 33950.62, 16348.11, -187500.02, -187500.02, -187500.02, -68605.10, 0.09, -0.05, 1.06
175, 36433.61, 19482.76, 24476.52, 5758.55, -187500.02, -187500.02, -187500.02, -71966.89, 0.10, -0.05, 1.06
176, 40331.22, 23573.80, 26250.65, 9467.55, -187500.02, -187500.02, -187500.02, -72470.68, 0.10, -0.05, 1.06
177, 51333.06, 34646.01, 36004.41, 20572.57, -187500.02, -187500.02, -187500.02, -69157.81, 0.10, -0.05, 1.06
178, 48894.86, 32021.06, 35529.68, 18332.43, -187500.02, -187500.02, -187500.02, -68196.49, 0.10, -0.05, 1.06
179, 37572.88, 20602.72, 25725.40, 6930.81, -187500.02, -187500.02, -187500.02, -71380.31, 0.10, -0.05, 1.06
180, 38608.88, 21813.11, 24983.93, 7755.63, -187500.02, -187500.02, -187500.02, -72713.38, 0.10, -0.04, 1.07
181, 50034.24, 33359.60, 34680.70, 19232.76, -187500.02, -187500.02, -187500.02, -69698.15, 0.10, -0.04, 1.07
182, 50544.58, 33715.73, 36737.57, 19961.16, -187288.23, -187500.02, -187500.02, -67932.47, 0.10, -0.04, 1.07
183, 39113.05, 22144.86, 27267.32, 8500.19, -187500.02, -187500.02, -187500.02, -70725.32, 0.10, -0.04, 1.07
184, 37190.39, 20366.93, 24037.42, 6356.41, -187500.02, -187500.02, -187500.02, -72815.21, 0.10, -0.04, 1.07
185, 48271.21, 31610.37, 33014.17, 17439.81, -187500.02, -187500.02, -187500.02, -70307.88, 0.10, -0.04, 1.06
186, 51700.75, 34924.78, 37481.10, 21090.79, -187231.48, -187500.02, -187500.02, -67865.86, 0.10, -0.04, 1.06
187, 40973.99, 24025.76, 29009.52, 10397.92, -187500.02, -187500.02, -187500.02, -70067.95, 0.10, -0.04, 1.06
188, 36179.49, 19327.84, 23452.28, 5384.58, -187500.02, -187500.02, -187500.02, -72794.00, 0.10, -0.04, 1.06
189, 46230.31, 29561.39, 31176.68, 15375.27, -187500.02, -187500.02, -187500.02, -70948.91, 0.10, -0.04, 1.06
190, 52386.92, 35649.36, 37766.87, 21742.05, -187366.06, -187500.02, -187500.02, -67972.81, 0.10, -0.04, 1.06
191, 43049.08, 26123.76, 30843.19, 12494.51, -187500.02, -187500.02, -187500.02, -69440.97, 0.10, -0.04, 1.06
192, 35681.77, 18807.41, 23357.48, 4927.02, -187500.02, -187500.02, -187500.02, -72617.62, 0.10, -0.04, 1.06
193, 43955.35, 27284.59, 29223.27, 13091.06, -187500.02, -187500.02, -187500.02, -71583.29, 0.10, -0.04, 1.06
194, 52451.88, 35761.02, 37507.95, 21766.51, -187500.02, -187500.02, -187500.02, -68276.02, 0.10, -0.04, 1.06
195, 45220.55, 28329.85, 32664.55, 14675.06, -187500.02, -187500.02, -187500.02, -68886.09, 0.10, -0.04, 1.06
196, 35853.25, 18957.32, 23791.17, 5143.78, -187500.02, -187500.02, -187500.02, -72265.58, 0.10, -0.05, 1.07
197, 41811.02, 25115.89, 27450.04, 10946.88, -187500.02, -187500.02, -187500.02, -72092.66, 0.10, -0.05, 1.07
198, 52026.63, 35367.36, 36833.08, 21304.63, -187500.02, -187500.02, -187500.02, -68683.16, 0.10, -0.05, 1.07
199, 47385.54, 30530.60, 34404.00, 16846.53, -187500.02, -187500.02, -187500.02, -68391.53, 0.10, -0.05, 1.07
200, 36651.81, 19736.12, 24753.30, 5988.90, -187500.02, -187500.02, -187500.02, -71740.34, 0.10, -0.05, 1.07
201, 39866.41, 23144.36, 25920.06, 9012.38, -187500.02, -187500.02, -187500.02, -72441.98, 0.10, -0.05, 1.06
202, 51079.66, 34451.17, 35751.59, 20324.28, -187500.02, -187500.02, -187500.02, -69172.55, 0.10, -0.05, 1.06
203, 49279.54, 32480.08, 35850.63, 18735.92, -187500.02, -187500.02, -187500.02, -68049.98, 0.10, -0.05, 1.06
204, 37891.75, 20988.80, 26045.17, 7275.40, -187500.02, -187500.02, -187500.02, -71178.28, 0.10, -0.05, 1.06
205, 38214.89, 21478.15, 24685.24, 7391.21, -187500.02, -187500.02, -187500.02, -72698.91, 0.10, -0.05, 1.06
206, 49639.22, 33030.54, 34297.41, 18851.55, -187500.02, -187500.02, -187500.02, -69793.59, 0.10, -0.05, 1.06
207, 50872.32, 34112.67, 36980.71, 20305.24, -187305.95, -187500.02, -187500.02, -67866.47, 0.10, -0.05, 1.06
208, 39557.76, 22651.79, 27681.90, 8977.89, -187500.02, -187500.02, -187500.02, -70557.23, 0.10, -0.05, 1.06
209, 36924.23, 20143.82, 23876.87, 6124.76, -187500.02, -187500.02, -187500.02, -72812.19, 0.10, -0.05, 1.06
210, 47815.03, 31198.79, 32603.95, 16998.28, -187500.02, -187500.02, -187500.02, -70459.23, 0.10, -0.05, 1.06
211, 51926.39, 35207.82, 37587.68, 21333.06, -187332.67, -187500.02, -187500.02, -67890.83, 0.10, -0.05, 1.06
212, 41502.41, 24609.38, 29455.96, 10953.72, -187500.02, -187500.02, -187500.02, -69952.64, 0.10, -0.05, 1.06
213, 36045.72, 19243.31, 23444.86, 5286.61, -187500.02, -187500.02, -187500.02, -72806.40, 0.10, -0.05, 1.06
214, 45695.08, 29083.69, 30774.19, 14861.25, -187500.02, -187500.02, -187500.02, -71159.30, 0.10, -0.05, 1.06
215, 52437.62, 35765.27, 37817.00, 21805.49, -187500.02, -187500.02, -187500.02, -68100.00, 0.10, -0.05, 1.06
216, 43550.34, 26682.64, 31342.02, 13017.77, -187500.02, -187500.02, -187500.02, -69397.05, 0.11, -0.05, 1.07
217, 35681.59, 18849.76, 23499.30, 4962.38, -187500.02, -187500.02, -187500.02, -72649.78, 0.11, -0.05, 1.07
218, 43454.00, 26822.43, 28874.05, 12610.34, -187500.02, -187500.02, -187500.02, -71832.42, 0.11, -0.05, 1.07
219, 52419.42, 35779.51, 37497.55, 21750.46, -187500.02, -187500.02, -187500.02, -68485.43, 0.11, -0.05, 1.07
220, 45751.40, 28910.73, 33209.84, 15232.15, -187500.02, -187500.02, -187500.02, -68904.15, 0.11, -0.05, 1.07
221, 35985.12, 19134.01, 24095.31, 5314.48, -187500.02, -187500.02, -187500.02, -72317.93, 0.10, -0.05, 1.07
222, 41323.97, 24683.34, 27170.33, 10489.67, -187500.02, -187500.02, -187500.02, -72375.55, 0.10, -0.05, 1.07
223, 51857.97, 35264.17, 36761.20, 21158.03, -187500.02, -187500.02, -187500.02, -68977.57, 0.10, -0.05, 1.07
224, 47879.13, 31087.56, 34955.82, 17361.63, -187500.02, -187500.02, -187500.02, -68486.73, 0.10, -0.05, 1.07
225, 36889.56, 20028.71, 25183.66, 6263.47, -187500.02, -187500.02, -187500.02, -71827.35, 0.10, -0.05, 1.07
226, 39429.01, 22755.26, 25751.51, 8603.45, -187500.02, -187500.02, -187500.02, -72761.54, 0.10, -0.05, 1.06
227, 50762.84, 34179.06, 35628.55, 20015.27, -187500.02, -187500.02, -187500.02, -69565.78, 0.10, -0.05, 1.06
228, 49638.68, 32881.74, 36282.91, 19097.80, -187500.02, -187500.02, -187500.02, -68257.98, 0.10, -0.05, 1.06
229, 38178.77, 21311.22, 26522.91, 7582.58, -187500.02, -187500.02, -187500.02, -71313.75, 0.10, -0.05, 1.06
230, 37849.37, 21140.03, 24636.09, 7031.99, -187500.02, -187500.02, -187500.02, -73027.41, 0.10, -0.05, 1.06
231, 49230.99, 32659.38, 34125.57, 18441.69, -187500.02, -187500.02, -187500.02, -70237.49, 0.10, -0.05, 1.06
232, 51137.23, 34429.51, 37337.52, 20567.43, -187500.02, -187500.02, -187500.02, -68148.37, 0.10, -0.05, 1.06
233, 39940.24, 23078.33, 28244.74, 9373.92, -187500.02, -187500.02, -187500.02, -70710.59, 0.10, -0.05, 1.06
234, 36590.61, 19853.20, 23846.61, 5805.57, -187500.02, -187500.02, -187500.02, -73165.41, 0.10, -0.05, 1.06
235, 47320.63, 30755.28, 32354.02, 16504.15, -187500.02, -187500.02, -187500.02, -70959.08, 0.10, -0.05, 1.06
236, 52155.20, 35496.69, 37893.67, 21555.35, -187500.02, -187500.02, -187500.02, -68227.83, 0.10, -0.05, 1.06
237, 42047.65, 25202.66, 30028.29, 11505.74, -187500.02, -187500.02, -187500.02, -70103.49, 0.10, -0.05, 1.06
238, 35963.08, 19181.66, 23393.29, 5206.44, -187500.02, -187500.02, -187500.02, -73100.30, 0.10, -0.05, 1.06
239, 45242.95, 28649.21, 30202.88, 14398.17, -187500.02, -187500.02, -187500.02, -71649.05, 0.10, -0.05, 1.06
240, 52555.05, 35911.56, 37576.10, 21903.44, -187500.02, -187500.02, -187500.02, -68511.16, 0.10, -0.05, 1.06
241, 44143.51, 27303.24, 31556.28, 13606.31, -187500.02, -187500.02, -187500.02, -69608.29, 0.10, -0.05, 1.06
242, 35771.57, 18953.96, 23375.39, 5049.91, -187500.02, -187500.02, -187500.02, -72927.80, 0.09, -0.05, 1.06
243, 43013.34, 26395.13, 28375.67, 12155.01, -187500.02, -187500.02, -187500.02, -72306.98, 0.09, -0.05, 1.06
244, 52362.56, 35751.35, 37432.58, 21667.47, -187500.02, -187500.02, -187500.02, -68943.08, 0.09, -0.05, 1.06
245, 46296.45, 29479.47, 33862.82, 15763.39, -187500.02, -187500.02, -187500.02, -69143.73, 0.09, -0.05, 1.06
246, 36144.04, 19300.42, 24598.68, 5463.82, -187500.02, -187500.02, -187500.02, -72584.47, 0.09, -0.05, 1.06
247, 40911.80, 24262.57, 27195.21, 10054.87, -187500.02, -187500.02, -187500.02, -72840.09, 0.10, -0.05, 1.06
248, 51732.91, 35136.58, 36901.30, 20993.79, -187500.02, -187500.02, -187500.02, -69465.91, 0.10, -0.05, 1.06
249, 48426.10, 31638.13, 35578.97, 17883.00, -187500.02, -187500.02, -187500.02, -68773.25, 0.10, -0.05, 1.06
250, 37185.66, 20317.09, 25594.87, 6541.82, -187500.02, -187500.02, -187500.02, -72107.41, 0.10, -0.05, 1.06
251, 39080.41, 22395.02, 25570.48, 8232.97, -187500.02, -187500.02, -187500.02, -73239.09, 0.10, -0.05, 1.06
252, 50476.56, 33899.10, 35374.07, 19699.57, -187500.02, -187500.02, -187500.02, -70140.64, 0.10, -0.05, 1.06
253, 50076.76, 33332.55, 36664.59, 19518.46, -187500.02, -187500.02, -187500.02, -68640.02, 0.10, -0.05, 1.06
254, 38604.21, 21738.28, 26967.02, 8000.49, -187500.02, -187500.02, -187500.02, -71610.67, 0.10, -0.05, 1.06
255, 37594.80, 20879.63, 24497.82, 6774.52, -187500.02, -187500.02, -187500.02, -73501.67, 0.10, -0.05, 1.06
0, 48857.89, 32280.75, 33790.36, 18047.02, -187500.02, -187500.02, -187500.02, -70851.59, 0.10, -0.05, 1.06
1, 51447.86, 34732.98, 37568.12, 20856.55, -187500.02, -187500.02, -187500.02, -68611.72, 0.10, -0.05, 1.05
2, 40412.87, 23537.39, 28655.65, 9834.50, -187500.02, -187500.02, -187500.02, -71050.76, 0.10, -0.05, 1.05
3, 36460.97, 19699.06, 23755.99, 5660.67, -187500.02, -187500.02, -187500.02, -73628.79, 0.10, -0.05, 1.05
4, 46873.20, 30287.87, 31941.18, 16028.61, -187500.02, -187500.02, -187500.02, -71605.80, 0.10, -0.05, 1.05
5, 52300.04, 35627.70, 37997.50, 21672.34, -187500.02, -187500.02, -187500.02, -68773.23, 0.10, -0.05, 1.05
6, 42500.01, 25635.37, 30521.22, 11939.85, -187500.02, -187500.02, -187500.02, -70494.25, 0.11, -0.06, 1.05
7, 35874.06, 19075.00, 23583.26, 5112.92, -187500.02, -187500.02, -187500.02, -73571.86, 0.11, -0.06, 1.05
8, 44721.57, 28120.24, 30075.90, 13864.29, -187500.02, -187500.02, -187500.02, -72314.10, 0.11, -0.06, 1.05
9, 52572.82, 35929.85, 37949.44, 21905.27, -187500.02, -187500.02, -187500.02, -69103.08, 0.11, -0.06, 1.05
10, 44650.54, 27804.16, 32396.24, 14101.20, -187500.02, -187500.02, -187500.02, -70009.70, 0.11, -0.06, 1.05
11, 35898.78, 19064.54, 23913.86, 5171.34, -187500.02, -187500.02, -187500.02, -73348.88, 0.11, -0.06, 1.06
12, 42563.04, 25927.60, 28253.74, 11689.31, -187500.02, -187500.02, -187500.02, -72946.55, 0.11, -0.06, 1.06
13, 52304.02, 35682.73, 37371.20, 21585.55, -187500.02, -187500.02, -187500.02, -69575.21, 0.11, -0.06, 1.06
14, 46815.32, 29992.13, 34141.59, 16264.36, -187500.02, -187500.02, -187500.02, -69597.18, 0.11, -0.06, 1.06
15, 36426.26, 19562.27, 24631.69, 5740.91, -187500.02, -187500.02, -187500.02, -73012.53, 0.11, -0.06, 1.06
16, 40525.93, 23859.21, 26597.75, 9658.08, -187500.02, -187500.02, -187500.02, -73476.17, 0.11, -0.05, 1.06
17, 51525.44, 34929.14, 36396.62, 20770.11, -187500.02, -187500.02, -187500.02, -70154.81, 0.11, -0.05, 1.06
18, 48823.27, 32037.22, 35682.30, 18270.03, -187500.02, -187500.02, -187500.02, -69294.95, 0.11, -0.05, 1.06
19, 37506.76, 20634.44, 25813.63, 6870.77, -187500.02, -187500.02, -187500.02, -72549.42, 0.11, -0.05, 1.06
20, 38716.44, 22015.42, 25204.63, 7871.73, -187500.02, -187500.02, -187500.02, -73868.78, 0.11, -0.05, 1.06
21, 50159.01, 33573.39, 34975.74, 19373.49, -187500.02, -187500.02, -187500.02, -70852.16, 0.11, -0.05, 1.06
22, 50426.79, 33681.17, 36827.43, 19859.17, -187500.02, -187500.02, -187500.02, -69184.08, 0.11, -0.05, 1.06
23, 39034.39, 22154.67, 27287.08, 8440.53, -187500.02, -187500.02, -187500.02, -72030.77, 0.11, -0.05, 1.06
24, 37244.22, 20497.94, 24163.82, 6424.52, -187500.02, -187500.02, -187500.02, -74127.23, 0.11, -0.05, 1.06
25, 48436.07, 31844.39, 33306.80, 17615.99, -187500.02, -187500.02, -187500.02, -71592.48, 0.11, -0.05, 1.06
26, 51659.44, 34948.63, 37593.53, 21064.60, -187500.02, -187500.02, -187500.02, -69222.21, 0.11, -0.06, 1.06
27, 40861.16, 23981.81, 28970.92, 10296.04, -187500.02, -187500.02, -187500.02, -71508.28, 0.11, -0.06, 1.06
28, 36265.57, 19486.90, 23583.41, 5485.10, -187500.02, -187500.02, -187500.02, -74215.84, 0.11, -0.06, 1.06
29, 46409.44, 29812.04, 31458.78, 15578.20, -187500.02, -187500.02, -187500.02, -72343.25, 0.11, -0.06, 1.06
30, 52391.88, 35711.94, 37918.91, 21769.19, -187500.02, -187500.02, -187500.02, -69427.20, 0.11, -0.06, 1.06
31, 43042.02, 26166.96, 30915.46, 12503.63, -187500.02, -187500.02, -187500.02, -70947.32, 0.10, -0.06, 1.06
32, 35825.78, 18996.88, 23512.98, 5087.95, -187500.02, -187500.02, -187500.02, -74123.43, 0.10, -0.06, 1.06
33, 44232.83, 27602.30, 29564.52, 13390.57, -187500.02, -187500.02, -187500.02, -73050.82, 0.10, -0.06, 1.06
34, 52598.05, 35947.17, 37783.52, 21939.82, -187500.02, -187500.02, -187500.02, -69776.27, 0.10, -0.06, 1.06
35, 45305.46, 28448.70, 32841.82, 14780.78, -187500.02, -187500.02, -187500.02, -70437.70, 0.10, -0.06, 1.06
36, 35986.33, 19121.49, 23976.13, 5294.66, -187500.02, -187500.02, -187500.02, -73855.08, 0.10, -0.06, 1.06
37, 42103.89, 25439.50, 27818.53, 11259.27, -187500.02, -187500.02, -187500.02, -73650.02, 0.10, -0.05, 1.06
38, 52145.01, 35507.15, 37125.60, 21441.67, -187500.02, -187500.02, -187500.02, -70289.73, 0.10, -0.05, 1.06
39, 47299.60, 30465.45, 34511.72, 16778.69, -187500.02, -187500.02, -187500.02, -70104.10, 0.10, -0.05, 1.06
40, 36623.31, 19732.88, 24860.86, 5981.66, -187500.02, -187500.02, -187500.02, -73500.55, 0.10, -0.05, 1.06
41, 40102.05, 23401.83, 26299.80, 9274.16, -187500.02, -187500.02, -187500.02, -74149.36, 0.10, -0.05, 1.06
42, 51183.79, 34565.83, 36101.17, 20454.95, -187500.02, -187500.02, -187500.02, -70907.15, 0.09, -0.05, 1.07
43, 49244.38, 32443.73, 36058.61, 18722.18, -187500.02, -187500.02, -187500.02, -69829.33, 0.09, -0.05, 1.07
44, 37797.60, 20889.25, 26147.34, 7203.25, -187500.02, -187500.02, -187500.02, -73015.91, 0.09, -0.05, 1.07
45, 38336.01, 21589.59, 24975.79, 7531.69, -187500.02, -187500.02, -187500.02, -74515.17, 0.09, -0.05, 1.07
46, 49770.32, 33148.69, 34654.50, 19011.37, -187500.02, -187500.02, -187500.02, -71594.09, 0.09, -0.05, 1.07
47, 50876.55, 34109.34, 37206.58, 20344.47, -187500.02, -187500.02, -187500.02, -69692.38, 0.10, -0.04, 1.06
48, 39477.49, 22558.79, 27771.24, 8933.05, -187500.02, -187500.02, -187500.02, -72437.40, 0.10, -0.04, 1.06
49, 37020.14, 20229.36, 24099.31, 6254.49, -187500.02, -187500.02, -187500.02, -74690.12, 0.10, -0.04, 1.06
50, 47950.37, 31317.88, 32951.90, 17174.59, -187500.02, -187500.02, -187500.02, -72316.97, 0.10, -0.04, 1.06
51, 51913.69, 35161.21, 37848.45, 21356.89, -187500.02, -187500.02, -187500.02, -69780.49, 0.10, -0.04, 1.06
52, 41420.48, 24490.69, 29556.85, 10907.47, -187500.02, -187500.02, -187500.02, -71880.08, 0.10, -0.05, 1.05
53, 36224.78, 19383.63, 23707.85, 5503.47, -187500.02, -187500.02, -187500.02, -74685.71, 0.10, -0.05, 1.05
54, 45917.10, 29264.22, 31127.20, 15128.73, -187500.02, -187500.02, -187500.02, -73015.73, 0.10, -0.05, 1.05
55, 52517.70, 35799.54, 38074.36, 21936.43, -187500.02, -187500.02, -187500.02, -69990.55, 0.10, -0.05, 1.05
56, 43555.75, 26645.54, 31454.33, 13080.04, -187500.02, -187500.02, -187500.02, -71327.23, 0.10, -0.05, 1.05
57, 35890.39, 19021.29, 23731.34, 5224.79, -187500.02, -187500.02, -187500.02, -74543.42, 0.10, -0.05, 1.06
58, 43764.18, 27090.76, 29269.07, 12980.89, -187500.02, -187500.02, -187500.02, -73674.25, 0.10, -0.05, 1.06
59, 52617.93, 35932.60, 37832.32, 22014.84, -187500.02, -187500.02, -187500.02, -70341.98, 0.10, -0.05, 1.06
60, 45770.22, 28876.75, 33316.14, 15315.55, -187500.02, -187500.02, -187500.02, -70831.49, 0.10, -0.05, 1.06
61, 36136.67, 19224.31, 24238.30, 5524.61, -187500.02, -187500.02, -187500.02, -74244.20, 0.10, -0.05, 1.06
62, 41636.94, 24918.71, 27520.49, 10859.91, -187500.02, -187500.02, -187500.02, -74242.75, 0.10, -0.05, 1.06
63, 52031.20, 35352.12, 37059.26, 21389.26, -187500.02, -187500.02, -187500.02, -70872.91, 0.10, -0.05, 1.06
64, 47824.84, 30949.36, 34967.05, 17369.09, -187500.02, -187500.02, -187500.02, -70472.88, 0.10, -0.05, 1.06
65, 36948.57, 20006.15, 25198.89, 6384.28, -187500.02, -187500.02, -187500.02, -73817.39, 0.10, -0.05, 1.06
66, 39639.72, 22881.57, 25930.62, 8883.30, -187500.02, -187500.02, -187500.02, -74705.88, 0.10, -0.05, 1.06
67, 50947.54, 34279.84, 35837.63, 20276.50, -187500.02, -187500.02, -187500.02, -71497.77, 0.10, -0.05, 1.06
68, 49646.98, 32801.27, 36331.17, 19186.83, -187500.02, -187500.02, -187500.02, -70244.80, 0.10, -0.05, 1.06
69, 38255.10, 21295.91, 26539.63, 7740.16, -187500.02, -187500.02, -187500.02, -73310.39, 0.10, -0.05, 1.06
70, 38037.32, 21236.86, 24765.71, 7312.04, -187500.02, -187500.02, -187500.02, -74994.21, 0.10, -0.05, 1.06
71, 49420.18, 32755.01, 34337.51, 18726.09, -187500.02, -187500.02, -187500.02, -72185.11, 0.10, -0.05, 1.06
72, 51150.38, 34336.97, 37404.28, 20676.08, -187500.02, -187500.02, -187500.02, -70140.30, 0.10, -0.05, 1.06
73, 39976.45, 23009.13, 28185.19, 9501.64, -187500.02, -187500.02, -187500.02, -72723.16, 0.10, -0.05, 1.06
74, 36826.91, 19983.58, 23950.92, 6135.98, -187500.02, -187500.02, -187500.02, -75113.37, 0.10, -0.05, 1.06
75, 47556.55, 30879.04, 32547.78, 16840.92, -187500.02, -187500.02, -187500.02, -72883.54, 0.10, -0.05, 1.06
76, 52129.77, 35349.08, 37925.95, 21636.87, -187500.02, -187500.02, -187500.02, -70225.13, 0.10, -0.05, 1.06
77, 41932.86, 24964.75, 29967.74, 11497.65, -187500.02, -187500.02, -187500.02, -72162.42, 0.10, -0.05, 1.07
78, 35989.64, 19092.39, 23498.25, 5337.55, -187500.02, -187500.02, -187500.02, -75131.05, 0.10, -0.05, 1.07
79, 45382.78, 28673.00, 30592.29, 14644.91, -187500.02, -187500.02, -187500.02, -73625.10, 0.10, -0.05, 1.07
80, 52572.96, 35805.44, 37998.77, 22036.16, -187500.02, -187500.02, -187500.02, -70500.44, 0.10, -0.05, 1.07
81, 44105.91, 27134.17, 31865.29, 13678.93, -187500.02, -187500.02, -187500.02, -71630.56, 0.10, -0.05, 1.07
82, 35830.47, 18882.98, 23694.95, 5219.76, -187500.02, -187500.02, -187500.02, -74936.19, 0.10, -0.05, 1.06
83, 43196.62, 26456.71, 28762.47, 12455.04, -187500.02, -187500.02, -187500.02, -74269.19, 0.10, -0.05, 1.06
84, 52464.50, 35731.16, 37635.62, 21892.10, -187500.02, -187500.02, -187500.02, -70907.29, 0.10, -0.05, 1.06
85, 46328.06, 29392.59, 33776.59, 15917.15, -187500.02, -187500.02, -187500.02, -71147.12, 0.10, -0.05, 1.06
86, 36267.22, 19301.42, 24433.76, 5710.33, -187500.02, -187500.02, -187500.02, -74574.02, 0.10, -0.05, 1.06
87, 41132.06, 24360.92, 27138.55, 10400.91, -187500.02, -187500.02, -187500.02, -74783.13, 0.10, -0.05, 1.06
88, 51840.67, 35116.89, 36859.16, 21231.61, -187500.02, -187500.02, -187500.02, -71415.79, 0.10, -0.04, 1.05
89, 48476.77, 31554.36, 35544.46, 18057.26, -187500.02, -187500.02, -187500.02, -70735.85, 0.10, -0.04, 1.05
90, 37309.87, 20304.30, 25656.52, 6791.53, -187500.02, -187500.02, -187500.02, -74044.66, 0.10, -0.04, 1.05
91, 39315.33, 22484.51, 25793.55, 8592.12, -187500.02, -187500.02, -187500.02, -75128.62, 0.10, -0.04, 1.05
92, 50671.89, 33939.34, 35624.79, 20012.97, -187500.02, -187500.02, -187500.02, -72003.44, 0.10, -0.04, 1.05
93, 50158.07, 33257.29, 36807.38, 19720.07, -187500.02, -187500.02, -187500.02, -70528.96, 0.10, -0.05, 1.06
94, 38668.11, 21647.62, 27067.74, 8189.90, -187500.02, -187500.02, -187500.02, -73511.02, 0.10, -0.05, 1.06
95, 37742.68, 20871.70, 24675.16, 7042.43, -187500.02, -187500.02, -187500.02, -75382.95, 0.10, -0.05, 1.06
96, 49031.25, 32301.22, 34052.61, 18345.73, -187500.02, -187500.02, -187500.02, -72695.60, 0.10, -0.05, 1.06
97, 51539.37, 34673.32, 37757.06, 21078.19, -187500.02, -187500.02, -187500.02, -70468.59, 0.10, -0.05, 1.06
98, 40485.49, 23458.11, 28777.67, 10040.54, -187500.02, -187500.02, -187500.02, -72915.45, 0.10, -0.05, 1.06
99, 36641.46, 19720.07, 23980.36, 5974.20, -187500.02, -187500.02, -187500.02, -75465.52, 0.10, -0.05, 1.06
100, 47079.48, 30323.74, 32235.60, 16371.00, -187500.02, -187500.02, -187500.02, -73406.66, 0.10, -0.05, 1.06
101, 52459.86, 35613.12, 38255.39, 21966.36, -187500.02, -187500.02, -187500.02, -70568.77, 0.10, -0.05, 1.06
102, 42589.75, 25551.60, 30698.02, 12161.56, -187500.02, -187500.02, -187500.02, -72309.63, 0.10, -0.05, 1.06
103, 36056.09, 19091.88, 23833.40, 5419.98, -187500.02, -187500.02, -187500.02, -75365.74, 0.09, -0.05, 1.05
104, 44914.11, 28139.50, 30397.66, 14181.80, -187500.02, -187500.02, -187500.02, -74076.16, 0.09, -0.05, 1.05
105, 52684.25, 35850.59, 38210.57, 22147.25, -187500.02, -187500.02, -187500.02, -70872.26, 0.09, -0.05, 1.05
106, 44751.84, 27708.94, 32591.99, 14339.94, -187500.02, -187500.02, -187500.02, -71786.07, 0.09, -0.05, 1.05
107, 36271.92, 19246.28, 24277.53, 5683.38, -187500.02, -187500.02, -187500.02, -75049.58, 0.09, -0.05, 1.05
108, 42538.12, 25693.40, 28266.28, 11814.86, -187500.02, -187500.02, -187500.02, -74675.77, 0.10, -0.05, 1.07
109, 51884.52, 35043.53, 36970.88, 21306.29, -187500.02, -187500.02, -187500.02, -71448.20, 0.10, -0.05, 1.07
110, 46931.09, 29880.44, 34049.46, 16505.82, -187500.02, -187500.02, -187500.02, -71410.98, 0.10, -0.05, 1.07
111, 37044.37, 19942.11, 24921.72, 6489.52, -187500.02, -187500.02, -187500.02, -74644.99, 0.10, -0.05, 1.07
112, 40602.61, 23677.25, 26512.70, 9876.99, -187500.02, -187500.02, -187500.02, -75141.13, 0.10, -0.05, 1.07
113, 51055.38, 34193.38, 35955.15, 20429.36, -187500.02, -187500.02, -187500.02, -71969.48, 0.11, -0.09, 1.02
114, 48750.74, 31685.74, 35697.77, 18308.67, -187500.02, -187500.02, -187500.02, -71083.91, 0.11, -0.09, 1.02
115, 38015.80, 20859.34, 26480.38, 7494.11, -187500.02, -187500.02, -187500.02, -74157.56, 0.11, -0.09, 1.02
116, 38839.91, 21848.25, 25792.35, 8124.70, -187500.02, -187500.02, -187500.02, -75451.64, 0.11, -0.09, 1.02
117, 49688.21, 32795.21, 35179.66, 19018.90, -187500.02, -187500.02, -187500.02, -72594.87, 0.11, -0.09, 1.02
118, 50262.95, 33201.44, 37272.18, 19793.94, -187500.02, -187500.02, -187500.02, -70978.81, 0.08, -0.05, 1.15
119, 39534.33, 22334.40, 28218.03, 9037.99, -187500.02, -187500.02, -187500.02, -73661.71, 0.08, -0.05, 1.15
120, 37524.13, 20456.23, 24909.92, 6828.48, -187500.02, -187500.02, -187500.02, -75668.74, 0.08, -0.05, 1.15
121, 48010.27, 31086.09, 33439.13, 17310.40, -187500.02, -187500.02, -187500.02, -73275.79, 0.08, -0.05, 1.15
122, 51368.29, 34322.45, 37763.56, 20876.55, -187500.02, -187500.02, -187500.02, -70941.66, 0.08, -0.05, 1.15
123, 41263.84, 24051.33, 29670.78, 10797.90, -187500.02, -187500.02, -187500.02, -73083.88, 0.11, -0.06, 1.00
124, 36681.20, 19565.44, 24361.88, 6013.16, -187500.02, -187500.02, -187500.02, -75681.91, 0.11, -0.06, 1.00
125, 46116.45, 29178.53, 31686.41, 15393.44, -187500.02, -187500.02, -187500.02, -73923.85, 0.11, -0.06, 1.00
126, 51984.59, 34971.92, 38025.93, 21454.90, -187500.02, -187500.02, -187500.02, -71108.48, 0.11, -0.06, 1.00
127, 43138.30, 25938.04, 31366.83, 12687.83, -187500.02, -187500.02, -187500.02, -72581.34, 0.11, -0.06, 1.00
128, 36126.30, 18976.07, 24161.61, 5485.65, -187500.02, -187500.02, -187500.02, -75624.98, 0.11, -0.03, 1.08
129, 44386.18, 27434.69, 30171.81, 13640.00, -187500.02, -187500.02, -187500.02, -74501.09, 0.11, -0.03, 1.08
130, 52539.76, 35560.15, 38222.55, 21975.21, -187500.02, -187500.02, -187500.02, -71254.88, 0.11, -0.03, 1.08
131, 45191.61, 28016.26, 33161.00, 14760.47, -187500.02, -187500.02, -187500.02, -71931.73, 0.11, -0.03, 1.08
132, 36010.18, 18843.30, 24375.04, 5409.14, -187500.02, -187500.02, -187500.02, -75290.58, 0.11, -0.03, 1.08
133, 42129.48, 25167.26, 28236.15, 11369.48, -187500.02, -187500.02, -187500.02, -75064.84, 0.12, -0.07, 1.07
134, 52150.77, 35221.01, 37558.77, 21538.61, -187500.02, -187500.02, -187500.02, -71710.25, 0.12, -0.07, 1.07
135, 47342.60, 30226.35, 34903.70, 16908.78, -187500.02, -187500.02, -187500.02, -71550.79, 0.12, -0.07, 1.07
136, 36684.26, 19522.19, 25217.01, 6125.23, -187500.02, -187500.02, -187500.02, -74949.38, 0.12, -0.07, 1.07
137, 40210.36, 23234.73, 26699.49, 9455.82, -187500.02, -187500.02, -187500.02, -75566.93, 0.12, -0.07, 1.07
138, 51274.41, 34375.86, 36545.23, 20618.72, -187500.02, -187500.02, -187500.02, -72300.09, 0.12, -0.07, 1.07
139, 49273.19, 32200.21, 36406.74, 18819.79, -187500.02, -187500.02, -187500.02, -71234.74, 0.10, -0.06, 1.07
140, 37817.09, 20648.85, 26434.98, 7292.06, -187500.02, -187500.02, -187500.02, -74433.09, 0.10, -0.06, 1.07
141, 38393.99, 21396.18, 25317.17, 7653.51, -187500.02, -187500.02, -187500.02, -75918.59, 0.10, -0.06, 1.07
142, 49828.00, 32959.95, 35054.91, 19132.96, -187500.02, -187500.02, -187500.02, -72970.17, 0.10, -0.06, 1.07
143, 50877.87, 33866.33, 37548.56, 20407.05, -187500.02, -187500.02, -187500.02, -71076.31, 0.10, -0.06, 1.07
144, 39495.84, 22345.55, 28092.65, 9011.66, -187500.02, -187500.02, -187500.02, -73822.34, 0.10, -0.06, 1.03
145, 37081.68, 20069.38, 24443.13, 6376.01, -187500.02, -187500.02, -187500.02, -76059.05, 0.10, -0.06, 1.03
146, 47992.73, 31139.91, 33305.75, 17275.15, -187500.02, -187500.02, -187500.02, -73670.81, 0.10, -0.06, 1.03
147, 51886.69, 34920.38, 38122.84, 21385.12, -187500.02, -187500.02, -187500.02, -71141.38, 0.10, -0.06, 1.03
148, 41384.45, 24237.34, 29785.35, 10922.20, -187500.02, -187500.02, -187500.02, -73244.14, 0.10, -0.06, 1.03
149, 36256.79, 19198.87, 23973.32, 5576.98, -187500.02, -187500.02, -187500.02, -76022.05, 0.11, -0.05, 1.08
150, 45944.52, 29071.24, 31423.11, 15192.79, -187500.02, -187500.02, -187500.02, -74333.09, 0.11, -0.05, 1.08
151, 52538.02, 35604.47, 38361.36, 21993.85, -187500.02, -187500.02, -187500.02, -71324.66, 0.11, -0.05, 1.08
152, 43568.20, 26445.04, 31698.42, 13125.86, -187500.02, -187500.02, -187500.02, -72673.50, 0.11, -0.05, 1.08
153, 35938.81, 18860.98, 23986.91, 5302.01, -187500.02, -187500.02, -187500.02, -75880.64, 0.11, -0.05, 1.08
154, 43830.74, 26956.22, 29583.47, 13074.27, -187500.02, -187500.02, -187500.02, -74994.39, 0.11, -0.05, 1.08
155, 52646.74, 35762.99, 38127.31, 22063.76, -187500.02, -187500.02, -187500.02, -71657.92, 0.11, -0.05, 1.08
156, 45776.77, 28687.32, 33580.70, 15339.20, -187500.02, -187500.02, -187500.02, -72145.28, 0.11, -0.05, 1.08
157, 36148.31, 19045.99, 24478.91, 5546.67, -187500.02, -187500.02, -187500.02, -75565.59, 0.11, -0.05, 1.08
158, 41699.86, 24791.57, 27802.87, 10928.50, -187500.02, -187500.02, -187500.02, -75538.63, 0.11, -0.05, 1.08
159, 52076.50, 35208.42, 37334.61, 21433.31, -187500.02, -187500.02, -187500.02, -72153.64, 0.10, -0.06, 1.05
160, 47807.52, 30739.19, 35177.06, 17345.69, -187500.02, -187500.02, -187500.02, -71769.98, 0.10, -0.06, 1.05
161, 37006.46, 19872.51, 25473.84, 6429.52, -187500.02, -187500.02, -187500.02, -75105.23, 0.10, -0.06, 1.05
162, 39803.00, 22857.65, 26344.84, 9030.42, -187500.02, -187500.02, -187500.02, -75943.13, 0.10, -0.06, 1.05
163, 51017.25, 34163.21, 36198.45, 20327.48, -187500.02, -187500.02, -187500.02, -72745.36, 0.10, -0.06, 1.05
164, 49662.85, 32634.02, 36661.69, 19184.37, -187500.02, -187500.02, -187500.02, -71491.34, 0.09, -0.05, 1.05
165, 38286.10, 21144.55, 26860.76, 7743.25, -187500.02, -187500.02, -187500.02, -74557.02, 0.09, -0.05, 1.05
166, 38168.55, 21181.83, 25176.40, 7410.45, -187500.02, -187500.02, -187500.02, -76205.56, 0.09, -0.05, 1.05
167, 49513.61, 32656.90, 34747.15, 18778.79, -187500.02, -187500.02, -187500.02, -73391.91, 0.09, -0.05, 1.05
168, 51186.63, 34184.78, 37779.18, 20672.46, -187500.02, -187500.02, -187500.02, -71366.32, 0.09, -0.05, 1.05
169, 40045.63, 22896.46, 28599.39, 9523.88, -187500.02, -187500.02, -187500.02, -73966.52, 0.10, -0.05, 1.07
170, 36948.95, 19920.25, 24408.60, 6199.06, -187500.02, -187500.02, -187500.02, -76319.67, 0.10, -0.05, 1.07
171, 47666.64, 30805.02, 33035.95, 16888.22, -187500.02, -187500.02, -187500.02, -74058.57, 0.10, -0.05, 1.07
172, 52134.26, 35171.21, 38330.31, 21574.78, -187500.02, -187500.02, -187500.02, -71415.90, 0.10, -0.05, 1.07
173, 41970.81, 24833.14, 30371.04, 11465.93, -187500.02, -187500.02, -187500.02, -73345.70, 0.10, -0.05, 1.07
174, 36169.99, 19108.60, 24052.29, 5455.21, -187500.02, -187500.02, -187500.02, -76259.55, 0.10, -0.05, 1.07
175, 45595.46, 28718.41, 31197.51, 14792.18, -187500.02, -187500.02, -187500.02, -74724.77, 0.10, -0.05, 1.07
176, 52691.96, 35758.66, 38518.89, 22086.94, -187500.02, -187500.02, -187500.02, -71637.12, 0.10, -0.05, 1.07
177, 44183.34, 27052.72, 32323.95, 13681.01, -187500.02, -187500.02, -187500.02, -72829.83, 0.10, -0.05, 1.07
178, 36060.38, 18955.64, 24269.50, 5366.50, -187500.02, -187500.02, -187500.02, -76103.69, 0.10, -0.05, 1.07
179, 43512.52, 26604.90, 29425.18, 12685.24, -187500.02, -187500.02, -187500.02, -75380.45, 0.10, -0.05, 1.05
180, 52616.36, 35708.72, 38161.36, 21959.27, -187500.02, -187500.02, -187500.02, -72038.30, 0.10, -0.05, 1.05
181, 46386.77, 29285.05, 34164.77, 15884.29, -187500.02, -187500.02, -187500.02, -72321.50, 0.10, -0.05, 1.05
182, 36422.97, 19293.76, 24859.21, 5766.50, -187500.02, -187500.02, -187500.02, -75729.07, 0.10, -0.05, 1.05
183, 41313.89, 24380.46, 27599.33, 10483.71, -187500.02, -187500.02, -187500.02, -75893.13, 0.10, -0.05, 1.05
184, 51914.36, 35035.53, 37258.90, 21212.59, -187500.02, -187500.02, -187500.02, -72520.01, 0.11, -0.05, 1.07
185, 48409.92, 31336.56, 35813.11, 17896.44, -187500.02, -187500.02, -187500.02, -71883.34, 0.11, -0.05, 1.07
186, 37294.58, 20137.09, 25916.22, 6679.80, -187500.02, -187500.02, -187500.02, -75189.16, 0.11, -0.05, 1.07
187, 39379.59, 22405.21, 26108.80, 8558.80, -187500.02, -187500.02, -187500.02, -76235.85, 0.11, -0.05, 1.07
188, 50726.90, 33845.46, 35981.03, 19974.48, -187500.02, -187500.02, -187500.02, -73106.34, 0.11, -0.05, 1.07
189, 50162.79, 33109.37, 37092.85, 19623.13, -187500.02, -187500.02, -187500.02, -71685.98, 0.11, -0.05, 1.07
190, 38756.02, 21580.18, 27361.06, 8164.71, -187500.02, -187500.02, -187500.02, -74678.16, 0.10, -0.05, 1.08
191, 37977.58, 20953.02, 25106.24, 7163.58, -187500.02, -187500.02, -187500.02, -76498.82, 0.10, -0.05, 1.08
192, 49217.80, 32334.46, 34488.16, 18424.92, -187500.02, -187500.02, -187500.02, -73797.70, 0.10, -0.05, 1.08
193, 51548.11, 34537.80, 38037.37, 20980.35, -187500.02, -187500.02, -187500.02, -71636.06, 0.10, -0.05, 1.08
194, 40506.84, 23338.69, 29028.34, 9948.90, -187500.02, -187500.02, -187500.02, -74120.10, 0.10, -0.05, 1.08
195, 36764.08, 19707.96, 24300.23, 5979.74, -187500.02, -187500.02, -187500.02, -76624.51, 0.11, -0.05, 1.06
196, 47219.15, 30328.19, 32609.65, 16393.30, -187500.02, -187500.02, -187500.02, -74520.55, 0.11, -0.05, 1.06
197, 52442.13, 35450.67, 38501.28, 21826.61, -187500.02, -187500.02, -187500.02, -71712.48, 0.11, -0.05, 1.06
198, 42568.29, 25387.09, 30859.91, 12021.33, -187500.02, -187500.02, -187500.02, -73466.76, 0.11, -0.05, 1.06
199, 36153.72, 19035.62, 24029.04, 5395.40, -187500.02, -187500.02, -187500.02, -76489.77, 0.11, -0.05, 1.06
200, 45085.70, 28159.69, 30676.27, 14236.14, -187500.02, -187500.02, -187500.02, -75145.94, 0.10, -0.04, 1.05
201, 52726.96, 35763.10, 38391.71, 22071.27, -187500.02, -187500.02, -187500.02, -71989.31, 0.10, -0.04, 1.05
202, 44738.54, 27579.95, 32699.84, 14205.72, -187500.02, -187500.02, -187500.02, -72962.10, 0.10, -0.04, 1.05
203, 36171.18, 19034.50, 24306.83, 5459.95, -187500.02, -187500.02, -187500.02, -76255.90, 0.10, -0.04, 1.05
204, 42923.46, 25987.48, 28835.72, 12069.83, -187500.02, -187500.02, -187500.02, -75762.98, 0.10, -0.04, 1.05
205, 52495.15, 35576.91, 37893.69, 21797.46, -187500.02, -187500.02, -187500.02, -72410.30, 0.09, -0.04, 1.06
206, 46857.14, 29733.18, 34491.36, 16322.61, -187500.02, -187500.02, -187500.02, -72513.10, 0.09, -0.04, 1.06
207, 36555.00, 19391.77, 24963.86, 5877.75, -187500.02, -187500.02, -187500.02, -75936.09, 0.09, -0.04, 1.06
208, 40798.21, 23823.52, 27117.29, 9941.14, -187500.02, -187500.02, -187500.02, -76306.55, 0.09, -0.04, 1.06
209, 51678.46, 34763.24, 36930.29, 20927.69, -187500.02, -187500.02, -187500.02, -72976.52, 0.09, -0.04, 1.06
210, 48840.71, 31737.11, 36064.45, 18286.92, -187500.02, -187500.02, -187500.02, -72185.56, 0.09, -0.05, 1.07
211, 37619.84, 20428.22, 26205.45, 6976.49, -187500.02, -187500.02, -187500.02, -75443.21, 0.09, -0.05, 1.07
212, 39036.83, 22021.32, 25826.05, 8188.29, -187500.02, -187500.02, -187500.02, -76646.25, 0.09, -0.05, 1.07
213, 50403.76, 33503.12, 35632.46, 19613.50, -187500.02, -187500.02, -187500.02, -73588.55, 0.09, -0.05, 1.07
214, 50466.62, 33408.91, 37307.90, 19895.11, -187500.02, -187500.02, -187500.02, -71994.12, 0.09, -0.05, 1.07
215, 39139.11, 21949.70, 27741.73, 8526.05, -187500.02, -187500.02, -187500.02, -74864.84, 0.10, -0.04, 1.06
216, 37584.25, 20533.32, 24829.41, 6750.49, -187500.02, -187500.02, -187500.02, -76849.34, 0.10, -0.04, 1.06
217, 48721.06, 31816.88, 34023.58, 17890.22, -187500.02, -187500.02, -187500.02, -74260.90, 0.10, -0.04, 1.06
218, 51741.54, 34704.03, 38156.57, 21128.28, -187500.02, -187500.02, -187500.02, -71945.63, 0.10, -0.04, 1.06
219, 41005.82, 23799.71, 29494.27, 10406.84, -187500.02, -187500.02, -187500.02, -74251.62, 0.10, -0.04, 1.06
220, 36654.09, 19548.92, 24312.17, 5841.54, -187500.02, -187500.02, -187500.02, -76849.81, 0.09, -0.04, 1.06
221, 46761.75, 29834.84, 32241.29, 15894.86, -187500.02, -187500.02, -187500.02, -74914.41, 0.09, -0.04, 1.06
222, 52518.17, 35517.43, 38546.95, 21865.39, -187500.02, -187500.02, -187500.02, -72042.09, 0.09, -0.04, 1.06
223, 43092.62, 25902.01, 31405.74, 12517.00, -187500.02, -187500.02, -187500.02, -73628.01, 0.09, -0.04, 1.06
224, 36124.11, 18995.76, 24198.02, 5346.94, -187500.02, -187500.02, -187500.02, -76717.40, 0.09, -0.04, 1.06
225, 44606.79, 27671.93, 30377.34, 13718.03, -187500.02, -187500.02, -187500.02, -75554.33, 0.10, -0.05, 1.06
226, 52667.61, 35698.89, 38393.75, 21961.37, -187500.02, -187500.02, -187500.02, -72317.32, 0.10, -0.05, 1.06
227, 45156.91, 27988.63, 33160.11, 14578.34, -187500.02, -187500.02, -187500.02, -73071.49, 0.10, -0.05, 1.06
228, 36165.37, 18994.31, 24506.59, 5414.62, -187500.02, -187500.02, -187500.02, -76403.34, 0.10, -0.05, 1.06
229, 42462.34, 25482.87, 28549.75, 11557.19, -187500.02, -187500.02, -187500.02, -76100.38, 0.10, -0.05, 1.06
230, 52333.90, 35370.34, 37791.08, 21570.46, -187500.02, -187500.02, -187500.02, -72725.33, 0.10, -0.04, 1.07
231, 47264.04, 30105.74, 34873.41, 16665.19, -187500.02, -187500.02, -187500.02, -72613.93, 0.10, -0.04, 1.07
232, 36756.35, 19562.13, 25304.48, 6036.74, -187500.02, -187500.02, -187500.02, -75977.47, 0.10, -0.04, 1.07
233, 40444.23, 23432.76, 26928.02, 9530.56, -187500.02, -187500.02, -187500.02, -76530.90, 0.10, -0.04, 1.07
234, 51401.28, 34460.76, 36614.86, 20585.67, -187500.02, -187500.02, -187500.02, -73265.75, 0.10, -0.04, 1.07
235, 49211.07, 32091.27, 36214.50, 18593.19, -187500.02, -187500.02, -187500.02, -72264.66, 0.10, -0.05, 1.06
236, 37947.92, 20735.40, 26304.00, 7255.06, -187500.02, -187500.02, -187500.02, -75424.95, 0.10, -0.05, 1.06
237, 38664.40, 21619.77, 25233.51, 7755.12, -187500.02, -187500.02, -187500.02, -76836.22, 0.10, -0.05, 1.06
238, 50020.21, 33084.87, 34907.37, 19150.77, -187500.02, -187500.02, -187500.02, -73876.49, 0.10, -0.05, 1.06
239, 50860.97, 33769.93, 37270.17, 20203.79, -187500.02, -187500.02, -187500.02, -72070.29, 0.10, -0.05, 1.06
240, 39731.48, 22501.19, 28087.54, 9047.45, -187500.02, -187500.02, -187500.02, -74776.59, 0.10, -0.05, 1.06
241, 37686.76, 20587.99, 24961.82, 6784.85, -187500.02, -187500.02, -187500.02, -76839.41, 0.10, -0.05, 1.07
242, 47801.17, 30835.75, 33436.78, 16903.86, -187500.02, -187500.02, -187500.02, -74583.77, 0.10, -0.05, 1.07
243, 50560.00, 33479.38, 37257.92, 19854.65, -187500.02, -187500.02, -187500.02, -72543.52, 0.10, -0.05, 1.07
244, 41098.73, 23882.73, 29641.68, 10404.60, -187500.02, -187500.02, -187500.02, -74592.84, 0.10, -0.05, 1.07
245, 37371.73, 20248.33, 25146.58, 6498.57, -187500.02, -187500.02, -187500.02, -76866.57, 0.10, -0.05, 1.07
246, 45856.37, 28873.94, 31753.40, 14956.40, -187500.02, -187500.02, -187500.02, -75277.77, 0.10, -0.05, 1.06
247, 50307.05, 33256.02, 36609.52, 19573.29, -187500.02, -187500.02, -187500.02, -73027.93, 0.10, -0.05, 1.06
248, 42262.10, 25054.14, 30345.04, 11564.93, -187500.02, -187500.02, -187500.02, -74488.17, 0.10, -0.05, 1.06
249, 36822.46, 19662.29, 24604.53, 5951.87, -187500.02, -187500.02, -187500.02, -77031.02, 0.10, -0.05, 1.06
250, 43815.48, 26804.05, 29802.94, 12889.31, -187500.02, -187500.02, -187500.02, -76051.34, 0.10, -0.05, 1.06
251, 49532.16, 32481.42, 35592.78, 18756.18, -187500.02, -187500.02, -187500.02, -73716.34, 0.11, -0.04, 1.06
252, 43168.88, 25962.47, 30953.07, 12455.24, -187500.02, -187500.02, -187500.02, -74596.15, 0.11, -0.04, 1.06
253, 36484.89, 19296.39, 24406.23, 5624.06, -187500.02, -187500.02, -187500.02, -77241.59, 0.11, -0.04, 1.06
254, 41805.83, 24765.49, 28022.58, 10865.03, -187500.02, -187500.02, -187500.02, -76877.28, 0.11, -0.04, 1.06
255, 48579.53, 31537.82, 34507.61, 17774.40, -187500.02, -187500.02, -187500.02, -74509.94, 0.11, -0.04, 1.06
0, 44008.26, 26822.54, 31478.38, 13275.53, -187500.02, -187500.02, -187500.02, -74812.98, 0.10, -0.05, 1.06
1, 37605.60, 20410.85, 25424.30, 6747.32, -187500.02, -187500.02, -187500.02, -77059.78, 0.10, -0.05, 1.06
2, 40927.61, 23853.47, 27432.27, 10002.74, -187500.02, -187500.02, -187500.02, -77136.34, 0.10, -0.05, 1.06
3, 47375.77, 30321.28, 33340.40, 16546.97, -187500.02, -187500.02, -187500.02, -75121.30, 0.10, -0.05, 1.06
4, 44700.40, 27524.29, 31890.64, 13949.10, -187500.02, -187500.02, -187500.02, -74951.16, 0.10, -0.05, 1.06
5, 37667.23, 20445.88, 25549.18, 6820.95, -187500.02, -187500.02, -187500.02, -77145.21, 0.11, -0.04, 1.06
6, 39209.45, 22095.68, 25950.89, 8274.57, -187500.02, -187500.02, -187500.02, -77780.72, 0.11, -0.04, 1.06
7, 45416.98, 28347.67, 31442.29, 14571.06, -187500.02, -187500.02, -187500.02, -76105.81, 0.11, -0.04, 1.06
8, 44444.72, 27281.71, 31359.92, 13667.42, -187500.02, -187500.02, -187500.02, -75602.52, 0.11, -0.04, 1.06
9, 38686.80, 21470.84, 26327.87, 7833.59, -187500.02, -187500.02, -187500.02, -77222.99, 0.11, -0.04, 1.06
10, 38704.21, 21565.70, 25618.03, 7783.06, -187500.02, -187500.02, -187500.02, -78059.60, 0.11, -0.04, 1.06
11, 44304.02, 27227.53, 30380.56, 13433.24, -187500.02, -187500.02, -187500.02, -76717.09, 0.11, -0.04, 1.06
12, 45004.79, 27853.51, 31677.96, 14207.17, -187500.02, -187500.02, -187500.02, -75807.26, 0.11, -0.04, 1.06
13, 39345.02, 22113.99, 26924.71, 8495.52, -187500.02, -187500.02, -187500.02, -77170.16, 0.11, -0.04, 1.06
14, 37850.98, 20673.06, 24944.46, 6913.95, -187500.02, -187500.02, -187500.02, -78367.43, 0.11, -0.04, 1.06
15, 42978.89, 25875.41, 29121.10, 12075.73, -187500.02, -187500.02, -187500.02, -77353.84, 0.10, -0.05, 1.06
16, 45032.75, 27880.16, 31488.89, 14205.29, -187500.02, -187500.02, -187500.02, -76180.98, 0.10, -0.05, 1.06
17, 40274.42, 23039.19, 27662.16, 9413.48, -187500.02, -187500.02, -187500.02, -77129.88, 0.10, -0.05, 1.06
18, 37686.07, 20488.37, 24881.02, 6749.47, -187500.02, -187500.02, -187500.02, -78452.90, 0.10, -0.05, 1.06
19, 41837.59, 24728.85, 28105.69, 10923.61, -187500.02, -187500.02, -187500.02, -77825.22, 0.10, -0.05, 1.06
20, 44872.42, 27738.38, 31205.96, 14033.43, -187500.02, -187500.02, -187500.02, -76531.84, 0.10, -0.05, 1.06
21, 41048.66, 23824.68, 28268.68, 10188.46, -187500.02, -187500.02, -187500.02, -77100.64, 0.10, -0.05, 1.06
22, 37524.31, 20304.12, 24798.16, 6582.68, -187500.02, -187500.02, -187500.02, -78534.23, 0.10, -0.05, 1.06
23, 40732.39, 23590.46, 27120.24, 9789.97, -187500.02, -187500.02, -187500.02, -78261.61, 0.10, -0.05, 1.06
24, 44655.92, 27506.66, 30834.32, 13786.11, -187500.02, -187500.02, -187500.02, -76875.45, 0.10, -0.05, 1.06
25, 41847.34, 24608.89, 28893.18, 10980.79, -187500.02, -187500.02, -187500.02, -77052.16, 0.10, -0.05, 1.06
26, 37578.38, 20334.14, 24912.94, 6634.42, -187500.02, -187500.02, -187500.02, -78527.80, 0.10, -0.05, 1.06
27, 39802.96, 22637.78, 26305.34, 8838.53, -187500.02, -187500.02, -187500.02, -78595.23, 0.10, -0.05, 1.06
28, 44252.56, 27105.91, 30366.77, 13359.86, -187500.02, -187500.02, -187500.02, -77205.38, 0.10, -0.05, 1.06
29, 42490.24, 25266.99, 29395.13, 11619.51, -187500.02, -187500.02, -187500.02, -77048.16, 0.10, -0.05, 1.06
30, 37858.45, 20604.46, 25234.58, 6912.70, -187500.02, -187500.02, -187500.02, -78460.21, 0.10, -0.05, 1.06
31, 38893.98, 21710.54, 25567.47, 7912.96, -187500.02, -187500.02, -187500.02, -78867.01, 0.10, -0.05, 1.06
32, 43384.36, 26235.98, 29533.02, 12470.10, -187500.02, -187500.02, -187500.02, -77655.59, 0.10, -0.05, 1.06
33, 42939.13, 25717.78, 29673.93, 12049.00, -187500.02, -187500.02, -187500.02, -77171.05, 0.10, -0.05, 1.06
34, 38564.67, 21295.13, 25888.42, 7604.82, -187500.02, -187500.02, -187500.02, -78333.27, 0.10, -0.05, 1.06
35, 38309.41, 21097.45, 25189.99, 7316.75, -187500.02, -187500.02, -187500.02, -79030.65, 0.10, -0.05, 1.06
36, 42405.57, 25236.59, 28662.24, 11467.41, -187500.02, -187500.02, -187500.02, -78088.88, 0.10, -0.04, 1.06
37, 43106.75, 25887.59, 29741.83, 12197.53, -187500.02, -187500.02, -187500.02, -77358.31, 0.10, -0.04, 1.06
38, 39218.64, 21941.48, 26482.77, 8252.89, -187500.02, -187500.02, -187500.02, -78229.41, 0.10, -0.04, 1.06
39, 37968.84, 20728.18, 24986.84, 6959.30, -187500.02, -187500.02, -187500.02, -79110.31, 0.10, -0.04, 1.06
40, 41569.10, 24382.60, 27945.16, 10600.94, -187500.02, -187500.02, -187500.02, -78426.45, 0.10, -0.04, 1.06
41, 43200.20, 25980.97, 29731.73, 12273.01, -187500.02, -187500.02, -187500.02, -77540.37, 0.10, -0.05, 1.06
42, 39859.26, 22578.35, 27051.71, 8887.81, -187500.02, -187500.02, -187500.02, -78139.15, 0.10, -0.05, 1.06
43, 37751.76, 20489.78, 24893.25, 6735.68, -187500.02, -187500.02, -187500.02, -79138.63, 0.10, -0.05, 1.06
44, 40724.90, 23527.80, 27222.79, 9739.95, -187500.02, -187500.02, -187500.02, -78726.64, 0.10, -0.05, 1.06
45, 43112.49, 25900.84, 29579.78, 12172.33, -187500.02, -187500.02, -187500.02, -77746.49, 0.10, -0.05, 1.06
46, 40462.49, 23180.41, 27570.79, 9485.21, -187500.02, -187500.02, -187500.02, -78064.41, 0.10, -0.04, 1.06
47, 37730.39, 20455.60, 24944.46, 6700.96, -187500.02, -187500.02, -187500.02, -79118.71, 0.10, -0.04, 1.06
48, 39963.58, 22745.78, 26578.64, 8954.96, -187500.02, -187500.02, -187500.02, -78974.09, 0.10, -0.04, 1.06
49, 42878.56, 25661.01, 29316.19, 11918.31, -187500.02, -187500.02, -187500.02, -77966.84, 0.10, -0.04, 1.06
50, 41031.32, 23747.07, 28019.32, 10044.45, -187500.02, -187500.02, -187500.02, -78011.66, 0.10, -0.04, 1.06
51, 37882.56, 20578.94, 25120.37, 6834.92, -187500.02, -187500.02, -187500.02, -79062.09, 0.09, -0.04, 1.06
52, 39275.95, 22029.95, 25983.54, 8237.80, -187500.02, -187500.02, -187500.02, -79183.87, 0.09, -0.04, 1.06
53, 42506.24, 25273.63, 28895.62, 11520.80, -187500.02, -187500.02, -187500.02, -78221.94, 0.09, -0.04, 1.06
54, 41515.52, 24231.10, 28373.06, 10526.06, -187500.02, -187500.02, -187500.02, -78016.10, 0.09, -0.04, 1.06
55, 38101.25, 20789.71, 25332.44, 7052.18, -187500.02, -187500.02, -187500.02, -78994.08, 0.09, -0.04, 1.06
56, 38670.75, 21412.57, 25461.36, 7621.50, -187500.02, -187500.02, -187500.02, -79351.73, 0.10, -0.05, 1.06
57, 42290.89, 25068.82, 28612.15, 11294.69, -187500.02, -187500.02, -187500.02, -78406.52, 0.10, -0.05, 1.06
58, 42150.54, 24872.98, 28887.01, 11168.38, -187500.02, -187500.02, -187500.02, -77919.61, 0.10, -0.05, 1.06
59, 38115.96, 20788.71, 25422.78, 7075.65, -187500.02, -187500.02, -187500.02, -78948.08, 0.10, -0.05, 1.06
60, 37811.64, 20537.03, 24704.13, 6741.15, -187500.02, -187500.02, -187500.02, -79611.81, 0.10, -0.05, 1.06
61, 42120.57, 24901.65, 28348.63, 11098.58, -187500.02, -187500.02, -187500.02, -78602.50, 0.10, -0.05, 1.06
62, 43110.08, 25839.93, 29714.05, 12135.37, -187500.02, -187500.02, -187500.02, -77714.71, 0.10, -0.05, 1.06
63, 38615.90, 21280.22, 25972.90, 7595.15, -187500.02, -187500.02, -187500.02, -78676.26, 0.10, -0.05, 1.06
64, 36983.48, 19691.39, 24039.21, 5904.35, -187500.02, -187500.02, -187500.02, -79724.13, 0.10, -0.05, 1.06
65, 41352.25, 24130.25, 27562.47, 10305.67, -187500.02, -187500.02, -187500.02, -78887.88, 0.10, -0.05, 1.06
66, 43682.86, 26419.45, 30067.81, 12698.67, -187500.02, -187500.02, -187500.02, -77684.83, 0.09, -0.04, 1.06
67, 39493.59, 22148.14, 26738.81, 8484.74, -187500.02, -187500.02, -187500.02, -78382.91, 0.09, -0.04, 1.06
68, 36573.40, 19260.34, 23746.07, 5499.11, -187500.02, -187500.02, -187500.02, -79703.45, 0.09, -0.04, 1.06
69, 40516.40, 23288.59, 26772.90, 9452.62, -187500.02, -187500.02, -187500.02, -79145.31, 0.09, -0.04, 1.06
70, 44249.90, 27013.04, 30435.68, 13265.07, -187500.02, -187500.02, -187500.02, -77639.09, 0.09, -0.04, 1.06
71, 40550.73, 23217.92, 27729.10, 9569.74, -187500.02, -187500.02, -187500.02, -78011.01, 0.11, -0.05, 1.06
72, 36097.98, 18757.85, 23462.27, 5028.36, -187500.02, -187500.02, -187500.02, -79650.10, 0.11, -0.05, 1.06
73, 39354.76, 22109.43, 25673.41, 8255.30, -187500.02, -187500.02, -187500.02, -79476.95, 0.11, -0.05, 1.06
74, 44628.90, 27393.69, 30576.00, 13617.04, -187500.02, -187500.02, -187500.02, -77680.71, 0.11, -0.05, 1.06
75, 41886.50, 24543.02, 28916.38, 10919.18, -187500.02, -187500.02, -187500.02, -77594.21, 0.11, -0.05, 1.06
76, 36051.46, 18683.44, 23607.51, 4994.16, -187500.02, -187500.02, -187500.02, -79435.62, 0.11, -0.04, 1.05
77, 38084.98, 20827.42, 24575.70, 6969.39, -187500.02, -187500.02, -187500.02, -79760.05, 0.11, -0.04, 1.05
78, 44635.02, 27425.30, 30418.38, 13598.38, -187500.02, -187500.02, -187500.02, -77818.89, 0.11, -0.04, 1.05
79, 43467.52, 26144.68, 30304.63, 12509.89, -187500.02, -187500.02, -187500.02, -77152.45, 0.11, -0.04, 1.05
80, 36606.79, 19222.63, 24323.99, 5581.66, -187500.02, -187500.02, -187500.02, -79015.70, 0.11, -0.04, 1.05
81, 36855.54, 19571.07, 23601.41, 5729.29, -187500.02, -187500.02, -187500.02, -79933.41, 0.10, -0.04, 1.05
82, 44366.73, 27163.16, 30041.77, 13289.94, -187500.02, -187500.02, -187500.02, -77990.84, 0.10, -0.04, 1.05
83, 45323.05, 28024.57, 31894.24, 14368.13, -187500.02, -187500.02, -187500.02, -76644.29, 0.10, -0.04, 1.05
84, 37576.01, 20174.21, 25442.83, 6586.75, -187500.02, -187500.02, -187500.02, -78435.04, 0.10, -0.04, 1.05
85, 35555.72, 18236.36, 22691.89, 4426.72, -187500.02, -187500.02, -187500.02, -80020.02, 0.10, -0.04, 1.05
86, 43230.02, 26019.87, 28941.89, 12114.44, -187500.02, -187500.02, -187500.02, -78363.36, 0.10, -0.04, 1.05
87, 46474.46, 29195.31, 32748.17, 15500.62, -187500.02, -187500.02, -187500.02, -76439.77, 0.10, -0.05, 1.05
88, 38916.26, 21504.26, 26787.02, 7958.25, -187500.02, -187500.02, -187500.02, -77858.92, 0.10, -0.05, 1.05
89, 34264.33, 16904.31, 21779.94, 3151.10, -187500.02, -187500.02, -187500.02, -80122.77, 0.10, -0.05, 1.05
90, 41690.11, 24475.34, 27426.06, 10527.87, -187500.02, -187500.02, -187500.02, -78901.56, 0.10, -0.05, 1.05
91, 48330.39, 31087.86, 34070.88, 17313.86, -187500.02, -187500.02, -187500.02, -76123.31, 0.10, -0.05, 1.05
92, 41524.64, 24104.41, 29290.26, 10612.99, -187500.02, -187500.02, -187500.02, -76836.04, 0.10, -0.05, 1.06
93, 32634.60, 15210.16, 20789.54, 1567.19, -187500.02, -187500.02, -187500.02, -80103.22, 0.10, -0.05, 1.06
94, 38786.00, 21550.41, 24726.97, 7564.41, -187500.02, -187500.02, -187500.02, -79795.44, 0.10, -0.05, 1.06
95, 49127.32, 31922.96, 34346.32, 18047.60, -187500.02, -187500.02, -187500.02, -76290.30, 0.10, -0.05, 1.06
96, 44735.56, 27341.17, 32108.26, 13832.64, -187500.02, -187500.02, -187500.02, -75910.57, 0.10, -0.05, 1.06
97, 34142.87, 16691.23, 22521.77, 3119.54, -187500.02, -187500.02, -187500.02, -79158.56, 0.09, -0.05, 1.06
98, 37487.09, 20217.35, 23860.91, 6272.97, -187500.02, -187500.02, -187500.02, -79724.96, 0.09, -0.05, 1.06
99, 48724.66, 31535.23, 33829.50, 17608.21, -187500.02, -187500.02, -187500.02, -76367.98, 0.09, -0.05, 1.06
100, 47101.85, 29730.79, 34069.15, 16190.35, -187252.94, -187500.02, -187500.02, -75151.19, 0.09, -0.05, 1.06
101, 35740.77, 18263.41, 24241.27, 4758.37, -187500.02, -187500.02, -187500.02, -78209.29, 0.09, -0.05, 1.06
102, 36110.98, 18790.31, 22918.54, 4911.04, -187500.02, -187500.02, -187500.02, -79646.46, 0.10, -0.05, 1.06
103, 47649.76, 30450.16, 32691.01, 16486.69, -187500.02, -187500.02, -187500.02, -76629.42, 0.10, -0.05, 1.06
104, 49069.99, 31721.53, 35473.31, 18129.21, -186754.56, -187500.02, -187500.02, -74593.89, 0.10, -0.05, 1.06
105, 37724.36, 20226.99, 25982.27, 6767.53, -187500.02, -187500.02, -187500.02, -77242.26, 0.10, -0.05, 1.06
106, 35175.48, 17808.71, 22118.10, 3992.24, -187500.02, -187500.02, -187500.02, -79412.82, 0.10, -0.05, 1.06
107, 46267.17, 29064.04, 31065.50, 15074.55, -187500.02, -187500.02, -187500.02, -76909.04, 0.10, -0.04, 1.06
108, 50420.26, 33111.67, 36140.51, 19451.38, -186523.27, -187424.56, -187500.02, -74274.64, 0.10, -0.04, 1.06
109, 39949.25, 22461.00, 27904.90, 9020.27, -187500.02, -187500.02, -187500.02, -76312.01, 0.10, -0.04, 1.06
110, 34558.57, 17138.18, 21955.38, 3403.86, -187500.02, -187500.02, -187500.02, -79087.27, 0.10, -0.04, 1.06
111, 44296.17, 27051.29, 29583.83, 13068.53, -187500.02, -187500.02, -187500.02, -77338.13, 0.10, -0.04, 1.06
112, 51147.70, 33840.16, 36964.84, 20128.59, -186550.64, -187450.03, -187500.02, -74193.08, 0.10, -0.05, 1.06
113, 42266.92, 24761.84, 30524.84, 11345.95, -187500.02, -187500.02, -187500.02, -75451.66, 0.10, -0.05, 1.06
114, 34327.09, 16851.87, 22554.09, 3209.31, -187500.02, -187500.02, -187500.02, -78676.33, 0.10, -0.05, 1.06
115, 42228.12, 24946.29, 28075.11, 10984.38, -187500.02, -187500.02, -187500.02, -77748.73, 0.10, -0.05, 1.06
116, 51342.00, 34043.23, 36844.75, 20272.27, -186787.78, -187500.02, -187500.02, -74299.16, 0.10, -0.05, 1.06
117, 44669.71, 27171.12, 32420.31, 13756.29, -187252.98, -187500.02, -187500.02, -74691.26, 0.10, -0.04, 1.06
118, 34781.86, 17269.38, 23072.28, 3710.30, -187500.02, -187500.02, -187500.02, -78106.41, 0.10, -0.04, 1.06
119, 40263.94, 22946.26, 26294.28, 9020.40, -187500.02, -187500.02, -187500.02, -78055.55, 0.10, -0.04, 1.06
120, 50902.39, 33617.45, 36031.19, 19785.85, -187213.00, -187500.02, -187500.02, -74572.93, 0.10, -0.04, 1.06
121, 46888.57, 29415.45, 34144.14, 15963.35, -186724.67, -187500.02, -187500.02, -74078.28, 0.10, -0.04, 1.06
122, 35839.21, 18298.95, 24220.55, 4799.70, -187500.02, -187500.02, -187500.02, -77405.48, 0.10, -0.04, 1.06
123, 38470.21, 21109.93, 24874.67, 7230.70, -187500.02, -187500.02, -187500.02, -78253.43, 0.10, -0.04, 1.06
124, 49971.64, 32695.30, 34953.46, 18810.27, -187500.02, -187500.02, -187500.02, -74950.05, 0.10, -0.04, 1.06
125, 48889.39, 31434.58, 35655.81, 17940.98, -186348.86, -187335.22, -187500.02, -73598.81, 0.10, -0.04, 1.06
126, 37312.95, 19744.28, 25705.94, 6303.42, -187500.02, -187500.02, -187500.02, -76658.61, 0.10, -0.04, 1.06
127, 36998.98, 19584.75, 23803.51, 5768.23, -187500.02, -187500.02, -187500.02, -78316.77, 0.11, -0.05, 1.06
128, 48517.16, 31237.19, 33476.81, 17317.39, -187500.02, -187500.02, -187500.02, -75429.89, 0.11, -0.05, 1.06
129, 50503.96, 33083.04, 36804.34, 19531.63, -186139.53, -187144.25, -187500.02, -73284.98, 0.11, -0.05, 1.06
130, 39197.34, 21623.57, 27512.58, 8221.06, -187500.02, -187500.02, -187500.02, -75856.59, 0.11, -0.05, 1.06
131, 35879.49, 18424.34, 23102.94, 4679.47, -187500.02, -187500.02, -187500.02, -78242.44, 0.11, -0.05, 1.06
132, 46697.13, 29405.28, 31796.61, 15466.58, -187500.02, -187500.02, -187500.02, -75949.82, 0.11, -0.04, 1.06
133, 51567.86, 34179.97, 37452.85, 20556.99, -186146.30, -187158.23, -187500.02, -73181.28, 0.11, -0.04, 1.06
134, 41333.36, 23765.69, 29473.63, 10387.44, -187500.02, -187500.02, -187500.02, -75081.83, 0.11, -0.04, 1.06
135, 35218.26, 17723.19, 22842.59, 4068.93, -187500.02, -187500.02, -187500.02, -78040.69, 0.11, -0.04, 1.06
136, 44623.20, 27311.57, 29921.23, 13389.57, -187500.02, -187500.02, -187500.02, -76494.46, 0.11, -0.04, 1.06
137, 52077.68, 34717.20, 37548.76, 21045.06, -186347.67, -187353.80, -187500.02, -73271.90, 0.11, -0.04, 1.06
138, 43591.96, 26025.99, 31435.04, 12670.06, -187500.02, -187500.02, -187500.02, -74373.15, 0.10, -0.05, 1.07
139, 35182.52, 17637.98, 23115.59, 4065.38, -187500.02, -187500.02, -187500.02, -77663.75, 0.10, -0.05, 1.07
140, 42525.00, 25179.22, 28118.85, 11273.71, -187500.02, -187500.02, -187500.02, -76958.71, 0.10, -0.05, 1.07
141, 52030.79, 34691.29, 37188.09, 20948.88, -186713.80, -187500.02, -187500.02, -73510.46, 0.10, -0.05, 1.07
142, 45931.29, 28391.43, 33369.23, 15010.63, -186968.31, -187500.02, -187500.02, -73710.66, 0.10, -0.05, 1.07
143, 35684.34, 18117.56, 23830.40, 4614.38, -187500.02, -187500.02, -187500.02, -77143.83, 0.10, -0.04, 1.06
144, 40437.07, 23059.56, 26394.44, 9185.40, -187500.02, -187500.02, -187500.02, -77350.60, 0.10, -0.04, 1.06
145, 51422.82, 34093.41, 36345.12, 20289.39, -187238.36, -187500.02, -187500.02, -73883.60, 0.10, -0.04, 1.06
146, 48142.06, 30627.41, 35130.41, 17212.77, -186498.28, -187500.02, -187500.02, -73156.74, 0.10, -0.04, 1.06
147, 36771.25, 19173.68, 25040.23, 5740.26, -187500.02, -187500.02, -187500.02, -76492.41, 0.10, -0.04, 1.06
148, 38630.52, 21208.14, 24995.51, 7384.81, -187500.02, -187500.02, -187500.02, -77587.35, 0.10, -0.05, 1.06
149, 50222.45, 32898.95, 35056.18, 19044.11, -187500.02, -187500.02, -187500.02, -74380.63, 0.10, -0.05, 1.06
150, 49872.73, 32378.24, 36380.95, 18910.58, -186259.98, -187347.89, -187500.02, -72838.81, 0.10, -0.05, 1.06
151, 38298.71, 20682.61, 26549.36, 7288.28, -187500.02, -187500.02, -187500.02, -75802.48, 0.10, -0.05, 1.06
152, 37200.81, 19727.38, 23975.26, 5965.05, -187500.02, -187500.02, -187500.02, -77673.27, 0.10, -0.05, 1.06
153, 48644.99, 31310.28, 33477.64, 17421.49, -187500.02, -187500.02, -187500.02, -74924.19, 0.10, -0.05, 1.06
154, 51316.30, 33851.85, 37359.53, 20316.91, -186140.19, -187249.77, -187500.02, -72633.00, 0.10, -0.05, 1.06
155, 40210.81, 22591.38, 28357.19, 9228.86, -187500.02, -187500.02, -187500.02, -75059.62, 0.10, -0.05, 1.06
156, 36138.37, 18627.54, 23355.83, 4933.90, -187500.02, -187500.02, -187500.02, -77623.72, 0.10, -0.05, 1.06
157, 46720.40, 29380.32, 31691.67, 15466.16, -187500.02, -187500.02, -187500.02, -75503.85, 0.10, -0.05, 1.06
158, 52288.95, 34861.63, 37917.90, 21254.74, -186188.77, -187305.41, -187500.02, -72592.67, 0.10, -0.06, 1.05
159, 42396.14, 24776.37, 30357.09, 11433.45, -187500.02, -187500.02, -187500.02, -74316.80, 0.10, -0.06, 1.05
160, 35635.30, 18075.99, 23246.93, 4454.59, -187500.02, -187500.02, -187500.02, -77394.30, 0.10, -0.06, 1.05
161, 44605.52, 27235.29, 29882.56, 13322.62, -187500.02, -187500.02, -187500.02, -76049.93, 0.10, -0.06, 1.05
162, 52549.38, 35143.85, 37868.19, 21466.79, -186449.39, -187500.02, -187500.02, -72752.98, 0.10, -0.06, 1.05
163, 44563.23, 26959.73, 32265.03, 13606.02, -187407.30, -187500.02, -187500.02, -73621.21, 0.10, -0.05, 1.05
164, 35629.26, 18037.16, 23610.77, 4487.72, -187500.02, -187500.02, -187500.02, -76984.26, 0.10, -0.05, 1.05
165, 42425.93, 25028.16, 28085.14, 11129.11, -187500.02, -187500.02, -187500.02, -76533.94, 0.10, -0.05, 1.05
166, 52339.91, 34953.86, 37425.22, 21199.24, -186869.27, -187500.02, -187500.02, -73055.94, 0.10, -0.05, 1.05
167, 46789.73, 29200.05, 34134.11, 15815.29, -186886.84, -187500.02, -187500.02, -73039.62, 0.10, -0.05, 1.05
168, 36255.45, 18623.61, 24445.48, 5135.83, -187500.02, -187500.02, -187500.02, -76458.72, 0.10, -0.06, 1.05
169, 40415.21, 22971.85, 26486.88, 9108.80, -187500.02, -187500.02, -187500.02, -76891.45, 0.10, -0.06, 1.05
170, 51553.87, 34172.11, 36467.16, 20357.21, -187443.31, -187500.02, -187500.02, -73493.67, 0.10, -0.06, 1.05
171, 48897.64, 31332.92, 35797.77, 17904.89, -186468.55, -187500.02, -187500.02, -72559.84, 0.10, -0.06, 1.05
172, 37425.36, 19773.31, 25730.97, 6342.28, -187500.02, -187500.02, -187500.02, -75810.21, 0.10, -0.06, 1.05
173, 38647.11, 21165.38, 25141.11, 7351.04, -187500.02, -187500.02, -187500.02, -77112.53, 0.10, -0.05, 1.06
174, 50263.59, 32888.82, 35115.02, 19023.12, -187500.02, -187500.02, -187500.02, -74014.09, 0.10, -0.05, 1.06
175, 50609.73, 33072.73, 37060.78, 19588.11, -186251.42, -187445.95, -187500.02, -72261.22, 0.10, -0.05, 1.06
176, 38997.78, 21325.55, 27280.84, 7944.44, -187500.02, -187500.02, -187500.02, -75128.26, 0.10, -0.05, 1.06
177, 37171.51, 19638.69, 24107.61, 5890.47, -187500.02, -187500.02, -187500.02, -77227.66, 0.10, -0.05, 1.06
178, 48529.50, 31144.09, 33427.03, 17246.18, -187500.02, -187500.02, -187500.02, -74621.97, 0.10, -0.05, 1.06
179, 51913.67, 34406.22, 37876.97, 20855.70, -186207.39, -187413.72, -187500.02, -72140.50, 0.10, -0.05, 1.06
180, 40955.86, 23278.11, 29093.21, 9922.21, -187500.02, -187500.02, -187500.02, -74412.38, 0.10, -0.05, 1.06
181, 36279.74, 18692.18, 23609.12, 5016.74, -187500.02, -187500.02, -187500.02, -77122.77, 0.10, -0.05, 1.06
182, 46561.45, 29147.41, 31616.21, 15238.95, -187500.02, -187500.02, -187500.02, -75193.84, 0.10, -0.05, 1.06
183, 52696.88, 35208.51, 38274.12, 21590.40, -186322.25, -187500.02, -187500.02, -72173.13, 0.10, -0.05, 1.06
184, 43153.71, 25471.02, 31096.17, 12130.63, -187500.02, -187500.02, -187500.02, -73693.79, 0.10, -0.05, 1.06
185, 35839.46, 18200.67, 23557.33, 4605.71, -187500.02, -187500.02, -187500.02, -76878.29, 0.10, -0.05, 1.06
186, 44347.85, 26901.33, 29683.83, 12998.63, -187500.02, -187500.02, -187500.02, -75771.65, 0.10, -0.05, 1.06
187, 52884.80, 35418.51, 38076.04, 21724.24, -186648.14, -187500.02, -187500.02, -72402.08, 0.10, -0.05, 1.06
188, 45433.41, 27766.32, 32968.75, 14412.14, -187377.59, -187500.02, -187500.02, -73057.77, 0.10, -0.05, 1.06
189, 36003.96, 18336.32, 23929.38, 4811.26, -187500.02, -187500.02, -187500.02, -76483.22, 0.11, -0.05, 1.06
190, 42188.65, 24713.79, 27810.31, 10832.46, -187500.02, -187500.02, -187500.02, -76258.72, 0.11, -0.05, 1.06
191, 52500.02, 35054.98, 37404.21, 21295.11, -187134.30, -187500.02, -187500.02, -72775.69, 0.11, -0.05, 1.06
192, 47600.65, 29957.39, 34730.56, 16577.04, -186901.23, -187500.02, -187500.02, -72535.97, 0.11, -0.05, 1.06
193, 36760.44, 19059.96, 24892.15, 5603.94, -187500.02, -187500.02, -187500.02, -75938.28, 0.11, -0.05, 1.06
194, 40214.27, 22699.56, 26251.86, 8861.86, -187500.02, -187500.02, -187500.02, -76594.77, 0.11, -0.04, 1.06
195, 51563.98, 34126.44, 36298.76, 20309.31, -187500.02, -187500.02, -187500.02, -73249.75, 0.11, -0.04, 1.06
196, 49585.40, 31968.98, 36223.93, 18542.29, -186545.23, -187500.02, -187500.02, -72121.68, 0.11, -0.04, 1.06
197, 37987.35, 20269.41, 26155.88, 6865.81, -187500.02, -187500.02, -187500.02, -75307.41, 0.11, -0.04, 1.06
198, 38466.19, 20912.27, 24931.67, 7123.79, -187500.02, -187500.02, -187500.02, -76815.05, 0.11, -0.04, 1.06
199, 50146.16, 32711.55, 34819.90, 18842.21, -187500.02, -187500.02, -187500.02, -73804.43, 0.11, -0.05, 1.05
200, 51270.70, 33678.36, 37437.65, 20191.20, -186327.00, -187500.02, -187500.02, -71837.97, 0.11, -0.05, 1.05
201, 39705.39, 21970.51, 27838.85, 8610.83, -187500.02, -187500.02, -187500.02, -74584.21, 0.11, -0.05, 1.05
202, 37155.21, 19549.60, 24046.54, 5832.08, -187500.02, -187500.02, -187500.02, -76845.65, 0.11, -0.05, 1.05
203, 48322.37, 30868.34, 33091.64, 16982.52, -187500.02, -187500.02, -187500.02, -74391.72, 0.11, -0.05, 1.05
204, 52380.84, 34810.58, 38091.64, 21264.62, -186344.78, -187500.02, -187500.02, -71769.39, 0.10, -0.04, 1.05
205, 41723.53, 23974.57, 29684.61, 10644.53, -187500.02, -187500.02, -187500.02, -73859.68, 0.10, -0.04, 1.05
206, 36299.90, 18637.53, 23635.09, 4998.92, -187500.02, -187500.02, -187500.02, -76722.36, 0.10, -0.04, 1.05
207, 46218.22, 28745.21, 31226.91, 14844.22, -187500.02, -187500.02, -187500.02, -74987.84, 0.10, -0.04, 1.05
208, 52986.39, 35448.03, 38352.93, 21825.00, -186519.89, -187500.02, -187500.02, -71854.46, 0.10, -0.04, 1.05
209, 43907.30, 26177.45, 31671.84, 12845.17, -187500.02, -187500.02, -187500.02, -73162.66, 0.10, -0.05, 1.05
210, 36043.17, 18347.56, 23765.13, 4779.16, -187500.02, -187500.02, -187500.02, -76405.10, 0.10, -0.05, 1.05
211, 44033.11, 26532.53, 29393.97, 12645.07, -187500.02, -187500.02, -187500.02, -75501.20, 0.10, -0.05, 1.05
212, 53047.57, 35531.65, 38122.17, 21836.60, -186859.95, -187500.02, -187500.02, -72085.91, 0.10, -0.05, 1.05
213, 46201.55, 28482.29, 33618.70, 15136.47, -187350.44, -187500.02, -187500.02, -72510.60, 0.10, -0.05, 1.05
214, 36336.96, 18601.14, 24326.16, 5103.40, -187500.02, -187500.02, -187500.02, -75948.09, 0.10, -0.05, 1.06
215, 41905.65, 24368.14, 27634.85, 10507.11, -187500.02, -187500.02, -187500.02, -75924.78, 0.10, -0.05, 1.06
216, 52508.87, 35011.66, 37352.89, 21249.78, -187369.44, -187500.02, -187500.02, -72458.20, 0.10, -0.05, 1.06
217, 48311.24, 30617.06, 35313.83, 17235.61, -186890.39, -187500.02, -187500.02, -71988.33, 0.10, -0.05, 1.06
218, 37124.32, 19366.13, 25302.22, 5929.65, -187500.02, -187500.02, -187500.02, -75385.37, 0.10, -0.05, 1.06
219, 39846.41, 22268.44, 26019.06, 8447.30, -187500.02, -187500.02, -187500.02, -76273.25, 0.10, -0.06, 1.07
220, 51378.10, 33888.29, 36121.87, 20064.40, -187500.02, -187500.02, -187500.02, -72978.11, 0.10, -0.06, 1.07
221, 50186.15, 32526.30, 36728.96, 19088.41, -186589.45, -187500.02, -187500.02, -71621.34, 0.10, -0.06, 1.07
222, 38492.41, 20714.01, 26711.72, 7329.85, -187500.02, -187500.02, -187500.02, -74721.59, 0.10, -0.06, 1.07
223, 38254.65, 20630.08, 24866.94, 6863.86, -187500.02, -187500.02, -187500.02, -76417.02, 0.10, -0.06, 1.07
224, 49860.77, 32369.21, 34618.13, 18501.70, -187500.02, -187500.02, -187500.02, -73524.20, 0.11, -0.05, 1.06
225, 51702.62, 34071.75, 37832.76, 20572.52, -186430.86, -187500.02, -187500.02, -71389.39, 0.11, -0.05, 1.06
226, 40263.22, 22477.90, 28463.96, 9127.51, -187500.02, -187500.02, -187500.02, -73993.59, 0.11, -0.05, 1.06
227, 36975.89, 19313.49, 24047.44, 5612.34, -187500.02, -187500.02, -187500.02, -76430.47, 0.11, -0.05, 1.06
228, 47914.07, 30416.83, 32770.81, 16516.69, -187500.02, -187500.02, -187500.02, -74136.29, 0.11, -0.05, 1.06
229, 52796.41, 35196.38, 38357.29, 21619.79, -186454.58, -187500.02, -187500.02, -71321.30, 0.11, -0.05, 1.06
230, 42409.48, 24629.25, 30198.81, 11296.53, -187500.02, -187500.02, -187500.02, -73231.94, 0.11, -0.05, 1.06
231, 36292.53, 18590.44, 23496.51, 4960.99, -187500.02, -187500.02, -187500.02, -76236.63, 0.11, -0.05, 1.06
232, 45784.37, 28266.33, 30548.71, 14360.62, -187500.02, -187500.02, -187500.02, -74705.02, 0.11, -0.05, 1.06
233, 53180.52, 35604.61, 38059.34, 21957.08, -186721.34, -187500.02, -187500.02, -71483.27, 0.11, -0.05, 1.06
234, 44559.09, 26786.93, 31854.43, 13449.18, -187500.02, -187500.02, -187500.02, -72594.55, 0.10, -0.05, 1.06
235, 36098.04, 18349.02, 23599.93, 4793.53, -187500.02, -187500.02, -187500.02, -75933.10, 0.10, -0.05, 1.06
236, 43524.61, 25971.43, 28817.30, 12076.49, -187500.02, -187500.02, -187500.02, -75248.71, 0.10, -0.05, 1.06
237, 53063.73, 35512.92, 38067.63, 21783.72, -187124.27, -187500.02, -187500.02, -71771.31, 0.10, -0.05, 1.06
238, 46787.74, 29040.75, 34258.43, 15672.13, -187380.91, -187500.02, -187500.02, -71975.50, 0.10, -0.05, 1.06
239, 36474.04, 18701.57, 24748.39, 5205.77, -187500.02, -187500.02, -187500.02, -75445.27, 0.10, -0.05, 1.06
240, 41352.71, 23773.38, 27364.57, 9902.58, -187500.02, -187500.02, -187500.02, -75664.27, 0.10, -0.05, 1.07
241, 52369.24, 34844.54, 37225.58, 21037.82, -187500.02, -187500.02, -187500.02, -72189.25, 0.10, -0.05, 1.07
242, 48946.45, 31233.70, 35837.71, 17814.09, -186932.45, -187500.02, -187500.02, -71464.11, 0.10, -0.05, 1.07
243, 37530.77, 19738.78, 25681.57, 6294.83, -187500.02, -187500.02, -187500.02, -74817.84, 0.10, -0.05, 1.07
244, 39505.77, 21894.99, 25728.60, 8058.61, -187500.02, -187500.02, -187500.02, -75920.88, 0.10, -0.05, 1.07
245, 51140.70, 33631.64, 35781.39, 19762.14, -187500.02, -187500.02, -187500.02, -72706.22, 0.10, -0.05, 1.06
246, 50684.48, 33007.40, 37027.36, 19525.68, -186691.08, -187500.02, -187500.02, -71151.45, 0.10, -0.05, 1.06
247, 39018.79, 21221.06, 27125.32, 7815.20, -187500.02, -187500.02, -187500.02, -74134.92, 0.10, -0.05, 1.06
248, 38005.59, 20357.01, 24633.59, 6580.69, -187500.02, -187500.02, -187500.02, -76022.93, 0.10, -0.05, 1.06
249, 49498.32, 31990.55, 34154.87, 18087.72, -187500.02, -187500.02, -187500.02, -73276.34, 0.10, -0.05, 1.06
250, 52106.00, 34462.54, 37967.10, 20925.50, -186597.27, -187500.02, -187500.02, -70963.39, 0.09, -0.05, 1.06
251, 40888.16, 23083.18, 28884.06, 9741.58, -187500.02, -187500.02, -187500.02, -73398.95, 0.09, -0.05, 1.06
252, 36882.03, 19191.39, 23922.78, 5571.42, -187500.02, -187500.02, -187500.02, -75976.91, 0.09, -0.05, 1.06
253, 47523.74, 30010.57, 32329.21, 16201.84, -187500.02, -187500.02, -187500.02, -73856.06, 0.09, -0.05, 1.06
254, 53031.43, 35429.14, 38470.39, 21928.31, -186680.31, -187500.02, -187500.02, -70929.81, 0.09, -0.05, 1.06
255, 43016.96, 25223.59, 30789.50, 11995.87, -187500.02, -187500.02, -187500.02, -72654.43, 0.10, -0.05, 1.06
0, 36293.22, 18565.40, 23697.03, 5077.40, -187500.02, -187500.02, -187500.02, -75744.98, 0.10, -0.05, 1.06
1, 45345.45, 27811.31, 30378.77, 14032.98, -187500.02, -187500.02, -187500.02, -74404.77, 0.10, -0.05, 1.06
2, 53275.49, 35702.35, 38358.52, 22159.12, -186986.55, -187500.02, -187500.02, -71111.52, 0.10, -0.05, 1.06
3, 45211.48, 27437.97, 32673.85, 14214.68, -187500.02, -187500.02, -187500.02, -72001.43, 0.10, -0.05, 1.06
4, 36261.84, 18502.93, 23982.86, 5086.36, -187500.02, -187500.02, -187500.02, -75382.26, 0.10, -0.04, 1.06
5, 43088.26, 25524.64, 28460.30, 11767.86, -187500.02, -187500.02, -187500.02, -74926.66, 0.10, -0.04, 1.06
6, 53012.26, 35458.14, 37795.46, 21848.90, -187451.92, -187500.02, -187500.02, -71444.63, 0.10, -0.04, 1.06
7, 47390.86, 29636.13, 34448.42, 16387.76, -187481.00, -187500.02, -187500.02, -71445.41, 0.10, -0.04, 1.06
8, 36757.60, 18962.01, 24684.62, 5610.42, -187500.02, -187500.02, -187500.02, -74909.73, 0.10, -0.04, 1.06
9, 40999.76, 23391.95, 26776.79, 9667.89, -187500.02, -187500.02, -187500.02, -75326.49, 0.10, -0.05, 1.05
10, 52163.89, 34618.52, 36755.97, 20945.01, -187500.02, -187500.02, -187500.02, -71914.61, 0.10, -0.05, 1.05
11, 49459.71, 31732.14, 36029.85, 18440.19, -187075.58, -187500.02, -187500.02, -70990.50, 0.10, -0.05, 1.05
12, 37915.35, 20098.04, 25929.50, 6807.69, -187500.02, -187500.02, -187500.02, -74270.75, 0.10, -0.05, 1.05
13, 39131.33, 21483.51, 25320.19, 7808.58, -187500.02, -187500.02, -187500.02, -75593.42, 0.10, -0.05, 1.05
14, 50809.45, 33271.00, 35328.96, 19542.24, -187500.02, -187500.02, -187500.02, -72478.23, 0.10, -0.06, 1.06
15, 51203.64, 33508.64, 37315.32, 20156.82, -186845.36, -187500.02, -187500.02, -70694.41, 0.10, -0.06, 1.06
16, 39551.84, 21722.68, 27534.76, 8474.28, -187500.02, -187500.02, -187500.02, -73561.71, 0.10, -0.06, 1.06
17, 37698.85, 20011.74, 24316.30, 6396.91, -187500.02, -187500.02, -187500.02, -75678.31, 0.10, -0.06, 1.06
18, 49056.89, 31513.43, 33610.92, 17751.84, -187500.02, -187500.02, -187500.02, -73076.97, 0.10, -0.06, 1.06
19, 52368.93, 34697.53, 37990.59, 21289.12, -186830.56, -187500.02, -187500.02, -70622.62, 0.10, -0.06, 1.06
20, 41371.60, 23532.63, 29200.90, 10322.24, -187500.02, -187500.02, -187500.02, -72919.19, 0.10, -0.06, 1.06
21, 36711.24, 18976.92, 23730.94, 5445.20, -187500.02, -187500.02, -187500.02, -75637.54, 0.10, -0.06, 1.06
22, 46999.82, 29438.61, 31729.89, 15677.71, -187500.02, -187500.02, -187500.02, -73712.34, 0.10, -0.06, 1.06
23, 53108.44, 35476.98, 38336.44, 21998.72, -186970.97, -187500.02, -187500.02, -70703.44, 0.10, -0.06, 1.06
24, 43542.74, 25720.20, 31157.24, 12511.32, -187500.02, -187500.02, -187500.02, -72237.15, 0.10, -0.06, 1.07
25, 36196.08, 18418.75, 23606.55, 4960.77, -187500.02, -187500.02, -187500.02, -75444.82, 0.10, -0.06, 1.07
26, 44738.07, 27138.84, 29768.79, 13390.21, -187500.02, -187500.02, -187500.02, -74334.12, 0.10, -0.06, 1.07
27, 53284.32, 35637.98, 38192.45, 22117.70, -187301.78, -187500.02, -187500.02, -70959.32, 0.10, -0.06, 1.07
28, 45818.37, 27943.01, 33111.56, 14781.30, -187500.02, -187500.02, -187500.02, -71616.71, 0.10, -0.06, 1.07
29, 36305.80, 18439.25, 24063.17, 5093.60, -187500.02, -187500.02, -187500.02, -75079.10, 0.09, -0.06, 1.07
30, 42509.53, 24834.20, 27964.33, 11140.67, -187500.02, -187500.02, -187500.02, -74855.74, 0.09, -0.06, 1.07
31, 52769.36, 35098.47, 37489.53, 21545.65, -187500.02, -187500.02, -187500.02, -71392.25, 0.09, -0.06, 1.07
32, 47839.68, 29951.78, 34819.57, 16785.00, -187500.02, -187500.02, -187500.02, -71172.24, 0.09, -0.06, 1.07
33, 36989.50, 19034.59, 24991.91, 5800.97, -187500.02, -187500.02, -187500.02, -74597.78, 0.09, -0.06, 1.07
34, 40459.36, 22685.05, 26423.27, 9077.80, -187500.02, -187500.02, -187500.02, -75255.10, 0.09, -0.06, 1.07
35, 51772.88, 34063.34, 36444.27, 20485.33, -187500.02, -187500.02, -187500.02, -71920.11, 0.10, -0.06, 1.07
36, 49753.46, 31858.03, 36370.80, 18670.72, -187223.61, -187500.02, -187500.02, -70814.64, 0.10, -0.06, 1.07
37, 38134.64, 20129.40, 26329.82, 6974.15, -187500.02, -187500.02, -187500.02, -74023.77, 0.10, -0.06, 1.07
38, 38618.00, 20771.21, 25119.96, 7239.91, -187500.02, -187500.02, -187500.02, -75541.54, 0.10, -0.06, 1.07
39, 50254.41, 32519.35, 34966.93, 18917.89, -187500.02, -187500.02, -187500.02, -72552.73, 0.10, -0.06, 1.07
40, 51341.57, 33450.43, 37554.02, 20226.85, -187026.16, -187500.02, -187500.02, -70612.80, 0.10, -0.06, 1.06
41, 39768.40, 21737.00, 27962.66, 8634.84, -187500.02, -187500.02, -187500.02, -73384.93, 0.10, -0.06, 1.06
42, 37223.07, 19321.14, 24190.42, 5864.07, -187500.02, -187500.02, -187500.02, -75662.17, 0.10, -0.06, 1.06
43, 48373.96, 30629.06, 33207.27, 16998.14, -187500.02, -187500.02, -187500.02, -73219.24, 0.10, -0.06, 1.06
44, 52381.45, 34522.92, 38175.82, 21230.24, -187058.14, -187500.02, -187500.02, -70627.42, 0.10, -0.06, 1.06
45, 41707.77, 23675.30, 29764.01, 10597.63, -187500.02, -187500.02, -187500.02, -72751.22, 0.10, -0.05, 1.06
46, 36313.63, 18370.76, 23720.32, 4988.28, -187500.02, -187500.02, -187500.02, -75623.80, 0.10, -0.05, 1.06
47, 46210.87, 28450.30, 31272.79, 14813.42, -187500.02, -187500.02, -187500.02, -73906.24, 0.10, -0.05, 1.06
48, 52961.23, 35128.87, 38363.24, 21769.21, -187267.73, -187500.02, -187500.02, -70797.56, 0.10, -0.05, 1.06
49, 43864.83, 25833.36, 31666.34, 12764.86, -187500.02, -187500.02, -187500.02, -72142.51, 0.10, -0.05, 1.06
50, 36031.19, 18035.60, 23781.34, 4731.77, -187500.02, -187500.02, -187500.02, -75402.67, 0.10, -0.05, 1.06
51, 44032.96, 26226.22, 29409.73, 12607.68, -187500.02, -187500.02, -187500.02, -74502.59, 0.10, -0.05, 1.06
52, 52996.34, 35179.21, 38076.51, 21750.55, -187500.02, -187500.02, -187500.02, -71117.48, 0.10, -0.05, 1.06
53, 46126.71, 28117.06, 33541.90, 15028.37, -187500.02, -187500.02, -187500.02, -71581.91, 0.10, -0.05, 1.06
54, 36295.70, 18274.56, 24282.44, 5036.25, -187500.02, -187500.02, -187500.02, -75039.48, 0.10, -0.05, 1.06
55, 41857.80, 24031.75, 27574.65, 10430.58, -187500.02, -187500.02, -187500.02, -75031.54, 0.10, -0.05, 1.07
56, 52447.65, 34664.25, 37253.56, 21156.84, -187500.02, -187500.02, -187500.02, -71590.16, 0.10, -0.05, 1.07
57, 48239.18, 30264.08, 35174.00, 17129.86, -187500.02, -187500.02, -187500.02, -71159.86, 0.10, -0.05, 1.07
58, 37108.97, 19067.04, 25194.80, 5879.13, -187500.02, -187500.02, -187500.02, -74576.08, 0.10, -0.05, 1.07
59, 39854.03, 21993.24, 25932.02, 8418.96, -187500.02, -187500.02, -187500.02, -75469.97, 0.10, -0.05, 1.07
60, 51397.03, 33627.13, 36031.79, 20050.90, -187500.02, -187500.02, -187500.02, -72178.83, 0.11, -0.05, 1.06
61, 50143.86, 32203.01, 36589.13, 19009.24, -187391.13, -187500.02, -187500.02, -70869.31, 0.11, -0.05, 1.06
62, 38475.18, 20422.63, 26593.95, 7273.15, -187500.02, -187500.02, -187500.02, -73999.13, 0.11, -0.05, 1.06
63, 38241.78, 20347.17, 24721.92, 6818.94, -187500.02, -187500.02, -187500.02, -75710.83, 0.11, -0.05, 1.06
64, 49833.97, 32073.28, 34421.33, 18445.64, -187500.02, -187500.02, -187500.02, -72837.52, 0.11, -0.05, 1.06
65, 51633.42, 33734.21, 37566.11, 20469.30, -187250.59, -187500.02, -187500.02, -70745.68, 0.10, -0.05, 1.06
66, 40248.20, 22198.39, 28205.20, 9074.79, -187500.02, -187500.02, -187500.02, -73371.48, 0.10, -0.05, 1.06
67, 36961.58, 19034.37, 23806.33, 5563.66, -187500.02, -187500.02, -187500.02, -75825.43, 0.10, -0.05, 1.06
68, 47874.51, 30109.47, 32517.96, 16442.97, -187500.02, -187500.02, -187500.02, -73558.70, 0.10, -0.05, 1.06
69, 52714.69, 34850.04, 38139.65, 21501.33, -187293.80, -187500.02, -187500.02, -70787.10, 0.10, -0.05, 1.06
70, 42368.25, 24323.93, 30105.90, 11214.52, -187500.02, -187500.02, -187500.02, -72726.00, 0.10, -0.05, 1.07
71, 36253.99, 18281.31, 23492.29, 4881.06, -187500.02, -187500.02, -187500.02, -75749.39, 0.10, -0.05, 1.07
72, 45742.13, 27954.61, 30612.41, 14280.98, -187500.02, -187500.02, -187500.02, -74230.63, 0.10, -0.05, 1.07
73, 53090.58, 35254.40, 38162.27, 21829.94, -187500.02, -187500.02, -187500.02, -71042.96, 0.10, -0.05, 1.07
74, 44509.50, 26480.69, 31969.25, 13356.51, -187500.02, -187500.02, -187500.02, -72178.01, 0.10, -0.05, 1.07
75, 36125.04, 18120.85, 23699.71, 4779.83, -187500.02, -187500.02, -187500.02, -75513.45, 0.10, -0.05, 1.06
76, 43516.23, 25705.20, 28734.20, 12037.44, -187500.02, -187500.02, -187500.02, -74854.47, 0.10, -0.05, 1.06
77, 52932.46, 35121.32, 37714.16, 21624.84, -187500.02, -187500.02, -187500.02, -71444.80, 0.10, -0.05, 1.06
78, 46704.39, 28691.57, 33802.50, 15551.54, -187500.02, -187500.02, -187500.02, -71686.45, 0.10, -0.05, 1.06
79, 36466.07, 18431.52, 24299.32, 5160.82, -187500.02, -187500.02, -187500.02, -75164.98, 0.10, -0.05, 1.06
80, 41318.72, 23476.77, 26948.78, 9838.63, -187500.02, -187500.02, -187500.02, -75396.97, 0.11, -0.05, 1.06
81, 52212.18, 34422.49, 36826.00, 20855.96, -187500.02, -187500.02, -187500.02, -71973.64, 0.11, -0.05, 1.06
82, 48745.42, 30773.79, 35466.70, 17590.49, -187500.02, -187500.02, -187500.02, -71305.95, 0.11, -0.05, 1.06
83, 37364.72, 19315.97, 25383.62, 6101.80, -187500.02, -187500.02, -187500.02, -74692.80, 0.11, -0.05, 1.06
84, 39349.11, 21477.10, 25435.84, 7879.53, -187500.02, -187500.02, -187500.02, -75809.96, 0.11, -0.05, 1.06
85, 50937.41, 33162.52, 35464.28, 19542.22, -187500.02, -187500.02, -187500.02, -72626.58, 0.11, -0.05, 1.06
86, 50471.02, 32530.37, 36720.88, 19291.23, -187500.02, -187500.02, -187500.02, -71111.67, 0.10, -0.05, 1.06
87, 38829.49, 20768.23, 26854.59, 7598.77, -187500.02, -187500.02, -187500.02, -74127.61, 0.10, -0.05, 1.06
88, 37771.23, 19859.32, 24311.63, 6319.49, -187500.02, -187500.02, -187500.02, -76054.76, 0.10, -0.05, 1.06
89, 49279.79, 31510.93, 33823.55, 17843.60, -187500.02, -187500.02, -187500.02, -73316.55, 0.10, -0.05, 1.06
90, 51865.50, 33964.44, 37636.00, 20654.60, -187464.44, -187500.02, -187500.02, -71037.24, 0.10, -0.05, 1.06
91, 40676.29, 22618.58, 28589.65, 9472.49, -187500.02, -187500.02, -187500.02, -73507.64, 0.10, -0.04, 1.05
92, 36728.05, 18781.59, 23696.34, 5299.02, -187500.02, -187500.02, -187500.02, -76086.54, 0.10, -0.04, 1.05
93, 47315.87, 29536.02, 32046.77, 15844.48, -187500.02, -187500.02, -187500.02, -73990.91, 0.10, -0.04, 1.05
94, 52794.21, 34926.50, 38157.91, 21540.13, -187500.02, -187500.02, -187500.02, -71100.83, 0.10, -0.04, 1.05
95, 42909.56, 24862.87, 30623.48, 11725.90, -187500.02, -187500.02, -187500.02, -72811.38, 0.10, -0.04, 1.05
96, 36239.64, 18253.53, 23614.13, 4846.93, -187500.02, -187500.02, -187500.02, -75894.20, 0.10, -0.05, 1.06
97, 45222.92, 27424.67, 30190.50, 13729.56, -187500.02, -187500.02, -187500.02, -74583.57, 0.10, -0.05, 1.06
98, 53147.84, 35318.75, 38071.25, 21853.43, -187500.02, -187500.02, -187500.02, -71316.52, 0.10, -0.05, 1.06
99, 45075.80, 27052.96, 32303.10, 13902.27, -187500.02, -187500.02, -187500.02, -72243.72, 0.10, -0.05, 1.06
100, 36159.94, 18151.25, 23550.65, 4805.47, -187500.02, -187500.02, -187500.02, -75644.07, 0.10, -0.05, 1.06
101, 42983.48, 25168.24, 27907.31, 11481.55, -187500.02, -187500.02, -187500.02, -75194.13, 0.09, -0.05, 1.06
102, 52916.46, 35117.14, 37156.31, 21573.52, -187500.02, -187500.02, -187500.02, -71723.46, 0.09, -0.05, 1.06
103, 47437.08, 29442.07, 33967.88, 16262.35, -187500.02, -187500.02, -187500.02, -71682.76, 0.09, -0.05, 1.06
104, 36871.68, 18833.24, 24353.79, 5555.62, -187500.02, -187500.02, -187500.02, -75125.30, 0.09, -0.05, 1.06
105, 40989.30, 23137.01, 26492.92, 9485.90, -187500.02, -187500.02, -187500.02, -75578.27, 0.09, -0.05, 1.06
106, 52093.67, 34300.92, 36605.07, 20702.54, -187500.02, -187500.02, -187500.02, -72196.47, 0.09, -0.04, 1.06
107, 49313.91, 31337.50, 35965.92, 18123.44, -187500.02, -187500.02, -187500.02, -71326.11, 0.09, -0.04, 1.06
108, 37836.23, 19779.82, 25997.29, 6560.17, -187500.02, -187500.02, -187500.02, -74615.75, 0.09, -0.04, 1.06
109, 39077.82, 21191.80, 25420.91, 7591.19, -187500.02, -187500.02, -187500.02, -75926.68, 0.09, -0.04, 1.06
110, 50737.07, 32962.99, 35338.55, 19308.58, -187500.02, -187500.02, -187500.02, -72822.77, 0.09, -0.04, 1.06
111, 51083.55, 33155.04, 37208.86, 19878.21, -187435.63, -187500.02, -187500.02, -71081.05, 0.10, -0.05, 1.06
112, 39420.00, 21362.52, 27392.15, 8185.16, -187500.02, -187500.02, -187500.02, -73992.56, 0.10, -0.05, 1.06
113, 37635.26, 19712.18, 24221.67, 6171.63, -187500.02, -187500.02, -187500.02, -76091.84, 0.10, -0.05, 1.06
114, 48983.29, 31207.26, 33495.23, 17519.74, -187500.02, -187500.02, -187500.02, -73492.13, 0.10, -0.05, 1.06
115, 52259.45, 34359.77, 37834.44, 21018.95, -187402.34, -187500.02, -187500.02, -71068.87, 0.10, -0.05, 1.06
116, 41320.62, 23255.02, 29080.42, 10106.03, -187500.02, -187500.02, -187500.02, -73368.91, 0.10, -0.05, 1.06
117, 36669.82, 18702.55, 23617.93, 5233.50, -187500.02, -187500.02, -187500.02, -76086.48, 0.10, -0.05, 1.06
118, 46906.92, 29115.76, 31559.90, 15416.98, -187500.02, -187500.02, -187500.02, -74179.56, 0.10, -0.05, 1.06
119, 53034.50, 35169.08, 38184.54, 21761.17, -187500.02, -187500.02, -187500.02, -71179.17, 0.10, -0.05, 1.06
120, 43458.36, 25408.48, 30994.36, 12272.81, -187500.02, -187500.02, -187500.02, -72737.36, 0.10, -0.05, 1.06
121, 36218.86, 18225.14, 23522.44, 4827.22, -187500.02, -187500.02, -187500.02, -75911.06, 0.10, -0.05, 1.06
122, 44753.02, 26947.02, 29668.97, 13251.50, -187500.02, -187500.02, -187500.02, -74786.90, 0.10, -0.05, 1.06
123, 53192.21, 35356.79, 37973.89, 21879.07, -187500.02, -187500.02, -187500.02, -71461.92, 0.10, -0.05, 1.06
124, 45706.19, 27672.20, 32877.98, 14529.59, -187500.02, -187500.02, -187500.02, -72154.98, 0.10, -0.05, 1.06
125, 36332.78, 18300.33, 23915.31, 4981.89, -187500.02, -187500.02, -187500.02, -75578.51, 0.10, -0.05, 1.06
126, 42587.40, 24754.73, 27841.24, 11084.72, -187500.02, -187500.02, -187500.02, -75320.55, 0.10, -0.05, 1.07
127, 52786.95, 34970.87, 37293.55, 21431.59, -187500.02, -187500.02, -187500.02, -71882.60, 0.10, -0.05, 1.07
128, 47827.50, 29812.55, 34582.71, 16648.38, -187500.02, -187500.02, -187500.02, -71687.92, 0.10, -0.05, 1.07
129, 36948.41, 18885.66, 24737.64, 5637.51, -187500.02, -187500.02, -187500.02, -75131.43, 0.10, -0.05, 1.07
130, 40454.44, 22578.57, 26135.13, 8952.28, -187500.02, -187500.02, -187500.02, -75781.71, 0.10, -0.05, 1.07
131, 51764.54, 33962.78, 36113.58, 20364.76, -187500.02, -187500.02, -187500.02, -72454.23, 0.10, -0.04, 1.06
132, 49764.46, 31786.79, 36033.22, 18575.60, -187500.02, -187500.02, -187500.02, -71359.93, 0.10, -0.04, 1.06
133, 38177.02, 20098.44, 26000.13, 6911.76, -187500.02, -187500.02, -187500.02, -74567.92, 0.10, -0.04, 1.06
134, 38754.84, 20839.63, 24852.84, 7275.76, -187500.02, -187500.02, -187500.02, -76041.77, 0.10, -0.04, 1.06
135, 50345.02, 32549.75, 34652.49, 18910.87, -187500.02, -187500.02, -187500.02, -73055.13, 0.10, -0.04, 1.06
136, 51375.53, 33429.80, 37155.30, 20166.75, -187454.50, -187500.02, -187500.02, -71152.35, 0.10, -0.04, 1.06
137, 39829.71, 21745.81, 27574.99, 8607.10, -187500.02, -187500.02, -187500.02, -73922.83, 0.10, -0.05, 1.08
138, 37356.27, 19407.13, 23863.82, 5908.15, -187500.02, -187500.02, -187500.02, -76171.44, 0.10, -0.05, 1.08
139, 48490.86, 30694.38, 32868.48, 17029.28, -187500.02, -187500.02, -187500.02, -73728.03, 0.10, -0.05, 1.08
140, 52577.02, 34674.06, 37878.02, 21341.87, -187408.34, -187500.02, -187500.02, -71114.80, 0.10, -0.05, 1.08
141, 41870.09, 23795.78, 29452.74, 10675.15, -187500.02, -187500.02, -187500.02, -73243.87, 0.10, -0.05, 1.08
142, 36496.73, 18510.35, 23397.45, 5082.34, -187500.02, -187500.02, -187500.02, -76112.96, 0.10, -0.05, 1.07
143, 46393.48, 28583.83, 30940.20, 14907.54, -187500.02, -187500.02, -187500.02, -74383.27, 0.10, -0.05, 1.07
144, 53106.56, 35231.60, 38004.67, 21829.00, -187500.02, -187500.02, -187500.02, -71297.30, 0.10, -0.05, 1.07
145, 44002.18, 25938.71, 31286.90, 12824.85, -187500.02, -187500.02, -187500.02, -72650.56, 0.10, -0.05, 1.07
146, 36230.90, 18208.83, 23445.62, 4858.13, -187500.02, -187500.02, -187500.02, -75885.80, 0.10, -0.05, 1.07
147, 44218.88, 26389.90, 29046.85, 12724.20, -187500.02, -187500.02, -187500.02, -74980.06, 0.10, -0.05, 1.07
148, 53141.65, 35296.78, 37682.78, 21825.18, -187500.02, -187500.02, -187500.02, -71611.45, 0.10, -0.05, 1.07
149, 46236.10, 28190.80, 33145.04, 15064.20, -187500.02, -187500.02, -187500.02, -72090.12, 0.10, -0.05, 1.07
150, 36446.04, 18393.09, 23944.53, 5112.80, -187500.02, -187500.02, -187500.02, -75528.87, 0.10, -0.05, 1.07
151, 42041.71, 24188.50, 27273.38, 10544.97, -187500.02, -187500.02, -187500.02, -75492.99, 0.10, -0.05, 1.07
152, 52615.18, 34796.75, 36950.81, 21252.80, -187500.02, -187500.02, -187500.02, -72048.59, 0.10, -0.05, 1.06
153, 48374.05, 30363.93, 34888.50, 17197.19, -187500.02, -187500.02, -187500.02, -71622.97, 0.10, -0.05, 1.06
154, 37267.33, 19196.44, 24937.77, 5977.06, -187500.02, -187500.02, -187500.02, -75021.86, 0.10, -0.05, 1.06
155, 40072.00, 22180.02, 25742.71, 8581.04, -187500.02, -187500.02, -187500.02, -75874.76, 0.10, -0.05, 1.06
156, 51523.65, 33714.30, 35789.23, 20116.79, -187500.02, -187500.02, -187500.02, -72613.38, 0.10, -0.05, 1.06
157, 50254.63, 32277.19, 36348.79, 19064.07, -187500.02, -187500.02, -187500.02, -71315.38, 0.10, -0.04, 1.06
158, 38614.54, 20530.70, 26378.63, 7365.17, -187500.02, -187500.02, -187500.02, -74427.93, 0.10, -0.04, 1.06
159, 38363.17, 20432.20, 24529.65, 6892.41, -187500.02, -187500.02, -187500.02, -76137.57, 0.10, -0.04, 1.06
160, 49993.27, 32191.94, 34274.01, 18548.79, -187500.02, -187500.02, -187500.02, -73246.35, 0.10, -0.04, 1.06
161, 51711.34, 33767.98, 37363.64, 20492.79, -187446.91, -187500.02, -187500.02, -71182.10, 0.10, -0.04, 1.06
162, 40277.46, 22189.31, 28004.23, 9054.85, -187500.02, -187500.02, -187500.02, -73826.54, 0.10, -0.04, 1.06
163, 37048.89, 19082.27, 23683.19, 5598.62, -187500.02, -187500.02, -187500.02, -76254.25, 0.10, -0.04, 1.06
164, 48011.05, 30208.05, 32435.38, 16532.71, -187500.02, -187500.02, -187500.02, -73955.13, 0.10, -0.04, 1.06
165, 52697.32, 34794.69, 37943.98, 21439.55, -187490.09, -187500.02, -187500.02, -71237.38, 0.10, -0.04, 1.06
166, 42406.02, 24324.75, 29957.28, 11203.25, -187500.02, -187500.02, -187500.02, -73162.09, 0.10, -0.04, 1.06
167, 36371.90, 18361.96, 23407.08, 4953.12, -187500.02, -187500.02, -187500.02, -76143.70, 0.10, -0.05, 1.06
168, 45885.47, 28058.90, 30535.07, 14381.87, -187500.02, -187500.02, -187500.02, -74602.50, 0.10, -0.05, 1.06
169, 53192.68, 35310.52, 38020.59, 21891.30, -187500.02, -187500.02, -187500.02, -71426.67, 0.10, -0.05, 1.06
170, 44643.76, 26565.81, 31879.96, 13449.04, -187500.02, -187500.02, -187500.02, -72544.71, 0.10, -0.05, 1.06
171, 36266.55, 18213.94, 23633.37, 4880.01, -187500.02, -187500.02, -187500.02, -75865.48, 0.10, -0.05, 1.06
172, 43705.66, 25849.81, 28694.54, 12184.16, -187500.02, -187500.02, -187500.02, -75181.03, 0.10, -0.05, 1.06
173, 53078.98, 35222.50, 37641.36, 21729.27, -187500.02, -187500.02, -187500.02, -71775.18, 0.10, -0.05, 1.06
174, 46767.47, 28711.75, 33667.56, 15573.98, -187500.02, -187500.02, -187500.02, -72049.82, 0.10, -0.05, 1.06
175, 36619.20, 18540.30, 24244.22, 5275.82, -187500.02, -187500.02, -187500.02, -75488.79, 0.10, -0.05, 1.06
176, 41575.29, 23692.13, 26978.71, 10061.08, -187500.02, -187500.02, -187500.02, -75664.16, 0.10, -0.05, 1.06
177, 52388.64, 34550.61, 36757.40, 20995.46, -187500.02, -187500.02, -187500.02, -72260.88, 0.10, -0.05, 1.07
178, 48874.50, 30849.47, 35334.24, 17674.66, -187500.02, -187500.02, -187500.02, -71621.63, 0.10, -0.05, 1.07
179, 37570.31, 19465.71, 25308.03, 6265.51, -187500.02, -187500.02, -187500.02, -74969.00, 0.10, -0.05, 1.07
180, 39666.43, 21733.36, 25467.49, 8153.36, -187500.02, -187500.02, -187500.02, -76027.04, 0.10, -0.05, 1.07
181, 51178.16, 33339.91, 35424.03, 19736.39, -187500.02, -187500.02, -187500.02, -72856.60, 0.10, -0.05, 1.07
182, 50610.92, 32611.62, 36588.08, 19389.53, -187500.02, -187500.02, -187500.02, -71380.72, 0.10, -0.05, 1.06
183, 38910.56, 20796.93, 26670.08, 7646.73, -187500.02, -187500.02, -187500.02, -74413.11, 0.10, -0.05, 1.06
184, 37947.74, 19981.47, 24186.69, 6459.36, -187500.02, -187500.02, -187500.02, -76306.22, 0.10, -0.05, 1.06
185, 49441.99, 31610.71, 33707.79, 17967.29, -187500.02, -187500.02, -187500.02, -73567.59, 0.10, -0.05, 1.06
186, 51945.34, 33982.50, 37445.16, 20699.39, -187500.02, -187500.02, -187500.02, -71325.40, 0.10, -0.05, 1.06
187, 40714.24, 22602.69, 28352.92, 9486.28, -187500.02, -187500.02, -187500.02, -73809.30, 0.10, -0.05, 1.06
188, 36807.42, 18804.05, 23482.54, 5352.77, -187500.02, -187500.02, -187500.02, -76373.13, 0.10, -0.05, 1.06
189, 47441.17, 29605.91, 31850.21, 15944.75, -187500.02, -187500.02, -187500.02, -74261.01, 0.10, -0.05, 1.06
190, 52819.94, 34901.51, 37856.88, 21545.25, -187500.02, -187500.02, -187500.02, -71415.99, 0.10, -0.05, 1.06
191, 42833.34, 24728.52, 30192.58, 11624.83, -187500.02, -187500.02, -187500.02, -73177.98, 0.10, -0.05, 1.06
192, 36209.00, 18170.63, 23198.49, 4789.06, -187500.02, -187500.02, -187500.02, -76254.18, 0.10, -0.05, 1.06
193, 45271.87, 27422.04, 29888.44, 13756.27, -187500.02, -187500.02, -187500.02, -74911.73, 0.09, -0.04, 1.06
194, 53195.14, 35304.11, 37847.63, 21875.45, -187500.02, -187500.02, -187500.02, -71641.97, 0.09, -0.04, 1.06
195, 45148.22, 27062.84, 32211.52, 13953.84, -187500.02, -187500.02, -187500.02, -72544.84, 0.09, -0.04, 1.06
196, 36223.91, 18150.82, 23585.87, 4847.71, -187500.02, -187500.02, -187500.02, -75930.02, 0.09, -0.04, 1.06
197, 43085.33, 25205.12, 28053.45, 11563.29, -187500.02, -187500.02, -187500.02, -75458.68, 0.09, -0.04, 1.06
198, 52899.83, 35028.96, 37289.21, 21538.12, -187500.02, -187500.02, -187500.02, -72033.12, 0.09, -0.04, 1.06
199, 47228.81, 29162.74, 33929.77, 16035.66, -187500.02, -187500.02, -187500.02, -72084.26, 0.09, -0.04, 1.06
200, 36741.06, 18642.31, 24308.62, 5408.52, -187500.02, -187500.02, -187500.02, -75521.83, 0.09, -0.04, 1.06
201, 41033.91, 23127.15, 26450.25, 9514.60, -187500.02, -187500.02, -187500.02, -75912.40, 0.09, -0.04, 1.06
202, 52105.69, 34263.93, 36367.92, 20703.10, -187500.02, -187500.02, -187500.02, -72542.07, 0.09, -0.04, 1.06
203, 49239.53, 31213.54, 35536.21, 18038.42, -187500.02, -187500.02, -187500.02, -71711.08, 0.10, -0.05, 1.06
204, 37800.00, 19688.89, 25540.13, 6508.07, -187500.02, -187500.02, -187500.02, -74991.64, 0.10, -0.05, 1.06
205, 39089.58, 21147.25, 25019.36, 7587.70, -187500.02, -187500.02, -187500.02, -76278.66, 0.10, -0.05, 1.06
206, 50713.02, 32871.84, 34952.72, 19265.21, -187500.02, -187500.02, -187500.02, -73190.02, 0.10, -0.05, 1.06
207, 50945.05, 32943.32, 36792.49, 19717.88, -187500.02, -187500.02, -187500.02, -71498.49, 0.10, -0.05, 1.06
208, 39367.57, 21240.71, 27095.34, 8109.73, -187500.02, -187500.02, -187500.02, -74383.85, 0.10, -0.04, 1.06
209, 37648.47, 19655.07, 24028.86, 6166.27, -187500.02, -187500.02, -187500.02, -76445.96, 0.10, -0.04, 1.06
210, 48997.01, 31151.74, 33322.94, 17514.13, -187500.02, -187500.02, -187500.02, -73843.91, 0.10, -0.04, 1.06
211, 52175.72, 34212.09, 37591.03, 20919.02, -187500.02, -187500.02, -187500.02, -71458.93, 0.10, -0.04, 1.06
212, 41240.71, 23116.82, 28872.44, 10010.52, -187500.02, -187500.02, -187500.02, -73764.27, 0.10, -0.04, 1.06
213, 36676.62, 18655.53, 23502.52, 5226.20, -187500.02, -187500.02, -187500.02, -76439.74, 0.11, -0.04, 1.06
214, 46956.90, 29110.26, 31473.40, 15451.63, -187500.02, -187500.02, -187500.02, -74513.65, 0.11, -0.04, 1.06
215, 52928.66, 35005.80, 37958.80, 21638.97, -187500.02, -187500.02, -187500.02, -71572.56, 0.11, -0.04, 1.06
216, 43387.21, 25279.78, 30793.64, 12180.36, -187500.02, -187500.02, -187500.02, -73131.33, 0.11, -0.04, 1.06
217, 36192.08, 18135.94, 23391.84, 4780.17, -187500.02, -187500.02, -187500.02, -76281.41, 0.11, -0.04, 1.06
218, 44772.46, 26906.67, 29582.89, 13251.25, -187500.02, -187500.02, -187500.02, -75138.63, 0.10, -0.05, 1.06
219, 53156.65, 35267.09, 37833.03, 21820.20, -187500.02, -187500.02, -187500.02, -71833.85, 0.10, -0.05, 1.06
220, 45619.80, 27532.95, 32709.29, 14420.18, -187500.02, -187500.02, -187500.02, -72558.19, 0.10, -0.05, 1.06
221, 36287.03, 18201.07, 23820.21, 4917.90, -187500.02, -187500.02, -187500.02, -75966.07, 0.10, -0.05, 1.06
222, 42589.08, 24696.08, 27768.53, 11063.15, -187500.02, -187500.02, -187500.02, -75693.04, 0.10, -0.05, 1.06
223, 52735.05, 34871.34, 37144.86, 21361.88, -187500.02, -187500.02, -187500.02, -72277.52, 0.10, -0.05, 1.06
224, 47734.99, 29681.55, 34294.53, 16540.69, -187500.02, -187500.02, -187500.02, -72118.03, 0.10, -0.05, 1.06
225, 36961.52, 18861.34, 24442.37, 5638.79, -187500.02, -187500.02, -187500.02, -75531.73, 0.10, -0.05, 1.06
226, 40496.87, 22580.16, 25801.11, 8980.33, -187500.02, -187500.02, -187500.02, -76168.57, 0.10, -0.05, 1.06
227, 51792.32, 33946.13, 35709.91, 20374.62, -187500.02, -187500.02, -187500.02, -72846.03, 0.10, -0.05, 1.06
228, 49671.57, 31648.50, 35514.64, 18461.80, -187500.02, -187500.02, -187500.02, -71804.35, 0.10, -0.04, 1.06
229, 38102.01, 19978.95, 25531.19, 6813.19, -187500.02, -187500.02, -187500.02, -75018.73, 0.10, -0.04, 1.06
230, 38733.05, 20770.00, 24537.03, 7226.88, -187500.02, -187500.02, -187500.02, -76477.72, 0.10, -0.04, 1.06
231, 50332.91, 32484.62, 34560.94, 18869.97, -187500.02, -187500.02, -187500.02, -73488.47, 0.10, -0.04, 1.06
232, 51302.93, 33303.50, 37192.45, 20062.34, -187500.02, -187500.02, -187500.02, -71611.77, 0.10, -0.04, 1.06
233, 39794.91, 21661.12, 27735.00, 8539.62, -187500.02, -187500.02, -187500.02, -74373.39, 0.10, -0.04, 1.06
234, 37342.07, 19342.75, 24057.05, 5864.61, -187500.02, -187500.02, -187500.02, -76614.87, 0.10, -0.04, 1.06
235, 48472.95, 30624.82, 33014.89, 16980.51, -187500.02, -187500.02, -187500.02, -74180.63, 0.10, -0.04, 1.06
236, 52475.39, 34518.38, 37904.55, 21206.20, -187500.02, -187500.02, -187500.02, -71609.33, 0.10, -0.04, 1.06
237, 41820.02, 23692.18, 29447.82, 10590.10, -187500.02, -187500.02, -187500.02, -73731.09, 0.10, -0.04, 1.06
238, 36485.71, 18444.26, 23414.10, 5034.91, -187500.02, -187500.02, -187500.02, -76581.59, 0.10, -0.04, 1.06
239, 46395.09, 28533.32, 30974.85, 14873.88, -187500.02, -187500.02, -187500.02, -74851.70, 0.11, -0.05, 1.06
240, 53038.63, 35109.85, 37951.59, 21724.40, -187500.02, -187500.02, -187500.02, -71801.20, 0.11, -0.05, 1.06
241, 43885.32, 25772.28, 31187.72, 12670.96, -187500.02, -187500.02, -187500.02, -73182.65, 0.11, -0.05, 1.06
242, 36155.89, 18086.00, 23387.17, 4744.16, -187500.02, -187500.02, -187500.02, -76411.02, 0.11, -0.05, 1.06
243, 44225.03, 26347.97, 29070.41, 12696.08, -187500.02, -187500.02, -187500.02, -75478.15, 0.11, -0.05, 1.06
244, 53098.82, 35206.32, 37660.86, 21749.41, -187500.02, -187500.02, -187500.02, -72135.60, 0.11, -0.05, 1.07
245, 46121.82, 28034.74, 33046.85, 14920.53, -187500.02, -187500.02, -187500.02, -72652.69, 0.11, -0.05, 1.07
246, 36382.52, 18284.71, 23877.05, 5018.93, -187500.02, -187500.02, -187500.02, -76086.56, 0.11, -0.05, 1.07
247, 42003.53, 24096.28, 27210.68, 10471.21, -187500.02, -187500.02, -187500.02, -76049.44, 0.11, -0.05, 1.07
248, 52561.76, 34695.70, 36886.14, 21163.03, -187500.02, -187500.02, -187500.02, -72620.50, 0.11, -0.05, 1.07
249, 48302.86, 30246.07, 34816.04, 17089.76, -187500.02, -187500.02, -187500.02, -72206.93, 0.10, -0.05, 1.06
250, 37199.29, 19075.85, 24863.03, 5866.93, -187500.02, -187500.02, -187500.02, -75610.30, 0.10, -0.05, 1.06
251, 39994.85, 22049.86, 25640.58, 8462.66, -187500.02, -187500.02, -187500.02, -76470.88, 0.10, -0.05, 1.06
252, 51445.53, 33583.61, 35642.31, 19996.76, -187500.02, -187500.02, -187500.02, -73220.47, 0.10, -0.05, 1.06
253, 50091.46, 32053.45, 36131.01, 18852.60, -187500.02, -187500.02, -187500.02, -71966.02, 0.10, -0.05, 1.06
254, 38522.09, 20383.47, 26204.20, 7225.29, -187500.02, -187500.02, -187500.02, -75073.27, 0.10, -0.05, 1.06
255, 38372.31, 20391.29, 24440.31, 6863.28, -187500.02, -187500.02, -187500.02, -76738.14, 0.10, -0.05, 1.06
0, 49905.77, 32054.81, 34104.49, 18430.71, -187500.02, -187500.02, -187500.02, -73885.23, 0.10, -0.05, 1.06
1, 51603.05, 33616.55, 37163.08, 20355.69, -187500.02, -187500.02, -187500.02, -71843.96, 0.10, -0.05, 1.06
2, 40247.04, 22120.07, 27854.01, 8994.61, -187500.02, -187500.02, -187500.02, -74470.53, 0.10, -0.05, 1.06
3, 37086.89, 19078.87, 23594.54, 5608.19, -187500.02, -187500.02, -187500.02, -76870.24, 0.10, -0.05, 1.06
4, 47990.56, 30141.21, 32298.85, 16484.79, -187500.02, -187500.02, -187500.02, -74591.13, 0.10, -0.05, 1.06
5, 52660.57, 34712.13, 37756.59, 21377.03, -187500.02, -187500.02, -187500.02, -71881.04, 0.10, -0.05, 1.06
6, 42276.42, 24153.18, 29679.00, 11048.44, -187500.02, -187500.02, -187500.02, -73849.67, 0.10, -0.05, 1.06
7, 36319.19, 18271.34, 23209.31, 4876.82, -187500.02, -187500.02, -187500.02, -76814.38, 0.10, -0.05, 1.06
8, 45850.98, 27984.41, 30377.16, 14325.70, -187500.02, -187500.02, -187500.02, -75264.06, 0.11, -0.05, 1.06
9, 53086.64, 35164.88, 37832.02, 21762.82, -187500.02, -187500.02, -187500.02, -72116.23, 0.11, -0.05, 1.06
10, 44447.96, 26341.37, 31564.95, 13232.99, -187500.02, -187500.02, -187500.02, -73285.13, 0.11, -0.05, 1.06
11, 36132.71, 18061.59, 23338.37, 4731.33, -187500.02, -187500.02, -187500.02, -76602.64, 0.11, -0.05, 1.06
12, 43597.77, 25714.34, 28417.92, 12061.40, -187500.02, -187500.02, -187500.02, -75917.16, 0.11, -0.05, 1.06
13, 52984.90, 35100.38, 37371.87, 21621.02, -187500.02, -187500.02, -187500.02, -72512.45, 0.10, -0.05, 1.06
14, 46654.75, 28571.14, 33367.60, 15444.07, -187500.02, -187500.02, -187500.02, -72799.96, 0.10, -0.05, 1.06
15, 36532.11, 18419.27, 23960.31, 5165.22, -187500.02, -187500.02, -187500.02, -76244.86, 0.10, -0.05, 1.06
16, 41494.76, 23568.21, 26715.72, 9953.52, -187500.02, -187500.02, -187500.02, -76426.00, 0.10, -0.05, 1.06
17, 52313.68, 34440.62, 36485.15, 20898.84, -187500.02, -187500.02, -187500.02, -73025.05, 0.10, -0.05, 1.06
18, 48743.36, 30688.36, 34989.51, 17523.01, -187500.02, -187500.02, -187500.02, -72407.11, 0.10, -0.05, 1.06
19, 37407.74, 19279.34, 24972.44, 6084.46, -187500.02, -187500.02, -187500.02, -75777.38, 0.10, -0.05, 1.06
20, 39515.07, 21565.25, 25176.18, 7985.85, -187500.02, -187500.02, -187500.02, -76844.45, 0.10, -0.05, 1.06
21, 51070.23, 33215.88, 35181.13, 19612.61, -187500.02, -187500.02, -187500.02, -73667.15, 0.10, -0.05, 1.06
22, 50516.57, 32500.44, 36358.87, 19278.78, -187500.02, -187500.02, -187500.02, -72186.63, 0.10, -0.05, 1.06
23, 38848.79, 20712.71, 26466.79, 7562.73, -187500.02, -187500.02, -187500.02, -75214.89, 0.11, -0.05, 1.06
24, 37894.99, 19902.73, 24024.84, 6384.19, -187500.02, -187500.02, -187500.02, -77109.56, 0.11, -0.05, 1.06
25, 49396.08, 31538.78, 33553.75, 17903.14, -187500.02, -187500.02, -187500.02, -74366.28, 0.11, -0.05, 1.06
26, 51893.26, 33907.10, 37302.51, 20626.23, -187500.02, -187500.02, -187500.02, -72126.62, 0.11, -0.05, 1.06
27, 40654.25, 22516.45, 28208.57, 9399.00, -187500.02, -187500.02, -187500.02, -74621.61, 0.11, -0.05, 1.06
28, 36789.88, 18770.86, 23373.82, 5313.10, -187500.02, -187500.02, -187500.02, -77177.60, 0.10, -0.05, 1.06
29, 47416.32, 29567.96, 31764.26, 15901.21, -187500.02, -187500.02, -187500.02, -75058.66, 0.10, -0.05, 1.06
30, 52782.61, 34843.53, 37808.82, 21481.39, -187500.02, -187500.02, -187500.02, -72217.88, 0.10, -0.05, 1.06
31, 42778.46, 24653.19, 30164.42, 11543.98, -187500.02, -187500.02, -187500.02, -73987.38, 0.10, -0.05, 1.06
32, 36146.14, 18079.34, 23184.26, 4695.34, -187500.02, -187500.02, -187500.02, -77078.91, 0.10, -0.05, 1.06
33, 45201.21, 27316.71, 29854.24, 13652.29, -187500.02, -187500.02, -187500.02, -75743.58, 0.10, -0.05, 1.06
34, 53142.32, 35218.93, 37816.20, 21787.38, -187500.02, -187500.02, -187500.02, -72466.81, 0.10, -0.05, 1.06
35, 45072.49, 26955.60, 32163.51, 13841.70, -187500.02, -187500.02, -187500.02, -73378.56, 0.10, -0.05, 1.06
36, 36108.53, 18001.40, 23480.42, 4693.82, -187500.02, -187500.02, -187500.02, -76784.63, 0.10, -0.05, 1.06
37, 42963.94, 25048.39, 27977.54, 11403.73, -187500.02, -187500.02, -187500.02, -76305.57, 0.10, -0.05, 1.06
38, 52838.49, 34930.55, 37259.44, 21438.72, -187500.02, -187500.02, -187500.02, -72879.96, 0.10, -0.05, 1.06
39, 47241.37, 29136.64, 33937.97, 16010.80, -187500.02, -187500.02, -187500.02, -72947.73, 0.10, -0.05, 1.06
40, 36738.31, 18602.19, 24300.44, 5365.96, -187500.02, -187500.02, -187500.02, -76393.03, 0.10, -0.05, 1.06
41, 40950.23, 23001.89, 26363.17, 9393.77, -187500.02, -187500.02, -187500.02, -76783.05, 0.10, -0.05, 1.06
42, 52039.62, 34157.55, 36278.47, 20596.10, -187500.02, -187500.02, -187500.02, -73410.16, 0.10, -0.05, 1.06
43, 49274.40, 31201.87, 35549.60, 18028.56, -187500.02, -187500.02, -187500.02, -72578.70, 0.10, -0.05, 1.06
44, 37796.35, 19629.48, 25495.20, 6459.72, -187500.02, -187500.02, -187500.02, -75880.23, 0.10, -0.05, 1.07
45, 39072.57, 21058.76, 24943.38, 7524.33, -187500.02, -187500.02, -187500.02, -77143.76, 0.10, -0.05, 1.07
46, 50684.72, 32761.87, 34876.34, 19198.02, -187500.02, -187500.02, -187500.02, -74035.99, 0.10, -0.05, 1.07
47, 50988.37, 32891.95, 36803.98, 19721.05, -187500.02, -187500.02, -187500.02, -72340.05, 0.10, -0.05, 1.07
48, 39323.47, 21092.54, 27030.66, 8021.95, -187500.02, -187500.02, -187500.02, -75264.29, 0.10, -0.05, 1.07
49, 37568.77, 19476.42, 23914.38, 6043.46, -187500.02, -187500.02, -187500.02, -77317.68, 0.10, -0.05, 1.06
50, 48914.09, 30954.35, 33225.55, 17388.56, -187500.02, -187500.02, -187500.02, -74690.63, 0.10, -0.05, 1.06
51, 52158.20, 34072.33, 37589.53, 20862.16, -187500.02, -187500.02, -187500.02, -72298.75, 0.10, -0.05, 1.06
52, 41177.19, 22926.27, 28800.58, 9907.37, -187500.02, -187500.02, -187500.02, -74634.33, 0.10, -0.05, 1.06
53, 36501.05, 18341.13, 23318.52, 5007.57, -187500.02, -187500.02, -187500.02, -77333.81, 0.10, -0.05, 1.06
54, 46760.99, 28761.31, 31293.96, 15209.20, -187500.02, -187500.02, -187500.02, -75385.68, 0.10, -0.05, 1.07
55, 52826.60, 34742.48, 37889.43, 21493.53, -187500.02, -187500.02, -187500.02, -72417.02, 0.10, -0.05, 1.07
56, 43231.65, 24954.20, 30681.03, 11982.12, -187500.02, -187500.02, -187500.02, -74011.41, 0.10, -0.05, 1.07
57, 35986.48, 17759.89, 23222.32, 4536.20, -187500.02, -187500.02, -187500.02, -77162.48, 0.10, -0.05, 1.07
58, 44526.53, 26490.93, 29376.76, 12971.16, -187500.02, -187500.02, -187500.02, -75996.42, 0.10, -0.05, 1.07
59, 52959.80, 34885.73, 37689.82, 21589.64, -187500.02, -187500.02, -187500.02, -72673.72, 0.10, -0.05, 1.06
60, 45457.59, 27181.62, 32542.64, 14218.86, -187500.02, -187500.02, -187500.02, -73405.09, 0.10, -0.05, 1.06
61, 36058.59, 17788.32, 23567.79, 4653.05, -187500.02, -187500.02, -187500.02, -76826.48, 0.10, -0.05, 1.06
62, 42315.14, 24239.33, 27517.14, 10755.08, -187500.02, -187500.02, -187500.02, -76529.58, 0.10, -0.05, 1.06
63, 52517.75, 34463.33, 37000.61, 21107.04, -187500.02, -187500.02, -187500.02, -73082.05, 0.10, -0.05, 1.06
64, 47566.50, 29316.70, 34285.70, 16335.03, -187500.02, -187500.02, -187500.02, -72922.09, 0.10, -0.04, 1.06
65, 36679.97, 18375.73, 24437.34, 5319.58, -187500.02, -187500.02, -187500.02, -76367.80, 0.10, -0.04, 1.06
66, 40182.76, 22056.25, 25825.38, 8623.37, -187500.02, -187500.02, -187500.02, -76981.57, 0.10, -0.04, 1.06
67, 51504.83, 33445.00, 35863.42, 20046.47, -187500.02, -187500.02, -187500.02, -73629.82, 0.10, -0.04, 1.06
68, 49483.00, 31243.29, 35762.48, 18230.82, -187500.02, -187500.02, -187500.02, -72570.21, 0.10, -0.04, 1.06
69, 37885.11, 19549.82, 25708.24, 6556.35, -187500.02, -187500.02, -187500.02, -75791.30, 0.10, -0.05, 1.06
70, 38461.96, 20297.82, 24566.04, 6923.41, -187500.02, -187500.02, -187500.02, -77232.34, 0.10, -0.05, 1.06
71, 50066.68, 32026.34, 34419.85, 18577.25, -187500.02, -187500.02, -187500.02, -74216.44, 0.10, -0.05, 1.06
72, 51068.73, 32881.36, 36923.47, 19801.66, -187500.02, -187500.02, -187500.02, -72347.81, 0.10, -0.05, 1.06
