%OpenBCI Raw EEG Data
%
%Sample Rate = 250.0 Hz
%First Column = SampleIndex
%Other Columns = EEG data in microvolts followed by Accel Data (in G) interleaved with Aux Data
0, 125164.80, -187500.02, 187500.00, 34338.78, -187500.02, 187500.00, -187500.02, -187500.02, 0.00, 0.00, 0.00
1, 124780.69, -187500.02, 187500.00, 34106.08, -187500.02, 187500.00, -187500.02, -187500.02, 0.00, 0.00, 0.00
2, 122852.54, -187500.02, 187500.00, 32408.20, -187500.02, 187500.00, -187500.02, -187500.02, 0.00, 0.00, 0.00
3, 122940.24, -187500.02, 187500.00, 32501.25, -187500.02, 187500.00, -187500.02, -187500.02, 0.00, 0.00, 0.00
4, 124850.27, -187500.02, 187500.00, 34303.76, -187500.02, 187500.00, -187500.02, -187500.02, 0.00, 0.00, 0.00
5, 124962.01, -187500.02, 187500.00, 34519.07, -187500.02, 187500.00, -187500.02, -187500.02, 0.00, 0.00, 0.00
6, 123037.56, -187500.02, 187500.00, 32829.14, -187500.02, 187500.00, -187500.02, -187500.02, 0.00, 0.00, 0.00
7, 122607.43, -187500.02, 187500.00, 32447.76, -187500.02, 187500.00, -187500.02, -187500.02, 0.00, 0.00, 0.00
8, 124447.38, -187500.02, 187500.00, 34169.16, -187500.02, 187500.00, -187500.02, -187500.02, 0.00, 0.00, 0.00
9, 125083.51, -187500.02, 187500.00, 34863.54, -187500.02, 187500.00, -187500.02, -187500.02, 0.00, 0.00, 0.00
10, 123333.99, -187500.02, 187500.00, 33353.00, -187500.02, 187500.00, -187500.02, -187500.02, 0.00, 0.00, 0.00
11, 122402.66, -187500.02, 187500.00, 32519.64, -187500.02, 187500.00, -187500.02, -187500.02, 0.00, 0.00, 0.00
12, 124046.52, -187500.02, 187500.00, 34050.89, -187500.02, 187500.00, -187500.02, -187500.02, 0.00, 0.00, 0.00
13, 125135.66, -187500.02, 187500.00, 35150.93, -187500.02, 187500.00, -187500.02, -187500.02, 0.00, 0.00, 0.00
14, 123663.37, -187500.02, 187500.00, 33907.44, -187500.02, 187500.00, -187500.02, -187500.02, 0.00, 0.00, 0.00
15, 122297.30, -187500.02, 187500.00, 32687.37, -187500.02, 187500.00, -187500.02, -187500.02, 0.00, 0.00, 0.00
16, 123621.21, -187500.02, 187500.00, 33915.17, -187500.02, 187500.00, -187500.02, -187500.02, 0.00, 0.00, 0.00
17, 125087.80, -187500.02, 187500.00, 35348.23, -187500.02, 187500.00, -187500.02, -187500.02, 0.00, 0.00, 0.00
18, 123973.19, -187500.02, 187500.00, 34435.95, -187500.02, 187500.00, -187500.02, -187500.02, 0.00, 0.00, 0.00
19, 122297.37, -187500.02, 187500.00, 32939.72, -187500.02, 187500.00, -187500.02, -187500.02, 0.00, 0.00, 0.00
20, 123189.49, -187500.02, 187500.00, 33764.66, -187500.02, 187500.00, -187500.02, -187500.02, 0.00, 0.00, 0.00
21, 124936.32, -187500.02, 187500.00, 35440.72, -187500.02, 187500.00, -187500.02, -187500.02, 0.00, 0.00, 0.00
22, 124266.93, -187500.02, 187500.00, 34940.43, -187500.02, 187500.00, -187500.02, -187500.02, 0.00, 0.00, 0.00
23, 122397.43, -187500.02, 187500.00, 33278.37, -187500.02, 187500.00, -187500.02, -187500.02, 0.00, 0.00, 0.00
24, 122824.35, -187500.02, 187500.00, 33675.11, -187500.02, 187500.00, -187500.02, -187500.02, 0.00, 0.00, 0.00
25, 124733.19, -187500.02, 187500.00, 35485.16, -187500.02, 187500.00, -187500.02, -187500.02, 0.00, 0.00, 0.00
26, 124584.02, -187500.02, 187500.00, 35464.98, -187500.02, 187500.00, -187500.02, -187500.02, 0.00, 0.00, 0.00
27, 122642.54, -187500.02, 187500.00, 33748.52, -187500.02, 187500.00, -187500.02, -187500.02, 0.00, 0.00, 0.00
28, 122487.29, -187500.02, 187500.00, 33603.12, -187500.02, 187500.00, -187500.02, -187500.02, 0.00, 0.00, 0.00
29, 124404.06, -187500.02, 187500.00, 35399.75, -187500.02, 187500.00, -187500.02, -187500.02, 0.00, 0.00, 0.00
30, 124744.95, -187500.02, 187500.00, 35822.47, -187500.02, 187500.00, -187500.02, -187500.02, 0.00, 0.00, 0.00
31, 122874.45, -187500.02, 187500.00, 34180.29, -187500.02, 187500.00, -187500.02, -187500.02, 0.00, 0.00, 0.00
32, 122247.07, -187500.02, 187500.00, 33611.90, -187500.02, 187500.00, -187500.02, -187500.02, 0.00, 0.00, 0.00
33, 124043.37, -187500.02, 187500.00, 35282.16, -187500.02, 187500.00, -187500.02, -187500.02, 0.00, 0.00, 0.00
34, 124895.89, -187500.02, 187500.00, 36167.71, -187500.02, 187500.00, -187500.02, -187500.02, 0.00, 0.00, 0.00
35, 123213.00, -187500.02, 187500.00, 34710.56, -187500.02, 187500.00, -187500.02, -187500.02, 0.00, 0.00, 0.00
36, 122106.81, -187500.02, 187500.00, 33711.32, -187500.02, 187500.00, -187500.02, -187500.02, 0.00, 0.00, 0.00
37, 123628.61, -187500.02, 187500.00, 35116.00, -187500.02, 187500.00, -187500.02, -187500.02, 0.00, 0.00, 0.00
38, 124870.95, -187500.02, 187500.00, 36341.84, -187500.02, 187500.00, -187500.02, -187500.02, 0.00, 0.00, 0.00
39, 123548.28, -187500.02, 187500.00, 35229.45, -187500.02, 187500.00, -187500.02, -187500.02, 0.00, 0.00, 0.00
40, 122080.64, -187500.02, 187500.00, 33915.51, -187500.02, 187500.00, -187500.02, -187500.02, 0.00, 0.00, 0.00
41, 123244.88, -187500.02, 187500.00, 34991.32, -187500.02, 187500.00, -187500.02, -187500.02, 0.00, 0.00, 0.00
42, 124839.12, -187500.02, 187500.00, 36536.77, -187500.02, 187500.00, -187500.02, -187500.02, 0.00, 0.00, 0.00
43, 123917.17, -187500.02, 187500.00, 35803.11, -187500.02, 187500.00, -187500.02, -187500.02, 0.00, 0.00, 0.00
44, 122174.38, -187500.02, 187500.00, 34247.99, -187500.02, 187500.00, -187500.02, -187500.02, 0.00, 0.00, 0.00
45, 122910.00, -187500.02, 187500.00, 34926.79, -187500.02, 187500.00, -187500.02, -187500.02, 0.00, 0.00, 0.00
46, 124694.97, -187500.02, 187500.00, 36629.39, -187500.02, 187500.00, -187500.02, -187500.02, 0.00, 0.00, 0.00
47, 124229.36, -187500.02, 187500.00, 36313.94, -187500.02, 187500.00, -187500.02, -187500.02, 0.00, 0.00, 0.00
48, 122329.55, -187500.02, 187500.00, 34623.01, -187500.02, 187500.00, -187500.02, -187500.02, 0.00, 0.00, 0.00
49, 122505.39, -187500.02, 187500.00, 34781.39, -187500.02, 187500.00, -187500.02, -187500.02, 0.00, 0.00, 0.00
50, 124394.31, -187500.02, 187500.00, 36561.73, -187500.02, 187500.00, -187500.02, -187500.02, 0.00, 0.00, 0.00
51, 124445.30, -187500.02, 187500.00, 36721.16, -187500.02, 187500.00, -187500.02, -187500.02, 0.00, 0.00, 0.00
52, 122553.16, -187500.02, 187500.00, 35054.44, -187500.02, 187500.00, -187500.02, -187500.02, 0.00, 0.00, 0.00
53, 122219.16, -187500.02, 187500.00, 34749.23, -187500.02, 187500.00, -187500.02, -187500.02, 0.00, 0.00, 0.00
54, 124088.45, -187500.02, 187500.00, 36496.08, -187500.02, 187500.00, -187500.02, -187500.02, 0.00, 0.00, 0.00
55, 124647.12, -187500.02, 187500.00, 37118.56, -187500.02, 187500.00, -187500.02, -187500.02, 0.00, 0.00, 0.00
56, 122855.17, -187500.02, 187500.00, 35557.71, -187500.02, 187500.00, -187500.02, -187500.02, 0.00, 0.00, 0.00
57, 122035.31, -187500.02, 187500.00, 34816.62, -187500.02, 187500.00, -187500.02, -187500.02, 0.00, 0.00, 0.00
58, 123712.52, -187500.02, 187500.00, 36370.22, -187500.02, 187500.00, -187500.02, -187500.02, 0.00, 0.00, 0.00
59, 124697.12, -187500.02, 187500.00, 37366.04, -187500.02, 187500.00, -187500.02, -187500.02, 0.00, 0.00, 0.00
60, 123142.55, -187500.02, 187500.00, 36028.04, -187500.02, 187500.00, -187500.02, -187500.02, 0.00, 0.00, 0.00
61, 121870.60, -187500.02, 187500.00, 34874.96, -187500.02, 187500.00, -187500.02, -187500.02, 0.00, 0.00, 0.00
62, 123278.98, -187500.02, 187500.00, 36169.84, -187500.02, 187500.00, -187500.02, -187500.02, 0.00, 0.00, 0.00
63, 124722.62, -187500.02, 187500.00, 37580.97, -187500.02, 187500.00, -187500.02, -187500.02, 0.00, 0.00, 0.00
64, 123549.33, -187500.02, 187500.00, 36601.88, -187500.02, 187500.00, -187500.02, -187500.02, 0.00, 0.00, 0.00
65, 121903.05, -187500.02, 187500.00, 35111.55, -187500.02, 187500.00, -187500.02, -187500.02, 0.00, 0.00, 0.00
66, 122910.80, -187500.02, 187500.00, 36031.46, -187500.02, 187500.00, -187500.02, -187500.02, 0.00, 0.00, 0.00
67, 124610.48, -187500.02, 187500.00, 37657.91, -187500.02, 187500.00, -187500.02, -187500.02, 0.00, 0.00, 0.00
68, 123829.09, -187500.02, 187500.00, 37038.94, -187500.02, 187500.00, -187500.02, -187500.02, 0.00, 0.00, 0.00
69, 122032.48, -187500.02, 187500.00, 35430.73, -187500.02, 187500.00, -187500.02, -187500.02, 0.00, 0.00, 0.00
70, 122573.61, -187500.02, 187500.00, 35924.86, -187500.02, 187500.00, -187500.02, -187500.02, 0.00, 0.00, 0.00
71, 124420.20, -187500.02, 187500.00, 37670.06, -187500.02, 187500.00, -187500.02, -187500.02, 0.00, 0.00, 0.00
72, 124162.62, -187500.02, 187500.00, 37537.21, -187500.02, 187500.00, -187500.02, -187500.02, 0.00, 0.00, 0.00
73, 122240.41, -187500.02, 187500.00, 35826.00, -187500.02, 187500.00, -187500.02, -187500.02, 0.00, 0.00, 0.00
74, 122255.41, -187500.02, 187500.00, 35837.18, -187500.02, 187500.00, -187500.02, -187500.02, 0.00, 0.00, 0.00
75, 124202.76, -187500.02, 187500.00, 37662.87, -187500.02, 187500.00, -187500.02, -187500.02, 0.00, 0.00, 0.00
76, 124457.33, -187500.02, 187500.00, 38000.00, -187500.02, 187500.00, -187500.02, -187500.02, 0.00, 0.00, 0.00
77, 122567.73, -187500.02, 187500.00, 36331.78, -187500.02, 187500.00, -187500.02, -187500.02, 0.00, 0.00, 0.00
78, 122052.32, -187500.02, 187500.00, 35861.59, -187500.02, 187500.00, -187500.02, -187500.02, 0.00, 0.00, 0.00
79, 123879.98, -187500.02, 187500.00, 37562.42, -187500.02, 187500.00, -187500.02, -187500.02, 0.00, 0.00, 0.00
80, 124600.06, -187500.02, 187500.00, 38319.83, -187500.02, 187500.00, -187500.02, -187500.02, 0.00, 0.00, 0.00
81, 122917.16, -187500.02, 187500.00, 36859.81, -187500.02, 187500.00, -187500.02, -187500.02, 0.00, 0.00, 0.00
82, 121921.12, -187500.02, 187500.00, 35958.90, -187500.02, 187500.00, -187500.02, -187500.02, 0.00, 0.00, 0.00
83, 123519.20, -187500.02, 187500.00, 37436.29, -187500.02, 187500.00, -187500.02, -187500.02, 0.00, 0.00, 0.00
84, 124667.86, -187500.02, 187500.00, 38575.78, -187500.02, 187500.00, -187500.02, -187500.02, 0.00, 0.00, 0.00
85, 123246.76, -187500.02, 187500.00, 37358.28, -187500.02, 187500.00, -187500.02, -187500.02, 0.00, 0.00, 0.00
86, 121850.11, -187500.02, 187500.00, 36096.46, -187500.02, 187500.00, -187500.02, -187500.02, 0.00, 0.00, 0.00
87, 123094.38, -187500.02, 187500.00, 37239.14, -187500.02, 187500.00, -187500.02, -187500.02, 0.00, 0.00, 0.00
88, 124638.71, -187500.02, 187500.00, 38732.29, -187500.02, 187500.00, -187500.02, -187500.02, 0.00, 0.00, 0.00
89, 123608.90, -187500.02, 187500.00, 37883.75, -187500.02, 187500.00, -187500.02, -187500.02, 0.00, 0.00, 0.00
90, 121921.56, -187500.02, 187500.00, 36369.44, -187500.02, 187500.00, -187500.02, -187500.02, 0.00, 0.00, 0.00
91, 122744.69, -187500.02, 187500.00, 37122.67, -187500.02, 187500.00, -187500.02, -187500.02, 0.00, 0.00, 0.00
92, 124552.21, -187500.02, 187500.00, 38846.01, -187500.02, 187500.00, -187500.02, -187500.02, 0.00, 0.00, 0.00
93, 123954.12, -187500.02, 187500.00, 38397.12, -187500.02, 187500.00, -187500.02, -187500.02, 0.00, 0.00, 0.00
94, 122113.41, -187500.02, 187500.00, 36753.73, -187500.02, 187500.00, -187500.02, -187500.02, 0.00, 0.00, 0.00
95, 122415.31, -187500.02, 187500.00, 37025.71, -187500.02, 187500.00, -187500.02, -187500.02, 0.00, 0.00, 0.00
96, 124324.06, -187500.02, 187500.00, 38825.52, -187500.02, 187500.00, -187500.02, -187500.02, 0.00, 0.00, 0.00
97, 124243.98, -187500.02, 187500.00, 38856.07, -187500.02, 187500.00, -187500.02, -187500.02, 0.00, 0.00, 0.00
98, 122336.46, -187500.02, 187500.00, 37158.34, -187500.02, 187500.00, -187500.02, -187500.02, 0.00, 0.00, 0.00
99, 122144.88, -187500.02, 187500.00, 36977.52, -187500.02, 187500.00, -187500.02, -187500.02, 0.00, 0.00, 0.00
100, 124026.61, -187500.02, 187500.00, 38735.77, -187500.02, 187500.00, -187500.02, -187500.02, 0.00, 0.00, 0.00
101, 124439.29, -187500.02, 187500.00, 39222.37, -187500.02, 187500.00, -187500.02, -187500.02, 0.00, 0.00, 0.00
102, 122609.84, -187500.02, 187500.00, 37622.99, -187500.02, 187500.00, -187500.02, -187500.02, 0.00, 0.00, 0.00
103, 121904.16, -187500.02, 187500.00, 36979.13, -187500.02, 187500.00, -187500.02, -187500.02, 0.00, 0.00, 0.00
104, 123632.32, -187500.02, 187500.00, 38585.43, -187500.02, 187500.00, -187500.02, -187500.02, 0.00, 0.00, 0.00
105, 124509.34, -187500.02, 187500.00, 39486.86, -187500.02, 187500.00, -187500.02, -187500.02, 0.00, 0.00, 0.00
106, 122908.53, -187500.02, 187500.00, 38098.75, -187500.02, 187500.00, -187500.02, -187500.02, 0.00, 0.00, 0.00
107, 121776.63, -187500.02, 187500.00, 37073.72, -187500.02, 187500.00, -187500.02, -187500.02, 0.00, 0.00, 0.00
108, 123264.46, -187500.02, 187500.00, 38448.80, -187500.02, 187500.00, -187500.02, -187500.02, 0.00, 0.00, 0.00
109, 124564.26, -187500.02, 187500.00, 39725.44, -187500.02, 187500.00, -187500.02, -187500.02, 0.00, 0.00, 0.00
110, 123278.45, -187500.02, 187500.00, 38637.76, -187500.02, 187500.00, -187500.02, -187500.02, 0.00, 0.00, 0.00
111, 121737.16, -187500.02, 187500.00, 37242.23, -187500.02, 187500.00, -187500.02, -187500.02, 0.00, 0.00, 0.00
112, 122822.07, -187500.02, 187500.00, 38234.04, -187500.02, 187500.00, -187500.02, -187500.02, 0.00, 0.00, 0.00
113, 124427.51, -187500.02, 187500.00, 39773.79, -187500.02, 187500.00, -187500.02, -187500.02, 0.00, 0.00, 0.00
114, 123601.84, -187500.02, 187500.00, 39114.97, -187500.02, 187500.00, -187500.02, -187500.02, 0.00, 0.00, 0.00
115, 121834.02, -187500.02, 187500.00, 37528.20, -187500.02, 187500.00, -187500.02, -187500.02, 0.00, 0.00, 0.00
116, 122454.95, -187500.02, 187500.00, 38092.40, -187500.02, 187500.00, -187500.02, -187500.02, 0.00, 0.00, 0.00
117, 124281.13, -187500.02, 187500.00, 39821.66, -187500.02, 187500.00, -187500.02, -187500.02, 0.00, 0.00, 0.00
118, 123898.95, -187500.02, 187500.00, 39572.15, -187500.02, 187500.00, -187500.02, -187500.02, 0.00, 0.00, 0.00
119, 121999.86, -187500.02, 187500.00, 37874.31, -187500.02, 187500.00, -187500.02, -187500.02, 0.00, 0.00, 0.00
120, 122094.74, -187500.02, 187500.00, 37953.68, -187500.02, 187500.00, -187500.02, -187500.02, 0.00, 0.00, 0.00
121, 123973.90, -187500.02, 187500.00, 39715.54, -187500.02, 187500.00, -187500.02, -187500.02, 0.00, 0.00, 0.00
122, 124129.09, -187500.02, 187500.00, 39959.57, -187500.02, 187500.00, -187500.02, -187500.02, 0.00, 0.00, 0.00
123, 122222.82, -187500.02, 187500.00, 38262.36, -187500.02, 187500.00, -187500.02, -187500.02, 0.00, 0.00, 0.00
124, 121802.01, -187500.02, 187500.00, 37865.64, -187500.02, 187500.00, -187500.02, -187500.02, 0.00, 0.00, 0.00
125, 123641.58, -187500.02, 187500.00, 39575.42, -187500.02, 187500.00, -187500.02, -187500.02, 0.00, 0.00, 0.00
126, 124267.54, -187500.02, 187500.00, 40243.02, -187500.02, 187500.00, -187500.02, -187500.02, 0.00, 0.00, 0.00
127, 122558.05, -187500.02, 187500.00, 38740.38, -187500.02, 187500.00, -187500.02, -187500.02, 0.00, 0.00, 0.00
128, 121684.03, -187500.02, 187500.00, 37933.84, -187500.02, 187500.00, -187500.02, -187500.02, 0.00, 0.00, 0.00
129, 123335.05, -187500.02, 187500.00, 39454.63, -187500.02, 187500.00, -187500.02, -187500.02, 0.00, 0.00, 0.00
130, 124390.83, -187500.02, 187500.00, 40503.17, -187500.02, 187500.00, -187500.02, -187500.02, 0.00, 0.00, 0.00
131, 122913.11, -187500.02, 187500.00, 39218.44, -187500.02, 187500.00, -187500.02, -187500.02, 0.00, 0.00, 0.00
132, 121608.91, -187500.02, 187500.00, 38020.72, -187500.02, 187500.00, -187500.02, -187500.02, 0.00, 0.00, 0.00
133, 122962.95, -187500.02, 187500.00, 39255.25, -187500.02, 187500.00, -187500.02, -187500.02, 0.00, 0.00, 0.00
134, 124377.06, -187500.02, 187500.00, 40617.45, -187500.02, 187500.00, -187500.02, -187500.02, 0.00, 0.00, 0.00
135, 123258.87, -187500.02, 187500.00, 39671.21, -187500.02, 187500.00, -187500.02, -187500.02, 0.00, 0.00, 0.00
136, 121628.35, -187500.02, 187500.00, 38184.22, -187500.02, 187500.00, -187500.02, -187500.02, 0.00, 0.00, 0.00
137, 122587.27, -187500.02, 187500.00, 39049.19, -187500.02, 187500.00, -187500.02, -187500.02, 0.00, 0.00, 0.00
138, 124296.52, -187500.02, 187500.00, 40670.16, -187500.02, 187500.00, -187500.02, -187500.02, 0.00, 0.00, 0.00
139, 123597.52, -187500.02, 187500.00, 40110.41, -187500.02, 187500.00, -187500.02, -187500.02, 0.00, 0.00, 0.00
140, 121753.30, -187500.02, 187500.00, 38435.05, -187500.02, 187500.00, -187500.02, -187500.02, 0.00, 0.00, 0.00
141, 122200.70, -187500.02, 187500.00, 38823.21, -187500.02, 187500.00, -187500.02, -187500.02, 0.00, 0.00, 0.00
142, 124083.42, -187500.02, 187500.00, 40590.10, -187500.02, 187500.00, -187500.02, -187500.02, 0.00, 0.00, 0.00
143, 123904.14, -187500.02, 187500.00, 40514.46, -187500.02, 187500.00, -187500.02, -187500.02, 0.00, 0.00, 0.00
144, 121969.46, -187500.02, 187500.00, 38764.05, -187500.02, 187500.00, -187500.02, -187500.02, 0.00, 0.00, 0.00
145, 121880.21, -187500.02, 187500.00, 38653.72, -187500.02, 187500.00, -187500.02, -187500.02, 0.00, 0.00, 0.00
146, 123768.22, -187500.02, 187500.00, 40405.70, -187500.02, 187500.00, -187500.02, -187500.02, 0.00, 0.00, 0.00
147, 124102.05, -187500.02, 187500.00, 40800.40, -187500.02, 187500.00, -187500.02, -187500.02, 0.00, 0.00, 0.00
148, 122257.69, -187500.02, 187500.00, 39154.55, -187500.02, 187500.00, -187500.02, -187500.02, 0.00, 0.00, 0.00
149, 121674.71, -187500.02, 187500.00, 38601.15, -187500.02, 187500.00, -187500.02, -187500.02, 0.00, 0.00, 0.00
150, 123469.04, -187500.02, 187500.00, 40252.90, -187500.02, 187500.00, -187500.02, -187500.02, 0.00, 0.00, 0.00
151, 124264.50, -187500.02, 187500.00, 41062.01, -187500.02, 187500.00, -187500.02, -187500.02, 0.00, 0.00, 0.00
152, 122627.09, -187500.02, 187500.00, 39619.92, -187500.02, 187500.00, -187500.02, -187500.02, 0.00, 0.00, 0.00
153, 121545.01, -187500.02, 187500.00, 38614.87, -187500.02, 187500.00, -187500.02, -187500.02, 0.00, 0.00, 0.00
154, 123089.87, -187500.02, 187500.00, 40030.59, -187500.02, 187500.00, -187500.02, -187500.02, 0.00, 0.00, 0.00
155, 124311.10, -187500.02, 187500.00, 41227.12, -187500.02, 187500.00, -187500.02, -187500.02, 0.00, 0.00, 0.00
156, 122964.16, -187500.02, 187500.00, 40063.78, -187500.02, 187500.00, -187500.02, -187500.02, 0.00, 0.00, 0.00
157, 121507.01, -187500.02, 187500.00, 38725.98, -187500.02, 187500.00, -187500.02, -187500.02, 0.00, 0.00, 0.00
158, 122685.95, -187500.02, 187500.00, 39795.54, -187500.02, 187500.00, -187500.02, -187500.02, 0.00, 0.00, 0.00
159, 124253.81, -187500.02, 187500.00, 41298.22, -187500.02, 187500.00, -187500.02, -187500.02, 0.00, 0.00, 0.00
160, 123273.45, -187500.02, 187500.00, 40475.12, -187500.02, 187500.00, -187500.02, -187500.02, 0.00, 0.00, 0.00
161, 121517.80, -187500.02, 187500.00, 38867.76, -187500.02, 187500.00, -187500.02, -187500.02, 0.00, 0.00, 0.00
162, 122267.13, -187500.02, 187500.00, 39533.80, -187500.02, 187500.00, -187500.02, -187500.02, 0.00, 0.00, 0.00
163, 124034.61, -187500.02, 187500.00, 41199.27, -187500.02, 187500.00, -187500.02, -187500.02, 0.00, 0.00, 0.00
164, 123516.56, -187500.02, 187500.00, 40805.63, -187500.02, 187500.00, -187500.02, -187500.02, 0.00, 0.00, 0.00
165, 121642.44, -187500.02, 187500.00, 39109.14, -187500.02, 187500.00, -187500.02, -187500.02, 0.00, 0.00, 0.00
166, 121891.48, -187500.02, 187500.00, 39311.78, -187500.02, 187500.00, -187500.02, -187500.02, 0.00, 0.00, 0.00
167, 123801.62, -187500.02, 187500.00, 41095.11, -187500.02, 187500.00, -187500.02, -187500.02, 0.00, 0.00, 0.00
168, 123823.09, -187500.02, 187500.00, 41207.85, -187500.02, 187500.00, -187500.02, -187500.02, 0.00, 0.00, 0.00
169, 121916.55, -187500.02, 187500.00, 39498.57, -187500.02, 187500.00, -187500.02, -187500.02, 0.00, 0.00, 0.00
170, 121614.48, -187500.02, 187500.00, 39201.52, -187500.02, 187500.00, -187500.02, -187500.02, 0.00, 0.00, 0.00
171, 123456.93, -187500.02, 187500.00, 40904.18, -187500.02, 187500.00, -187500.02, -187500.02, 0.00, 0.00, 0.00
172, 123982.38, -187500.02, 187500.00, 41474.71, -187500.02, 187500.00, -187500.02, -187500.02, 0.00, 0.00, 0.00
173, 122216.77, -187500.02, 187500.00, 39916.04, -187500.02, 187500.00, -187500.02, -187500.02, 0.00, 0.00, 0.00
174, 121409.15, -187500.02, 187500.00, 39162.40, -187500.02, 187500.00, -187500.02, -187500.02, 0.00, 0.00, 0.00
175, 123099.19, -187500.02, 187500.00, 40713.84, -187500.02, 187500.00, -187500.02, -187500.02, 0.00, 0.00, 0.00
176, 124081.01, -187500.02, 187500.00, 41696.44, -187500.02, 187500.00, -187500.02, -187500.02, 0.00, 0.00, 0.00
177, 122531.12, -187500.02, 187500.00, 40345.90, -187500.02, 187500.00, -187500.02, -187500.02, 0.00, 0.00, 0.00
178, 121286.40, -187500.02, 187500.00, 39201.07, -187500.02, 187500.00, -187500.02, -187500.02, 0.00, 0.00, 0.00
179, 122658.75, -187500.02, 187500.00, 40449.01, -187500.02, 187500.00, -187500.02, -187500.02, 0.00, 0.00, 0.00
180, 124032.13, -187500.02, 187500.00, 41778.67, -187500.02, 187500.00, -187500.02, -187500.02, 0.00, 0.00, 0.00
181, 122820.66, -187500.02, 187500.00, 40747.52, -187500.02, 187500.00, -187500.02, -187500.02, 0.00, 0.00, 0.00
182, 121221.62, -187500.02, 187500.00, 39287.28, -187500.02, 187500.00, -187500.02, -187500.02, 0.00, 0.00, 0.00
183, 122255.52, -187500.02, 187500.00, 40218.63, -187500.02, 187500.00, -187500.02, -187500.02, 0.00, 0.00, 0.00
184, 123922.07, -187500.02, 187500.00, 41802.81, -187500.02, 187500.00, -187500.02, -187500.02, 0.00, 0.00, 0.00
185, 123119.62, -187500.02, 187500.00, 41148.44, -187500.02, 187500.00, -187500.02, -187500.02, 0.00, 0.00, 0.00
186, 121305.69, -187500.02, 187500.00, 39500.14, -187500.02, 187500.00, -187500.02, -187500.02, 0.00, 0.00, 0.00
187, 121851.73, -187500.02, 187500.00, 39980.77, -187500.02, 187500.00, -187500.02, -187500.02, 0.00, 0.00, 0.00
188, 123709.66, -187500.02, 187500.00, 41724.43, -187500.02, 187500.00, -187500.02, -187500.02, 0.00, 0.00, 0.00
189, 123396.11, -187500.02, 187500.00, 41522.63, -187500.02, 187500.00, -187500.02, -187500.02, 0.00, 0.00, 0.00
190, 121469.27, -187500.02, 187500.00, 39781.16, -187500.02, 187500.00, -187500.02, -187500.02, 0.00, 0.00, 0.00
191, 121477.73, -187500.02, 187500.00, 39762.48, -187500.02, 187500.00, -187500.02, -187500.02, 0.00, 0.00, 0.00
192, 123357.62, -187500.02, 187500.00, 41504.21, -187500.02, 187500.00, -187500.02, -187500.02, 0.00, 0.00, 0.00
193, 123553.02, -187500.02, 187500.00, 41766.04, -187500.02, 187500.00, -187500.02, -187500.02, 0.00, 0.00, 0.00
194, 121691.41, -187500.02, 187500.00, 40100.73, -187500.02, 187500.00, -187500.02, -187500.02, 0.00, 0.00, 0.00
195, 121223.45, -187500.02, 187500.00, 39650.94, -187500.02, 187500.00, -187500.02, -187500.02, 0.00, 0.00, 0.00
196, 123035.04, -187500.02, 187500.00, 41317.51, -187500.02, 187500.00, -187500.02, -187500.02, 0.00, 0.00, 0.00
197, 123720.05, -187500.02, 187500.00, 42022.91, -187500.02, 187500.00, -187500.02, -187500.02, 0.00, 0.00, 0.00
198, 122017.30, -187500.02, 187500.00, 40514.61, -187500.02, 187500.00, -187500.02, -187500.02, 0.00, 0.00, 0.00
199, 121042.07, -187500.02, 187500.00, 39600.54, -187500.02, 187500.00, -187500.02, -187500.02, 0.00, 0.00, 0.00
200, 122637.31, -187500.02, 187500.00, 41051.08, -187500.02, 187500.00, -187500.02, -187500.02, 0.00, 0.00, 0.00
201, 123781.45, -187500.02, 187500.00, 42169.58, -187500.02, 187500.00, -187500.02, -187500.02, 0.00, 0.00, 0.00
202, 122348.93, -187500.02, 187500.00, 40919.14, -187500.02, 187500.00, -187500.02, -187500.02, 0.00, 0.00, 0.00
203, 120975.44, -187500.02, 187500.00, 39650.23, -187500.02, 187500.00, -187500.02, -187500.02, 0.00, 0.00, 0.00
204, 122261.89, -187500.02, 187500.00, 40813.86, -187500.02, 187500.00, -187500.02, -187500.02, 0.00, 0.00, 0.00
205, 123761.36, -187500.02, 187500.00, 42244.04, -187500.02, 187500.00, -187500.02, -187500.02, 0.00, 0.00, 0.00
206, 122712.16, -187500.02, 187500.00, 41352.49, -187500.02, 187500.00, -187500.02, -187500.02, 0.00, 0.00, 0.00
207, 121030.53, -187500.02, 187500.00, 39811.94, -187500.02, 187500.00, -187500.02, -187500.02, 0.00, 0.00, 0.00
208, 121859.70, -187500.02, 187500.00, 40544.41, -187500.02, 187500.00, -187500.02, -187500.02, 0.00, 0.00, 0.00
209, 123612.50, -187500.02, 187500.00, 42191.69, -187500.02, 187500.00, -187500.02, -187500.02, 0.00, 0.00, 0.00
210, 123048.98, -187500.02, 187500.00, 41754.44, -187500.02, 187500.00, -187500.02, -187500.02, 0.00, 0.00, 0.00
211, 121175.93, -187500.02, 187500.00, 40049.59, -187500.02, 187500.00, -187500.02, -187500.02, 0.00, 0.00, 0.00
212, 121522.72, -187500.02, 187500.00, 40335.04, -187500.02, 187500.00, -187500.02, -187500.02, 0.00, 0.00, 0.00
213, 123415.51, -187500.02, 187500.00, 42092.38, -187500.02, 187500.00, -187500.02, -187500.02, 0.00, 0.00, 0.00
214, 123320.96, -187500.02, 187500.00, 42080.67, -187500.02, 187500.00, -187500.02, -187500.02, 0.00, 0.00, 0.00
215, 121423.52, -187500.02, 187500.00, 40364.77, -187500.02, 187500.00, -187500.02, -187500.02, 0.00, 0.00, 0.00
216, 121257.43, -187500.02, 187500.00, 40178.22, -187500.02, 187500.00, -187500.02, -187500.02, 0.00, 0.00, 0.00
217, 123150.51, -187500.02, 187500.00, 41917.30, -187500.02, 187500.00, -187500.02, -187500.02, 0.00, 0.00, 0.00
218, 123550.67, -187500.02, 187500.00, 42356.53, -187500.02, 187500.00, -187500.02, -187500.02, 0.00, 0.00, 0.00
219, 121762.76, -187500.02, 187500.00, 40758.83, -187500.02, 187500.00, -187500.02, -187500.02, 0.00, 0.00, 0.00
220, 121089.66, -187500.02, 187500.00, 40117.89, -187500.02, 187500.00, -187500.02, -187500.02, 0.00, 0.00, 0.00
221, 122833.13, -187500.02, 187500.00, 41707.26, -187500.02, 187500.00, -187500.02, -187500.02, 0.00, 0.00, 0.00
222, 123710.13, -187500.02, 187500.00, 42579.74, -187500.02, 187500.00, -187500.02, -187500.02, 0.00, 0.00, 0.00
223, 122104.70, -187500.02, 187500.00, 41161.79, -187500.02, 187500.00, -187500.02, -187500.02, 0.00, 0.00, 0.00
224, 120964.91, -187500.02, 187500.00, 40098.16, -187500.02, 187500.00, -187500.02, -187500.02, 0.00, 0.00, 0.00
225, 122476.40, -187500.02, 187500.00, 41466.53, -187500.02, 187500.00, -187500.02, -187500.02, 0.00, 0.00, 0.00
226, 123776.27, -187500.02, 187500.00, 42722.32, -187500.02, 187500.00, -187500.02, -187500.02, 0.00, 0.00, 0.00
227, 122454.32, -187500.02, 187500.00, 41574.87, -187500.02, 187500.00, -187500.02, -187500.02, 0.00, 0.00, 0.00
228, 120948.48, -187500.02, 187500.00, 40189.22, -187500.02, 187500.00, -187500.02, -187500.02, 0.00, 0.00, 0.00
229, 122071.45, -187500.02, 187500.00, 41196.05, -187500.02, 187500.00, -187500.02, -187500.02, 0.00, 0.00, 0.00
230, 123664.95, -187500.02, 187500.00, 42705.53, -187500.02, 187500.00, -187500.02, -187500.02, 0.00, 0.00, 0.00
231, 122789.52, -187500.02, 187500.00, 41982.41, -187500.02, 187500.00, -187500.02, -187500.02, 0.00, 0.00, 0.00
232, 121015.88, -187500.02, 187500.00, 40368.72, -187500.02, 187500.00, -187500.02, -187500.02, 0.00, 0.00, 0.00
233, 121672.37, -187500.02, 187500.00, 40947.99, -187500.02, 187500.00, -187500.02, -187500.02, 0.00, 0.00, 0.00
234, 123497.77, -187500.02, 187500.00, 42664.00, -187500.02, 187500.00, -187500.02, -187500.02, 0.00, 0.00, 0.00
235, 123093.29, -187500.02, 187500.00, 42379.26, -187500.02, 187500.00, -187500.02, -187500.02, 0.00, 0.00, 0.00
236, 121150.59, -187500.02, 187500.00, 40619.18, -187500.02, 187500.00, -187500.02, -187500.02, 0.00, 0.00, 0.00
237, 121288.63, -187500.02, 187500.00, 40722.17, -187500.02, 187500.00, -187500.02, -187500.02, 0.00, 0.00, 0.00
238, 123208.27, -187500.02, 187500.00, 42514.76, -187500.02, 187500.00, -187500.02, -187500.02, 0.00, 0.00, 0.00
239, 123294.14, -187500.02, 187500.00, 42682.53, -187500.02, 187500.00, -187500.02, -187500.02, 0.00, 0.00, 0.00
240, 121402.89, -187500.02, 187500.00, 40998.30, -187500.02, 187500.00, -187500.02, -187500.02, 0.00, 0.00, 0.00
241, 121027.02, -187500.02, 187500.00, 40646.80, -187500.02, 187500.00, -187500.02, -187500.02, 0.00, 0.00, 0.00
242, 122866.80, -187500.02, 187500.00, 42357.52, -187500.02, 187500.00, -187500.02, -187500.02, 0.00, 0.00, 0.00
243, 123446.63, -187500.02, 187500.00, 42983.86, -187500.02, 187500.00, -187500.02, -187500.02, 0.00, 0.00, 0.00
244, 121700.17, -187500.02, 187500.00, 41454.53, -187500.02, 187500.00, -187500.02, -187500.02, 0.00, 0.00, 0.00
245, 120811.27, -187500.02, 187500.00, 40639.52, -187500.02, 187500.00, -187500.02, -187500.02, 0.00, 0.00, 0.00
246, 122445.27, -187500.02, 187500.00, 42146.16, -187500.02, 187500.00, -187500.02, -187500.02, 0.00, 0.00, 0.00
247, 123501.81, -187500.02, 187500.00, 43202.37, -187500.02, 187500.00, -187500.02, -187500.02, 0.00, 0.00, 0.00
248, 122000.27, -187500.02, 187500.00, 41904.91, -187500.02, 187500.00, -187500.02, -187500.02, 0.00, 0.00, 0.00
249, 120695.08, -187500.02, 187500.00, 40718.77, -187500.02, 187500.00, -187500.02, -187500.02, 0.00, 0.00, 0.00
250, 122053.44, -187500.02, 187500.00, 41964.26, -187500.02, 187500.00, -187500.02, -187500.02, 0.00, 0.00, 0.00
251, 123489.88, -187500.02, 187500.00, 43352.75, -187500.02, 187500.00, -187500.02, -187500.02, 0.00, 0.00, 0.00
252, 122372.29, -187500.02, 187500.00, 42414.13, -187500.02, 187500.00, -187500.02, -187500.02, 0.00, 0.00, 0.00
253, 120756.84, -187500.02, 187500.00, 40953.91, -187500.02, 187500.00, -187500.02, -187500.02, 0.00, 0.00, 0.00
254, 121659.73, -187500.02, 187500.00, 41771.23, -187500.02, 187500.00, -187500.02, -187500.02, 0.00, 0.00, 0.00
255, 123365.33, -187500.02, 187500.00, 43393.07, -187500.02, 187500.00, -187500.02, -187500.02, 0.00, 0.00, 0.00
0, 122654.43, -187500.02, 187500.00, 42832.22, -187500.02, 187500.00, -187500.02, -187500.02, 0.00, 0.00, 0.00
1, 120831.42, -187500.02, 187500.00, 41190.96, -187500.02, 187500.00, -187500.02, -187500.02, 0.00, 0.00, 0.00
2, 121260.53, -187500.02, 187500.00, 41568.45, -187500.02, 187500.00, -187500.02, -187500.02, 0.00, 0.00, 0.00
3, 123096.26, -187500.02, 187500.00, 43292.31, -187500.02, 187500.00, -187500.02, -187500.02, 0.00, 0.00, 0.00
4, 122891.74, -187500.02, 187500.00, 43197.23, -187500.02, 187500.00, -187500.02, -187500.02, 0.00, 0.00, 0.00
5, 120980.00, -187500.02, 187500.00, 41485.39, -187500.02, 187500.00, -187500.02, -187500.02, 0.00, 0.00, 0.00
6, 120939.61, -187500.02, 187500.00, 41440.45, -187500.02, 187500.00, -187500.02, -187500.02, 0.00, 0.00, 0.00
7, 122829.60, -187500.02, 187500.00, 43201.83, -187500.02, 187500.00, -187500.02, -187500.02, 0.00, 0.00, 0.00
8, 123138.02, -187500.02, 187500.00, 43574.34, -187500.02, 187500.00, -187500.02, -187500.02, 0.00, 0.00, 0.00
9, 121286.13, -187500.02, 187500.00, 41928.29, -187500.02, 187500.00, -187500.02, -187500.02, 0.00, 0.00, 0.00
10, 120716.05, -187500.02, 187500.00, 41396.28, -187500.02, 187500.00, -187500.02, -187500.02, 0.00, 0.00, 0.00
11, 122501.99, -187500.02, 187500.00, 43048.32, -187500.02, 187500.00, -187500.02, -187500.02, 0.00, 0.00, 0.00
12, 123260.88, -187500.02, 187500.00, 43826.94, -187500.02, 187500.00, -187500.02, -187500.02, 0.00, 0.00, 0.00
13, 121604.30, -187500.02, 187500.00, 42370.59, -187500.02, 187500.00, -187500.02, -187500.02, 0.00, 0.00, 0.00
14, 120574.09, -187500.02, 187500.00, 41423.52, -187500.02, 187500.00, -187500.02, -187500.02, 0.00, 0.00, 0.00
15, 122116.36, -187500.02, 187500.00, 42834.93, -187500.02, 187500.00, -187500.02, -187500.02, 0.00, 0.00, 0.00
16, 123312.55, -187500.02, 187500.00, 43999.72, -187500.02, 187500.00, -187500.02, -187500.02, 0.00, 0.00, 0.00
17, 121952.14, -187500.02, 187500.00, 42823.23, -187500.02, 187500.00, -187500.02, -187500.02, 0.00, 0.00, 0.00
18, 120503.32, -187500.02, 187500.00, 41498.31, -187500.02, 187500.00, -187500.02, -187500.02, 0.00, 0.00, 0.00
19, 121708.06, -187500.02, 187500.00, 42590.89, -187500.02, 187500.00, -187500.02, -187500.02, 0.00, 0.00, 0.00
20, 123274.20, -187500.02, 187500.00, 44085.08, -187500.02, 187500.00, -187500.02, -187500.02, 0.00, 0.00, 0.00
21, 122302.17, -187500.02, 187500.00, 43275.08, -187500.02, 187500.00, -187500.02, -187500.02, 0.00, 0.00, 0.00
22, 120570.09, -187500.02, 187500.00, 41702.27, -187500.02, 187500.00, -187500.02, -187500.02, 0.00, 0.00, 0.00
23, 121305.44, -187500.02, 187500.00, 42356.80, -187500.02, 187500.00, -187500.02, -187500.02, 0.00, 0.00, 0.00
24, 123082.88, -187500.02, 187500.00, 44030.32, -187500.02, 187500.00, -187500.02, -187500.02, 0.00, 0.00, 0.00
25, 122567.13, -187500.02, 187500.00, 43640.21, -187500.02, 187500.00, -187500.02, -187500.02, 0.00, 0.00, 0.00
26, 120724.07, -187500.02, 187500.00, 41981.40, -187500.02, 187500.00, -187500.02, -187500.02, 0.00, 0.00, 0.00
27, 120996.29, -187500.02, 187500.00, 42216.48, -187500.02, 187500.00, -187500.02, -187500.02, 0.00, 0.00, 0.00
28, 122876.21, -187500.02, 187500.00, 43971.29, -187500.02, 187500.00, -187500.02, -187500.02, 0.00, 0.00, 0.00
29, 122840.73, -187500.02, 187500.00, 44027.01, -187500.02, 187500.00, -187500.02, -187500.02, 0.00, 0.00, 0.00
30, 120944.70, -187500.02, 187500.00, 42335.19, -187500.02, 187500.00, -187500.02, -187500.02, 0.00, 0.00, 0.00
31, 120717.37, -187500.02, 187500.00, 42122.64, -187500.02, 187500.00, -187500.02, -187500.02, 0.00, 0.00, 0.00
32, 122559.38, -187500.02, 187500.00, 43834.99, -187500.02, 187500.00, -187500.02, -187500.02, 0.00, 0.00, 0.00
33, 123012.20, -187500.02, 187500.00, 44338.84, -187500.02, 187500.00, -187500.02, -187500.02, 0.00, 0.00, 0.00
34, 121210.66, -187500.02, 187500.00, 42750.66, -187500.02, 187500.00, -187500.02, -187500.02, 0.00, 0.00, 0.00
35, 120448.41, -187500.02, 187500.00, 42054.89, -187500.02, 187500.00, -187500.02, -187500.02, 0.00, 0.00, 0.00
36, 122139.85, -187500.02, 187500.00, 43616.88, -187500.02, 187500.00, -187500.02, -187500.02, 0.00, 0.00, 0.00
37, 123086.98, -187500.02, 187500.00, 44568.57, -187500.02, 187500.00, -187500.02, -187500.02, 0.00, 0.00, 0.00
38, 121546.95, -187500.02, 187500.00, 43236.25, -187500.02, 187500.00, -187500.02, -187500.02, 0.00, 0.00, 0.00
39, 120319.19, -187500.02, 187500.00, 42118.98, -187500.02, 187500.00, -187500.02, -187500.02, 0.00, 0.00, 0.00
40, 121759.47, -187500.02, 187500.00, 43440.79, -187500.02, 187500.00, -187500.02, -187500.02, 0.00, 0.00, 0.00
41, 123104.91, -187500.02, 187500.00, 44748.21, -187500.02, 187500.00, -187500.02, -187500.02, 0.00, 0.00, 0.00
42, 121876.48, -187500.02, 187500.00, 43709.01, -187500.02, 187500.00, -187500.02, -187500.02, 0.00, 0.00, 0.00
43, 120294.31, -187500.02, 187500.00, 42276.96, -187500.02, 187500.00, -187500.02, -187500.02, 0.00, 0.00, 0.00
44, 121319.07, -187500.02, 187500.00, 43209.63, -187500.02, 187500.00, -187500.02, -187500.02, 0.00, 0.00, 0.00
45, 122961.88, -187500.02, 187500.00, 44776.62, -187500.02, 187500.00, -187500.02, -187500.02, 0.00, 0.00, 0.00
46, 122174.56, -187500.02, 187500.00, 44148.74, -187500.02, 187500.00, -187500.02, -187500.02, 0.00, 0.00, 0.00
47, 120364.32, -187500.02, 187500.00, 42516.46, -187500.02, 187500.00, -187500.02, -187500.02, 0.00, 0.00, 0.00
48, 120925.98, -187500.02, 187500.00, 43020.47, -187500.02, 187500.00, -187500.02, -187500.02, 0.00, 0.00, 0.00
49, 122736.06, -187500.02, 187500.00, 44721.61, -187500.02, 187500.00, -187500.02, -187500.02, 0.00, 0.00, 0.00
50, 122415.05, -187500.02, 187500.00, 44519.18, -187500.02, 187500.00, -187500.02, -187500.02, 0.00, 0.00, 0.00
51, 120510.99, -187500.02, 187500.00, 42816.17, -187500.02, 187500.00, -187500.02, -187500.02, 0.00, 0.00, 0.00
52, 120574.13, -187500.02, 187500.00, 42866.75, -187500.02, 187500.00, -187500.02, -187500.02, 0.00, 0.00, 0.00
53, 122443.84, -187500.02, 187500.00, 44609.41, -187500.02, 187500.00, -187500.02, -187500.02, 0.00, 0.00, 0.00
54, 122613.26, -187500.02, 187500.00, 44855.17, -187500.02, 187500.00, -187500.02, -187500.02, 0.00, 0.00, 0.00
55, 120714.52, -187500.02, 187500.00, 43165.26, -187500.02, 187500.00, -187500.02, -187500.02, 0.00, 0.00, 0.00
56, 120230.81, -187500.02, 187500.00, 42710.00, -187500.02, 187500.00, -187500.02, -187500.02, 0.00, 0.00, 0.00
57, 122064.46, -187500.02, 187500.00, 44405.16, -187500.02, 187500.00, -187500.02, -187500.02, 0.00, 0.00, 0.00
58, 122743.82, -187500.02, 187500.00, 45112.97, -187500.02, 187500.00, -187500.02, -187500.02, 0.00, 0.00, 0.00
59, 121013.99, -187500.02, 187500.00, 43589.05, -187500.02, 187500.00, -187500.02, -187500.02, 0.00, 0.00, 0.00
60, 120058.32, -187500.02, 187500.00, 42707.90, -187500.02, 187500.00, -187500.02, -187500.02, 0.00, 0.00, 0.00
61, 121686.09, -187500.02, 187500.00, 44201.04, -187500.02, 187500.00, -187500.02, -187500.02, 0.00, 0.00, 0.00
62, 122790.96, -187500.02, 187500.00, 45286.96, -187500.02, 187500.00, -187500.02, -187500.02, 0.00, 0.00, 0.00
63, 121336.87, -187500.02, 187500.00, 44023.64, -187500.02, 187500.00, -187500.02, -187500.02, 0.00, 0.00, 0.00
64, 119972.34, -187500.02, 187500.00, 42775.58, -187500.02, 187500.00, -187500.02, -187500.02, 0.00, 0.00, 0.00
65, 121252.91, -187500.02, 187500.00, 43938.59, -187500.02, 187500.00, -187500.02, -187500.02, 0.00, 0.00, 0.00
66, 122748.52, -187500.02, 187500.00, 45370.64, -187500.02, 187500.00, -187500.02, -187500.02, 0.00, 0.00, 0.00
67, 121695.63, -187500.02, 187500.00, 44484.51, -187500.02, 187500.00, -187500.02, -187500.02, 0.00, 0.00, 0.00
68, 120018.38, -187500.02, 187500.00, 42959.22, -187500.02, 187500.00, -187500.02, -187500.02, 0.00, 0.00, 0.00
69, 120877.13, -187500.02, 187500.00, 43728.53, -187500.02, 187500.00, -187500.02, -187500.02, 0.00, 0.00, 0.00
70, 122623.66, -187500.02, 187500.00, 45380.30, -187500.02, 187500.00, -187500.02, -187500.02, 0.00, 0.00, 0.00
71, 122010.57, -187500.02, 187500.00, 44904.18, -187500.02, 187500.00, -187500.02, -187500.02, 0.00, 0.00, 0.00
72, 120157.48, -187500.02, 187500.00, 43232.25, -187500.02, 187500.00, -187500.02, -187500.02, 0.00, 0.00, 0.00
73, 120519.98, -187500.02, 187500.00, 43546.54, -187500.02, 187500.00, -187500.02, -187500.02, 0.00, 0.00, 0.00
74, 122386.80, -187500.02, 187500.00, 45288.41, -187500.02, 187500.00, -187500.02, -187500.02, 0.00, 0.00, 0.00
75, 122259.59, -187500.02, 187500.00, 45254.97, -187500.02, 187500.00, -187500.02, -187500.02, 0.00, 0.00, 0.00
76, 120355.31, -187500.02, 187500.00, 43545.96, -187500.02, 187500.00, -187500.02, -187500.02, 0.00, 0.00, 0.00
77, 120207.97, -187500.02, 187500.00, 43392.80, -187500.02, 187500.00, -187500.02, -187500.02, 0.00, 0.00, 0.00
78, 122071.77, -187500.02, 187500.00, 45113.38, -187500.02, 187500.00, -187500.02, -187500.02, 0.00, 0.00, 0.00
79, 122461.83, -187500.02, 187500.00, 45548.50, -187500.02, 187500.00, -187500.02, -187500.02, 0.00, 0.00, 0.00
80, 120659.52, -187500.02, 187500.00, 43949.47, -187500.02, 187500.00, -187500.02, -187500.02, 0.00, 0.00, 0.00
81, 119968.31, -187500.02, 187500.00, 43301.32, -187500.02, 187500.00, -187500.02, -187500.02, 0.00, 0.00, 0.00
82, 121717.31, -187500.02, 187500.00, 44903.98, -187500.02, 187500.00, -187500.02, -187500.02, 0.00, 0.00, 0.00
83, 122578.66, -187500.02, 187500.00, 45765.46, -187500.02, 187500.00, -187500.02, -187500.02, 0.00, 0.00, 0.00
84, 120973.27, -187500.02, 187500.00, 44355.47, -187500.02, 187500.00, -187500.02, -187500.02, 0.00, 0.00, 0.00
85, 119840.55, -187500.02, 187500.00, 43311.76, -187500.02, 187500.00, -187500.02, -187500.02, 0.00, 0.00, 0.00
86, 121333.18, -187500.02, 187500.00, 44670.25, -187500.02, 187500.00, -187500.02, -187500.02, 0.00, 0.00, 0.00
87, 122625.60, -187500.02, 187500.00, 45918.17, -187500.02, 187500.00, -187500.02, -187500.02, 0.00, 0.00, 0.00
88, 121342.19, -187500.02, 187500.00, 44813.77, -187500.02, 187500.00, -187500.02, -187500.02, 0.00, 0.00, 0.00
89, 119840.93, -187500.02, 187500.00, 43441.42, -187500.02, 187500.00, -187500.02, -187500.02, 0.00, 0.00, 0.00
90, 120942.02, -187500.02, 187500.00, 44428.32, -187500.02, 187500.00, -187500.02, -187500.02, 0.00, 0.00, 0.00
91, 122538.83, -187500.02, 187500.00, 45941.42, -187500.02, 187500.00, -187500.02, -187500.02, 0.00, 0.00, 0.00
92, 121651.06, -187500.02, 187500.00, 45206.31, -187500.02, 187500.00, -187500.02, -187500.02, 0.00, 0.00, 0.00
93, 119894.84, -187500.02, 187500.00, 43613.10, -187500.02, 187500.00, -187500.02, -187500.02, 0.00, 0.00, 0.00
94, 120583.37, -187500.02, 187500.00, 44223.02, -187500.02, 187500.00, -187500.02, -187500.02, 0.00, 0.00, 0.00
95, 122386.62, -187500.02, 187500.00, 45911.13, -187500.02, 187500.00, -187500.02, -187500.02, 0.00, 0.00, 0.00
96, 121931.04, -187500.02, 187500.00, 45571.43, -187500.02, 187500.00, -187500.02, -187500.02, 0.00, 0.00, 0.00
97, 120072.54, -187500.02, 187500.00, 43900.90, -187500.02, 187500.00, -187500.02, -187500.02, 0.00, 0.00, 0.00
98, 120257.66, -187500.02, 187500.00, 44050.66, -187500.02, 187500.00, -187500.02, -187500.02, 0.00, 0.00, 0.00
99, 122127.83, -187500.02, 187500.00, 45782.20, -187500.02, 187500.00, -187500.02, -187500.02, 0.00, 0.00, 0.00
100, 122190.55, -187500.02, 187500.00, 45918.71, -187500.02, 187500.00, -187500.02, -187500.02, 0.00, 0.00, 0.00
101, 120313.54, -187500.02, 187500.00, 44241.14, -187500.02, 187500.00, -187500.02, -187500.02, 0.00, 0.00, 0.00
102, 119956.55, -187500.02, 187500.00, 43894.76, -187500.02, 187500.00, -187500.02, -187500.02, 0.00, 0.00, 0.00
103, 121808.87, -187500.02, 187500.00, 45599.50, -187500.02, 187500.00, -187500.02, -187500.02, 0.00, 0.00, 0.00
104, 122380.13, -187500.02, 187500.00, 46196.45, -187500.02, 187500.00, -187500.02, -187500.02, 0.00, 0.00, 0.00
105, 120608.60, -187500.02, 187500.00, 44624.38, -187500.02, 187500.00, -187500.02, -187500.02, 0.00, 0.00, 0.00
106, 119777.27, -187500.02, 187500.00, 43854.52, -187500.02, 187500.00, -187500.02, -187500.02, 0.00, 0.00, 0.00
107, 121428.71, -187500.02, 187500.00, 45363.78, -187500.02, 187500.00, -187500.02, -187500.02, 0.00, 0.00, 0.00
108, 122435.27, -187500.02, 187500.00, 46353.98, -187500.02, 187500.00, -187500.02, -187500.02, 0.00, 0.00, 0.00
109, 120943.70, -187500.02, 187500.00, 45053.83, -187500.02, 187500.00, -187500.02, -187500.02, 0.00, 0.00, 0.00
110, 119648.62, -187500.02, 187500.00, 43862.26, -187500.02, 187500.00, -187500.02, -187500.02, 0.00, 0.00, 0.00
111, 121007.04, -187500.02, 187500.00, 45091.69, -187500.02, 187500.00, -187500.02, -187500.02, 0.00, 0.00, 0.00
112, 122433.38, -187500.02, 187500.00, 46456.71, -187500.02, 187500.00, -187500.02, -187500.02, 0.00, 0.00, 0.00
113, 121288.02, -187500.02, 187500.00, 45481.86, -187500.02, 187500.00, -187500.02, -187500.02, 0.00, 0.00, 0.00
114, 119657.42, -187500.02, 187500.00, 43998.40, -187500.02, 187500.00, -187500.02, -187500.02, 0.00, 0.00, 0.00
115, 120603.62, -187500.02, 187500.00, 44851.19, -187500.02, 187500.00, -187500.02, -187500.02, 0.00, 0.00, 0.00
116, 122308.90, -187500.02, 187500.00, 46465.18, -187500.02, 187500.00, -187500.02, -187500.02, 0.00, 0.00, 0.00
117, 121605.04, -187500.02, 187500.00, 45902.70, -187500.02, 187500.00, -187500.02, -187500.02, 0.00, 0.00, 0.00
118, 119780.55, -187500.02, 187500.00, 44255.47, -187500.02, 187500.00, -187500.02, -187500.02, 0.00, 0.00, 0.00
119, 120255.80, -187500.02, 187500.00, 44675.66, -187500.02, 187500.00, -187500.02, -187500.02, 0.00, 0.00, 0.00
120, 122107.17, -187500.02, 187500.00, 46407.45, -187500.02, 187500.00, -187500.02, -187500.02, 0.00, 0.00, 0.00
121, 121851.27, -187500.02, 187500.00, 46255.59, -187500.02, 187500.00, -187500.02, -187500.02, 0.00, 0.00, 0.00
122, 119942.54, -187500.02, 187500.00, 44545.19, -187500.02, 187500.00, -187500.02, -187500.02, 0.00, 0.00, 0.00
123, 119896.90, -187500.02, 187500.00, 44487.75, -187500.02, 187500.00, -187500.02, -187500.02, 0.00, 0.00, 0.00
124, 121783.16, -187500.02, 187500.00, 46235.95, -187500.02, 187500.00, -187500.02, -187500.02, 0.00, 0.00, 0.00
125, 122036.85, -187500.02, 187500.00, 46551.55, -187500.02, 187500.00, -187500.02, -187500.02, 0.00, 0.00, 0.00
126, 120190.34, -187500.02, 187500.00, 44913.01, -187500.02, 187500.00, -187500.02, -187500.02, 0.00, 0.00, 0.00
127, 119617.73, -187500.02, 187500.00, 44377.84, -187500.02, 187500.00, -187500.02, -187500.02, 0.00, 0.00, 0.00
128, 121376.09, -187500.02, 187500.00, 45992.91, -187500.02, 187500.00, -187500.02, -187500.02, 0.00, 0.00, 0.00
129, 122131.70, -187500.02, 187500.00, 46762.22, -187500.02, 187500.00, -187500.02, -187500.02, 0.00, 0.00, 0.00
130, 120473.08, -187500.02, 187500.00, 45307.61, -187500.02, 187500.00, -187500.02, -187500.02, 0.00, 0.00, 0.00
131, 119455.27, -187500.02, 187500.00, 44376.04, -187500.02, 187500.00, -187500.02, -187500.02, 0.00, 0.00, 0.00
132, 121006.44, -187500.02, 187500.00, 45794.27, -187500.02, 187500.00, -187500.02, -187500.02, 0.00, 0.00, 0.00
133, 122202.19, -187500.02, 187500.00, 46960.68, -187500.02, 187500.00, -187500.02, -187500.02, 0.00, 0.00, 0.00
134, 120861.82, -187500.02, 187500.00, 45811.33, -187500.02, 187500.00, -187500.02, -187500.02, 0.00, 0.00, 0.00
135, 119429.23, -187500.02, 187500.00, 44506.75, -187500.02, 187500.00, -187500.02, -187500.02, 0.00, 0.00, 0.00
136, 120650.48, -187500.02, 187500.00, 45617.63, -187500.02, 187500.00, -187500.02, -187500.02, 0.00, 0.00, 0.00
137, 122201.56, -187500.02, 187500.00, 47099.28, -187500.02, 187500.00, -187500.02, -187500.02, 0.00, 0.00, 0.00
138, 121229.24, -187500.02, 187500.00, 46290.95, -187500.02, 187500.00, -187500.02, -187500.02, 0.00, 0.00, 0.00
139, 119514.98, -187500.02, 187500.00, 44739.09, -187500.02, 187500.00, -187500.02, -187500.02, 0.00, 0.00, 0.00
140, 120276.72, -187500.02, 187500.00, 45420.87, -187500.02, 187500.00, -187500.02, -187500.02, 0.00, 0.00, 0.00
141, 122028.52, -187500.02, 187500.00, 47065.11, -187500.02, 187500.00, -187500.02, -187500.02, 0.00, 0.00, 0.00
142, 121520.10, -187500.02, 187500.00, 46682.20, -187500.02, 187500.00, -187500.02, -187500.02, 0.00, 0.00, 0.00
143, 119649.17, -187500.02, 187500.00, 44997.64, -187500.02, 187500.00, -187500.02, -187500.02, 0.00, 0.00, 0.00
144, 119912.88, -187500.02, 187500.00, 45222.11, -187500.02, 187500.00, -187500.02, -187500.02, 0.00, 0.00, 0.00
145, 121780.08, -187500.02, 187500.00, 46958.09, -187500.02, 187500.00, -187500.02, -187500.02, 0.00, 0.00, 0.00
146, 121744.12, -187500.02, 187500.00, 47006.57, -187500.02, 187500.00, -187500.02, -187500.02, 0.00, 0.00, 0.00
147, 119835.21, -187500.02, 187500.00, 45299.45, -187500.02, 187500.00, -187500.02, -187500.02, 0.00, 0.00, 0.00
148, 119583.23, -187500.02, 187500.00, 45053.88, -187500.02, 187500.00, -187500.02, -187500.02, 0.00, 0.00, 0.00
149, 121452.87, -187500.02, 187500.00, 46780.48, -187500.02, 187500.00, -187500.02, -187500.02, 0.00, 0.00, 0.00
150, 121900.95, -187500.02, 187500.00, 47269.20, -187500.02, 187500.00, -187500.02, -187500.02, 0.00, 0.00, 0.00
151, 120101.73, -187500.02, 187500.00, 45672.61, -187500.02, 187500.00, -187500.02, -187500.02, 0.00, 0.00, 0.00
152, 119352.45, -187500.02, 187500.00, 44974.08, -187500.02, 187500.00, -187500.02, -187500.02, 0.00, 0.00, 0.00
153, 121060.46, -187500.02, 187500.00, 46535.04, -187500.02, 187500.00, -187500.02, -187500.02, 0.00, 0.00, 0.00
154, 121958.73, -187500.02, 187500.00, 47419.87, -187500.02, 187500.00, -187500.02, -187500.02, 0.00, 0.00, 0.00
155, 120396.35, -187500.02, 187500.00, 46046.96, -187500.02, 187500.00, -187500.02, -187500.02, 0.00, 0.00, 0.00
156, 119204.84, -187500.02, 187500.00, 44950.79, -187500.02, 187500.00, -187500.02, -187500.02, 0.00, 0.00, 0.00
157, 120624.96, -187500.02, 187500.00, 46233.31, -187500.02, 187500.00, -187500.02, -187500.02, 0.00, 0.00, 0.00
158, 121972.03, -187500.02, 187500.00, 47518.73, -187500.02, 187500.00, -187500.02, -187500.02, 0.00, 0.00, 0.00
159, 120782.81, -187500.02, 187500.00, 46499.05, -187500.02, 187500.00, -187500.02, -187500.02, 0.00, 0.00, 0.00
160, 119222.99, -187500.02, 187500.00, 45074.84, -187500.02, 187500.00, -187500.02, -187500.02, 0.00, 0.00, 0.00
161, 120277.62, -187500.02, 187500.00, 46023.56, -187500.02, 187500.00, -187500.02, -187500.02, 0.00, 0.00, 0.00
162, 121944.03, -187500.02, 187500.00, 47596.65, -187500.02, 187500.00, -187500.02, -187500.02, 0.00, 0.00, 0.00
163, 121129.48, -187500.02, 187500.00, 46926.39, -187500.02, 187500.00, -187500.02, -187500.02, 0.00, 0.00, 0.00
164, 119344.48, -187500.02, 187500.00, 45306.85, -187500.02, 187500.00, -187500.02, -187500.02, 0.00, 0.00, 0.00
165, 119923.92, -187500.02, 187500.00, 45812.52, -187500.02, 187500.00, -187500.02, -187500.02, 0.00, 0.00, 0.00
166, 121740.29, -187500.02, 187500.00, 47505.01, -187500.02, 187500.00, -187500.02, -187500.02, 0.00, 0.00, 0.00
167, 121426.88, -187500.02, 187500.00, 47294.50, -187500.02, 187500.00, -187500.02, -187500.02, 0.00, 0.00, 0.00
168, 119539.49, -187500.02, 187500.00, 45594.09, -187500.02, 187500.00, -187500.02, -187500.02, 0.00, 0.00, 0.00
169, 119611.53, -187500.02, 187500.00, 45636.65, -187500.02, 187500.00, -187500.02, -187500.02, 0.00, 0.00, 0.00
170, 121497.38, -187500.02, 187500.00, 47375.66, -187500.02, 187500.00, -187500.02, -187500.02, 0.00, 0.00, 0.00
171, 121686.63, -187500.02, 187500.00, 47624.32, -187500.02, 187500.00, -187500.02, -187500.02, 0.00, 0.00, 0.00
172, 119829.95, -187500.02, 187500.00, 45967.34, -187500.02, 187500.00, -187500.02, -187500.02, 0.00, 0.00, 0.00
173, 119363.14, -187500.02, 187500.00, 45519.48, -187500.02, 187500.00, -187500.02, -187500.02, 0.00, 0.00, 0.00
174, 121171.80, -187500.02, 187500.00, 47173.91, -187500.02, 187500.00, -187500.02, -187500.02, 0.00, 0.00, 0.00
175, 121827.46, -187500.02, 187500.00, 47846.41, -187500.02, 187500.00, -187500.02, -187500.02, 0.00, 0.00, 0.00
176, 120124.38, -187500.02, 187500.00, 46344.98, -187500.02, 187500.00, -187500.02, -187500.02, 0.00, 0.00, 0.00
177, 119185.73, -187500.02, 187500.00, 45476.50, -187500.02, 187500.00, -187500.02, -187500.02, 0.00, 0.00, 0.00
178, 120799.80, -187500.02, 187500.00, 46946.69, -187500.02, 187500.00, -187500.02, -187500.02, 0.00, 0.00, 0.00
179, 121896.22, -187500.02, 187500.00, 48014.07, -187500.02, 187500.00, -187500.02, -187500.02, 0.00, 0.00, 0.00
180, 120428.60, -187500.02, 187500.00, 46734.81, -187500.02, 187500.00, -187500.02, -187500.02, 0.00, 0.00, 0.00
181, 119060.05, -187500.02, 187500.00, 45482.36, -187500.02, 187500.00, -187500.02, -187500.02, 0.00, 0.00, 0.00
182, 120361.37, -187500.02, 187500.00, 46658.04, -187500.02, 187500.00, -187500.02, -187500.02, 0.00, 0.00, 0.00
183, 121837.52, -187500.02, 187500.00, 48061.46, -187500.02, 187500.00, -187500.02, -187500.02, 0.00, 0.00, 0.00
184, 120752.91, -187500.02, 187500.00, 47141.46, -187500.02, 187500.00, -187500.02, -187500.02, 0.00, 0.00, 0.00
185, 119092.46, -187500.02, 187500.00, 45632.40, -187500.02, 187500.00, -187500.02, -187500.02, 0.00, 0.00, 0.00
186, 119990.59, -187500.02, 187500.00, 46433.58, -187500.02, 187500.00, -187500.02, -187500.02, 0.00, 0.00, 0.00
187, 121716.35, -187500.02, 187500.00, 48051.55, -187500.02, 187500.00, -187500.02, -187500.02, 0.00, 0.00, 0.00
188, 121109.10, -187500.02, 187500.00, 47576.09, -187500.02, 187500.00, -187500.02, -187500.02, 0.00, 0.00, 0.00
189, 119278.65, -187500.02, 187500.00, 45923.22, -187500.02, 187500.00, -187500.02, -187500.02, 0.00, 0.00, 0.00
190, 119657.24, -187500.02, 187500.00, 46244.80, -187500.02, 187500.00, -187500.02, -187500.02, 0.00, 0.00, 0.00
191, 121528.46, -187500.02, 187500.00, 47980.27, -187500.02, 187500.00, -187500.02, -187500.02, 0.00, 0.00, 0.00
192, 121381.91, -187500.02, 187500.00, 47921.80, -187500.02, 187500.00, -187500.02, -187500.02, 0.00, 0.00, 0.00
193, 119496.67, -187500.02, 187500.00, 46234.00, -187500.02, 187500.00, -187500.02, -187500.02, 0.00, 0.00, 0.00
194, 119360.30, -187500.02, 187500.00, 46090.91, -187500.02, 187500.00, -187500.02, -187500.02, 0.00, 0.00, 0.00
195, 121232.41, -187500.02, 187500.00, 47816.84, -187500.02, 187500.00, -187500.02, -187500.02, 0.00, 0.00, 0.00
196, 121602.11, -187500.02, 187500.00, 48233.97, -187500.02, 187500.00, -187500.02, -187500.02, 0.00, 0.00, 0.00
197, 119791.04, -187500.02, 187500.00, 46626.32, -187500.02, 187500.00, -187500.02, -187500.02, 0.00, 0.00, 0.00
198, 119151.06, -187500.02, 187500.00, 46028.45, -187500.02, 187500.00, -187500.02, -187500.02, 0.00, 0.00, 0.00
199, 120907.55, -187500.02, 187500.00, 47638.43, -187500.02, 187500.00, -187500.02, -187500.02, 0.00, 0.00, 0.00
200, 121726.81, -187500.02, 187500.00, 48457.42, -187500.02, 187500.00, -187500.02, -187500.02, 0.00, 0.00, 0.00
201, 120095.83, -187500.02, 187500.00, 47022.61, -187500.02, 187500.00, -187500.02, -187500.02, 0.00, 0.00, 0.00
202, 119009.02, -187500.02, 187500.00, 46026.84, -187500.02, 187500.00, -187500.02, -187500.02, 0.00, 0.00, 0.00
203, 120514.61, -187500.02, 187500.00, 47400.47, -187500.02, 187500.00, -187500.02, -187500.02, 0.00, 0.00, 0.00
204, 121718.37, -187500.02, 187500.00, 48564.28, -187500.02, 187500.00, -187500.02, -187500.02, 0.00, 0.00, 0.00
205, 120382.53, -187500.02, 187500.00, 47410.95, -187500.02, 187500.00, -187500.02, -187500.02, 0.00, 0.00, 0.00
206, 118918.52, -187500.02, 187500.00, 46078.19, -187500.02, 187500.00, -187500.02, -187500.02, 0.00, 0.00, 0.00
207, 120046.55, -187500.02, 187500.00, 47094.48, -187500.02, 187500.00, -187500.02, -187500.02, 0.00, 0.00, 0.00
208, 121596.15, -187500.02, 187500.00, 48561.69, -187500.02, 187500.00, -187500.02, -187500.02, 0.00, 0.00, 0.00
209, 120679.68, -187500.02, 187500.00, 47801.13, -187500.02, 187500.00, -187500.02, -187500.02, 0.00, 0.00, 0.00
210, 118925.13, -187500.02, 187500.00, 46212.68, -187500.02, 187500.00, -187500.02, -187500.02, 0.00, 0.00, 0.00
211, 119603.33, -187500.02, 187500.00, 46812.91, -187500.02, 187500.00, -187500.02, -187500.02, 0.00, 0.00, 0.00
212, 121401.02, -187500.02, 187500.00, 48495.39, -187500.02, 187500.00, -187500.02, -187500.02, 0.00, 0.00, 0.00
213, 120911.29, -187500.02, 187500.00, 48121.38, -187500.02, 187500.00, -187500.02, -187500.02, 0.00, 0.00, 0.00
214, 119033.48, -187500.02, 187500.00, 46428.77, -187500.02, 187500.00, -187500.02, -187500.02, 0.00, 0.00, 0.00
215, 119240.56, -187500.02, 187500.00, 46596.90, -187500.02, 187500.00, -187500.02, -187500.02, 0.00, 0.00, 0.00
216, 121106.40, -187500.02, 187500.00, 48322.19, -187500.02, 187500.00, -187500.02, -187500.02, 0.00, 0.00, 0.00
217, 121130.94, -187500.02, 187500.00, 48418.73, -187500.02, 187500.00, -187500.02, -187500.02, 0.00, 0.00, 0.00
218, 119256.81, -187500.02, 187500.00, 46743.06, -187500.02, 187500.00, -187500.02, -187500.02, 0.00, 0.00, 0.00
219, 118914.41, -187500.02, 187500.00, 46412.08, -187500.02, 187500.00, -187500.02, -187500.02, 0.00, 0.00, 0.00
220, 120752.26, -187500.02, 187500.00, 48102.59, -187500.02, 187500.00, -187500.02, -187500.02, 0.00, 0.00, 0.00
221, 121286.51, -187500.02, 187500.00, 48666.47, -187500.02, 187500.00, -187500.02, -187500.02, 0.00, 0.00, 0.00
222, 119521.10, -187500.02, 187500.00, 47102.25, -187500.02, 187500.00, -187500.02, -187500.02, 0.00, 0.00, 0.00
223, 118684.74, -187500.02, 187500.00, 46324.61, -187500.02, 187500.00, -187500.02, -187500.02, 0.00, 0.00, 0.00
224, 120336.87, -187500.02, 187500.00, 47836.55, -187500.02, 187500.00, -187500.02, -187500.02, 0.00, 0.00, 0.00
225, 121308.12, -187500.02, 187500.00, 48791.73, -187500.02, 187500.00, -187500.02, -187500.02, 0.00, 0.00, 0.00
226, 119796.59, -187500.02, 187500.00, 47469.23, -187500.02, 187500.00, -187500.02, -187500.02, 0.00, 0.00, 0.00
227, 118574.23, -187500.02, 187500.00, 46350.50, -187500.02, 187500.00, -187500.02, -187500.02, 0.00, 0.00, 0.00
228, 119917.33, -187500.02, 187500.00, 47565.25, -187500.02, 187500.00, -187500.02, -187500.02, 0.00, 0.00, 0.00
229, 121265.97, -187500.02, 187500.00, 48851.77, -187500.02, 187500.00, -187500.02, -187500.02, 0.00, 0.00, 0.00
230, 120083.40, -187500.02, 187500.00, 47833.80, -187500.02, 187500.00, -187500.02, -187500.02, 0.00, 0.00, 0.00
231, 118473.27, -187500.02, 187500.00, 46360.94, -187500.02, 187500.00, -187500.02, -187500.02, 0.00, 0.00, 0.00
232, 119465.16, -187500.02, 187500.00, 47250.16, -187500.02, 187500.00, -187500.02, -187500.02, 0.00, 0.00, 0.00
233, 121083.44, -187500.02, 187500.00, 48768.62, -187500.02, 187500.00, -187500.02, -187500.02, 0.00, 0.00, 0.00
234, 120340.00, -187500.02, 187500.00, 48158.17, -187500.02, 187500.00, -187500.02, -187500.02, 0.00, 0.00, 0.00
235, 118559.51, -187500.02, 187500.00, 46542.72, -187500.02, 187500.00, -187500.02, -187500.02, 0.00, 0.00, 0.00
236, 119063.07, -187500.02, 187500.00, 46980.04, -187500.02, 187500.00, -187500.02, -187500.02, 0.00, 0.00, 0.00
237, 120861.76, -187500.02, 187500.00, 48649.71, -187500.02, 187500.00, -187500.02, -187500.02, 0.00, 0.00, 0.00
238, 120600.02, -187500.02, 187500.00, 48482.14, -187500.02, 187500.00, -187500.02, -187500.02, 0.00, 0.00, 0.00
239, 118747.57, -187500.02, 187500.00, 46814.12, -187500.02, 187500.00, -187500.02, -187500.02, 0.00, 0.00, 0.00
240, 118729.58, -187500.02, 187500.00, 46769.13, -187500.02, 187500.00, -187500.02, -187500.02, 0.00, 0.00, 0.00
241, 120593.05, -187500.02, 187500.00, 48483.46, -187500.02, 187500.00, -187500.02, -187500.02, 0.00, 0.00, 0.00
242, 120801.54, -187500.02, 187500.00, 48742.02, -187500.02, 187500.00, -187500.02, -187500.02, 0.00, 0.00, 0.00
243, 118943.55, -187500.02, 187500.00, 47076.08, -187500.02, 187500.00, -187500.02, -187500.02, 0.00, 0.00, 0.00
244, 118431.52, -187500.02, 187500.00, 46585.17, -187500.02, 187500.00, -187500.02, -187500.02, 0.00, 0.00, 0.00
245, 120201.77, -187500.02, 187500.00, 48199.10, -187500.02, 187500.00, -187500.02, -187500.02, 0.00, 0.00, 0.00
246, 120888.84, -187500.02, 187500.00, 48889.95, -187500.02, 187500.00, -187500.02, -187500.02, 0.00, 0.00, 0.00
247, 119210.09, -187500.02, 187500.00, 47399.58, -187500.02, 187500.00, -187500.02, -187500.02, 0.00, 0.00, 0.00
248, 118185.70, -187500.02, 187500.00, 46439.50, -187500.02, 187500.00, -187500.02, -187500.02, 0.00, 0.00, 0.00
249, 119735.88, -187500.02, 187500.00, 47839.39, -187500.02, 187500.00, -187500.02, -187500.02, 0.00, 0.00, 0.00
250, 120893.66, -187500.02, 187500.00, 48956.02, -187500.02, 187500.00, -187500.02, -187500.02, 0.00, 0.00, 0.00
251, 119492.78, -187500.02, 187500.00, 47729.33, -187500.02, 187500.00, -187500.02, -187500.02, 0.00, 0.00, 0.00
252, 118104.78, -187500.02, 187500.00, 46448.51, -187500.02, 187500.00, -187500.02, -187500.02, 0.00, 0.00, 0.00
253, 119319.22, -187500.02, 187500.00, 47535.59, -187500.02, 187500.00, -187500.02, -187500.02, 0.00, 0.00, 0.00
254, 120812.72, -187500.02, 187500.00, 48946.16, -187500.02, 187500.00, -187500.02, -187500.02, 0.00, 0.00, 0.00
255, 119821.75, -187500.02, 187500.00, 48104.66, -187500.02, 187500.00, -187500.02, -187500.02, 0.00, 0.00, 0.00
0, 118112.07, -187500.02, 187500.00, 46542.21, -187500.02, 187500.00, -187500.02, -187500.02, 0.00, 0.00, 0.00
1, 118896.01, -187500.02, 187500.00, 47233.95, -187500.02, 187500.00, -187500.02, -187500.02, 0.00, 0.00, 0.00
2, 120641.13, -187500.02, 187500.00, 48867.64, -187500.02, 187500.00, -187500.02, -187500.02, 0.00, 0.00, 0.00
3, 120083.09, -187500.02, 187500.00, 48432.63, -187500.02, 187500.00, -187500.02, -187500.02, 0.00, 0.00, 0.00
4, 118216.23, -187500.02, 187500.00, 46744.65, -187500.02, 187500.00, -187500.02, -187500.02, 0.00, 0.00, 0.00
5, 118519.47, -187500.02, 187500.00, 47000.80, -187500.02, 187500.00, -187500.02, -187500.02, 0.00, 0.00, 0.00
6, 120357.34, -187500.02, 187500.00, 48704.54, -187500.02, 187500.00, -187500.02, -187500.02, 0.00, 0.00, 0.00
7, 120281.55, -187500.02, 187500.00, 48708.05, -187500.02, 187500.00, -187500.02, -187500.02, 0.00, 0.00, 0.00
8, 118394.59, -187500.02, 187500.00, 47011.48, -187500.02, 187500.00, -187500.02, -187500.02, 0.00, 0.00, 0.00
9, 118170.72, -187500.02, 187500.00, 46785.95, -187500.02, 187500.00, -187500.02, -187500.02, 0.00, 0.00, 0.00
10, 119995.36, -187500.02, 187500.00, 48467.30, -187500.02, 187500.00, -187500.02, -187500.02, 0.00, 0.00, 0.00
11, 120381.98, -187500.02, 187500.00, 48893.72, -187500.02, 187500.00, -187500.02, -187500.02, 0.00, 0.00, 0.00
12, 118585.30, -187500.02, 187500.00, 47295.29, -187500.02, 187500.00, -187500.02, -187500.02, 0.00, 0.00, 0.00
13, 117835.40, -187500.02, 187500.00, 46591.23, -187500.02, 187500.00, -187500.02, -187500.02, 0.00, 0.00, 0.00
14, 119534.20, -187500.02, 187500.00, 48144.74, -187500.02, 187500.00, -187500.02, -187500.02, 0.00, 0.00, 0.00
15, 120428.02, -187500.02, 187500.00, 49031.61, -187500.02, 187500.00, -187500.02, -187500.02, 0.00, 0.00, 0.00
16, 118814.85, -187500.02, 187500.00, 47608.14, -187500.02, 187500.00, -187500.02, -187500.02, 0.00, 0.00, 0.00
17, 117633.12, -187500.02, 187500.00, 46517.38, -187500.02, 187500.00, -187500.02, -187500.02, 0.00, 0.00, 0.00
18, 119052.43, -187500.02, 187500.00, 47801.84, -187500.02, 187500.00, -187500.02, -187500.02, 0.00, 0.00, 0.00
19, 120335.17, -187500.02, 187500.00, 49031.19, -187500.02, 187500.00, -187500.02, -187500.02, 0.00, 0.00, 0.00
20, 119058.46, -187500.02, 187500.00, 47922.68, -187500.02, 187500.00, -187500.02, -187500.02, 0.00, 0.00, 0.00
21, 117508.59, -187500.02, 187500.00, 46495.61, -187500.02, 187500.00, -187500.02, -187500.02, 0.00, 0.00, 0.00
22, 118526.58, -187500.02, 187500.00, 47393.34, -187500.02, 187500.00, -187500.02, -187500.02, 0.00, 0.00, 0.00
23, 120121.29, -187500.02, 187500.00, 48891.27, -187500.02, 187500.00, -187500.02, -187500.02, 0.00, 0.00, 0.00
24, 119257.08, -187500.02, 187500.00, 48167.09, -187500.02, 187500.00, -187500.02, -187500.02, 0.00, 0.00, 0.00
25, 117463.04, -187500.02, 187500.00, 46532.51, -187500.02, 187500.00, -187500.02, -187500.02, 0.00, 0.00, 0.00
26, 118057.10, -187500.02, 187500.00, 47048.88, -187500.02, 187500.00, -187500.02, -187500.02, 0.00, 0.00, 0.00
27, 119851.26, -187500.02, 187500.00, 48721.84, -187500.02, 187500.00, -187500.02, -187500.02, 0.00, 0.00, 0.00
28, 119482.72, -187500.02, 187500.00, 48461.35, -187500.02, 187500.00, -187500.02, -187500.02, 0.00, 0.00, 0.00
29, 117571.94, -187500.02, 187500.00, 46732.67, -187500.02, 187500.00, -187500.02, -187500.02, 0.00, 0.00, 0.00
30, 117651.89, -187500.02, 187500.00, 46776.14, -187500.02, 187500.00, -187500.02, -187500.02, 0.00, 0.00, 0.00
31, 119526.13, -187500.02, 187500.00, 48507.91, -187500.02, 187500.00, -187500.02, -187500.02, 0.00, 0.00, 0.00
32, 119665.05, -187500.02, 187500.00, 48709.12, -187500.02, 187500.00, -187500.02, -187500.02, 0.00, 0.00, 0.00
33, 117784.05, -187500.02, 187500.00, 47019.22, -187500.02, 187500.00, -187500.02, -187500.02, 0.00, 0.00, 0.00
34, 117349.31, -187500.02, 187500.00, 46594.00, -187500.02, 187500.00, -187500.02, -187500.02, 0.00, 0.00, 0.00
35, 119126.30, -187500.02, 187500.00, 48215.10, -187500.02, 187500.00, -187500.02, -187500.02, 0.00, 0.00, 0.00
36, 119756.48, -187500.02, 187500.00, 48857.22, -187500.02, 187500.00, -187500.02, -187500.02, 0.00, 0.00, 0.00
37, 118042.55, -187500.02, 187500.00, 47328.57, -187500.02, 187500.00, -187500.02, -187500.02, 0.00, 0.00, 0.00
38, 117149.87, -187500.02, 187500.00, 46485.88, -187500.02, 187500.00, -187500.02, -187500.02, 0.00, 0.00, 0.00
39, 118753.72, -187500.02, 187500.00, 47932.49, -187500.02, 187500.00, -187500.02, -187500.02, 0.00, 0.00, 0.00
40, 119847.88, -187500.02, 187500.00, 48986.84, -187500.02, 187500.00, -187500.02, -187500.02, 0.00, 0.00, 0.00
41, 118400.61, -187500.02, 187500.00, 47707.47, -187500.02, 187500.00, -187500.02, -187500.02, 0.00, 0.00, 0.00
42, 117094.19, -187500.02, 187500.00, 46487.76, -187500.02, 187500.00, -187500.02, -187500.02, 0.00, 0.00, 0.00
43, 118401.05, -187500.02, 187500.00, 47648.57, -187500.02, 187500.00, -187500.02, -187500.02, 0.00, 0.00, 0.00
44, 119830.65, -187500.02, 187500.00, 48989.64, -187500.02, 187500.00, -187500.02, -187500.02, 0.00, 0.00, 0.00
45, 118784.32, -187500.02, 187500.00, 48085.42, -187500.02, 187500.00, -187500.02, -187500.02, 0.00, 0.00, 0.00
46, 117207.47, -187500.02, 187500.00, 46631.62, -187500.02, 187500.00, -187500.02, -187500.02, 0.00, 0.00, 0.00
47, 118160.91, -187500.02, 187500.00, 47468.04, -187500.02, 187500.00, -187500.02, -187500.02, 0.00, 0.00, 0.00
48, 119892.61, -187500.02, 187500.00, 49078.82, -187500.02, 187500.00, -187500.02, -187500.02, 0.00, 0.00, 0.00
49, 119243.02, -187500.02, 187500.00, 48536.90, -187500.02, 187500.00, -187500.02, -187500.02, 0.00, 0.00, 0.00
50, 117462.39, -187500.02, 187500.00, 46910.45, -187500.02, 187500.00, -187500.02, -187500.02, 0.00, 0.00, 0.00
51, 117923.28, -187500.02, 187500.00, 47299.51, -187500.02, 187500.00, -187500.02, -187500.02, 0.00, 0.00, 0.00
52, 119808.01, -187500.02, 187500.00, 49040.80, -187500.02, 187500.00, -187500.02, -187500.02, 0.00, 0.00, 0.00
53, 119653.73, -187500.02, 187500.00, 48962.25, -187500.02, 187500.00, -187500.02, -187500.02, 0.00, 0.00, 0.00
54, 117817.83, -187500.02, 187500.00, 47304.98, -187500.02, 187500.00, -187500.02, -187500.02, 0.00, 0.00, 0.00
55, 117716.55, -187500.02, 187500.00, 47181.60, -187500.02, 187500.00, -187500.02, -187500.02, 0.00, 0.00, 0.00
56, 119605.34, -187500.02, 187500.00, 48914.27, -187500.02, 187500.00, -187500.02, -187500.02, 0.00, 0.00, 0.00
57, 119987.73, -187500.02, 187500.00, 49330.21, -187500.02, 187500.00, -187500.02, -187500.02, 0.00, 0.00, 0.00
58, 118189.20, -187500.02, 187500.00, 47714.67, -187500.02, 187500.00, -187500.02, -187500.02, 0.00, 0.00, 0.00
59, 117599.41, -187500.02, 187500.00, 47148.05, -187500.02, 187500.00, -187500.02, -187500.02, 0.00, 0.00, 0.00
60, 119361.40, -187500.02, 187500.00, 48752.21, -187500.02, 187500.00, -187500.02, -187500.02, 0.00, 0.00, 0.00
61, 120167.73, -187500.02, 187500.00, 49551.16, -187500.02, 187500.00, -187500.02, -187500.02, 0.00, 0.00, 0.00
62, 118550.05, -187500.02, 187500.00, 48119.68, -187500.02, 187500.00, -187500.02, -187500.02, 0.00, 0.00, 0.00
63, 117478.98, -187500.02, 187500.00, 47125.14, -187500.02, 187500.00, -187500.02, -187500.02, 0.00, 0.00, 0.00
64, 118980.05, -187500.02, 187500.00, 48485.94, -187500.02, 187500.00, -187500.02, -187500.02, 0.00, 0.00, 0.00
65, 120194.22, -187500.02, 187500.00, 49655.20, -187500.02, 187500.00, -187500.02, -187500.02, 0.00, 0.00, 0.00
66, 118889.17, -187500.02, 187500.00, 48524.20, -187500.02, 187500.00, -187500.02, -187500.02, 0.00, 0.00, 0.00
67, 117427.03, -187500.02, 187500.00, 47186.83, -187500.02, 187500.00, -187500.02, -187500.02, 0.00, 0.00, 0.00
68, 118541.09, -187500.02, 187500.00, 48186.85, -187500.02, 187500.00, -187500.02, -187500.02, 0.00, 0.00, 0.00
69, 120096.95, -187500.02, 187500.00, 49656.28, -187500.02, 187500.00, -187500.02, -187500.02, 0.00, 0.00, 0.00
70, 119181.98, -187500.02, 187500.00, 48887.69, -187500.02, 187500.00, -187500.02, -187500.02, 0.00, 0.00, 0.00
71, 117445.65, -187500.02, 187500.00, 47306.19, -187500.02, 187500.00, -187500.02, -187500.02, 0.00, 0.00, 0.00
72, 118152.88, -187500.02, 187500.00, 47931.82, -187500.02, 187500.00, -187500.02, -187500.02, 0.00, 0.00, 0.00
73, 119933.38, -187500.02, 187500.00, 49600.62, -187500.02, 187500.00, -187500.02, -187500.02, 0.00, 0.00, 0.00
74, 119433.75, -187500.02, 187500.00, 49215.93, -187500.02, 187500.00, -187500.02, -187500.02, 0.00, 0.00, 0.00
75, 117559.24, -187500.02, 187500.00, 47517.19, -187500.02, 187500.00, -187500.02, -187500.02, 0.00, 0.00, 0.00
76, 117773.10, -187500.02, 187500.00, 47686.51, -187500.02, 187500.00, -187500.02, -187500.02, 0.00, 0.00, 0.00
77, 119657.51, -187500.02, 187500.00, 49430.68, -187500.02, 187500.00, -187500.02, -187500.02, 0.00, 0.00, 0.00
78, 119647.45, -187500.02, 187500.00, 49487.66, -187500.02, 187500.00, -187500.02, -187500.02, 0.00, 0.00, 0.00
79, 117753.41, -187500.02, 187500.00, 47775.60, -187500.02, 187500.00, -187500.02, -187500.02, 0.00, 0.00, 0.00
80, 117457.41, -187500.02, 187500.00, 47475.06, -187500.02, 187500.00, -187500.02, -187500.02, 0.00, 0.00, 0.00
81, 119305.74, -187500.02, 187500.00, 49168.41, -187500.02, 187500.00, -187500.02, -187500.02, 0.00, 0.00, 0.00
82, 119802.40, -187500.02, 187500.00, 49681.80, -187500.02, 187500.00, -187500.02, -187500.02, 0.00, 0.00, 0.00
83, 118042.17, -187500.02, 187500.00, 48097.11, -187500.02, 187500.00, -187500.02, -187500.02, 0.00, 0.00, 0.00
84, 117264.13, -187500.02, 187500.00, 47352.79, -187500.02, 187500.00, -187500.02, -187500.02, 0.00, 0.00, 0.00
85, 118949.52, -187500.02, 187500.00, 48875.20, -187500.02, 187500.00, -187500.02, -187500.02, 0.00, 0.00, 0.00
86, 119933.47, -187500.02, 187500.00, 49823.82, -187500.02, 187500.00, -187500.02, -187500.02, 0.00, 0.00, 0.00
87, 118440.62, -187500.02, 187500.00, 48493.20, -187500.02, 187500.00, -187500.02, -187500.02, 0.00, 0.00, 0.00
88, 117236.70, -187500.02, 187500.00, 47363.14, -187500.02, 187500.00, -187500.02, -187500.02, 0.00, 0.00, 0.00
89, 118658.34, -187500.02, 187500.00, 48636.68, -187500.02, 187500.00, -187500.02, -187500.02, 0.00, 0.00, 0.00
90, 120022.02, -187500.02, 187500.00, 49922.30, -187500.02, 187500.00, -187500.02, -187500.02, 0.00, 0.00, 0.00
91, 118847.40, -187500.02, 187500.00, 48888.67, -187500.02, 187500.00, -187500.02, -187500.02, 0.00, 0.00, 0.00
92, 117280.49, -187500.02, 187500.00, 47433.20, -187500.02, 187500.00, -187500.02, -187500.02, 0.00, 0.00, 0.00
93, 118279.75, -187500.02, 187500.00, 48309.54, -187500.02, 187500.00, -187500.02, -187500.02, 0.00, 0.00, 0.00
94, 119921.64, -187500.02, 187500.00, 49836.34, -187500.02, 187500.00, -187500.02, -187500.02, 0.00, 0.00, 0.00
95, 119203.95, -187500.02, 187500.00, 49230.23, -187500.02, 187500.00, -187500.02, -187500.02, 0.00, 0.00, 0.00
96, 117404.16, -187500.02, 187500.00, 47566.79, -187500.02, 187500.00, -187500.02, -187500.02, 0.00, 0.00, 0.00
97, 117898.83, -187500.02, 187500.00, 47967.54, -187500.02, 187500.00, -187500.02, -187500.02, 0.00, 0.00, 0.00
98, 119709.66, -187500.02, 187500.00, 49630.73, -187500.02, 187500.00, -187500.02, -187500.02, 0.00, 0.00, 0.00
99, 119434.11, -187500.02, 187500.00, 49426.37, -187500.02, 187500.00, -187500.02, -187500.02, 0.00, 0.00, 0.00
100, 117537.12, -187500.02, 187500.00, 47684.90, -187500.02, 187500.00, -187500.02, -187500.02, 0.00, 0.00, 0.00
101, 117540.58, -187500.02, 187500.00, 47639.12, -187500.02, 187500.00, -187500.02, -187500.02, 0.00, 0.00, 0.00
102, 119359.61, -187500.02, 187500.00, 49292.93, -187500.02, 187500.00, -187500.02, -187500.02, 0.00, 0.00, 0.00
103, 119540.01, -187500.02, 187500.00, 49503.39, -187500.02, 187500.00, -187500.02, -187500.02, 0.00, 0.00, 0.00
104, 117654.05, -187500.02, 187500.00, 47780.52, -187500.02, 187500.00, -187500.02, -187500.02, 0.00, 0.00, 0.00
105, 117095.06, -187500.02, 187500.00, 47213.21, -187500.02, 187500.00, -187500.02, -187500.02, 0.00, 0.00, 0.00
106, 118845.52, -187500.02, 187500.00, 48789.52, -187500.02, 187500.00, -187500.02, -187500.02, 0.00, 0.00, 0.00
107, 119521.79, -187500.02, 187500.00, 49453.66, -187500.02, 187500.00, -187500.02, -187500.02, 0.00, 0.00, 0.00
108, 117770.80, -187500.02, 187500.00, 47867.91, -187500.02, 187500.00, -187500.02, -187500.02, 0.00, 0.00, 0.00
109, 116675.19, -187500.02, 187500.00, 46804.62, -187500.02, 187500.00, -187500.02, -187500.02, 0.00, 0.00, 0.00
110, 118187.28, -187500.02, 187500.00, 48140.31, -187500.02, 187500.00, -187500.02, -187500.02, 0.00, 0.00, 0.00
111, 119321.03, -187500.02, 187500.00, 49216.59, -187500.02, 187500.00, -187500.02, -187500.02, 0.00, 0.00, 0.00
112, 117881.42, -187500.02, 187500.00, 47931.97, -187500.02, 187500.00, -187500.02, -187500.02, 0.00, 0.00, 0.00
113, 116425.96, -187500.02, 187500.00, 46555.22, -187500.02, 187500.00, -187500.02, -187500.02, 0.00, 0.00, 0.00
114, 117630.97, -187500.02, 187500.00, 47602.89, -187500.02, 187500.00, -187500.02, -187500.02, 0.00, 0.00, 0.00
115, 119186.18, -187500.02, 187500.00, 49054.50, -187500.02, 187500.00, -187500.02, -187500.02, 0.00, 0.00, 0.00
116, 118176.82, -187500.02, 187500.00, 48178.76, -187500.02, 187500.00, -187500.02, -187500.02, 0.00, 0.00, 0.00
117, 116432.47, -187500.02, 187500.00, 46555.04, -187500.02, 187500.00, -187500.02, -187500.02, 0.00, 0.00, 0.00
118, 117231.56, -187500.02, 187500.00, 47234.84, -187500.02, 187500.00, -187500.02, -187500.02, 0.00, 0.00, 0.00
119, 119029.14, -187500.02, 187500.00, 48899.78, -187500.02, 187500.00, -187500.02, -187500.02, 0.00, 0.00, 0.00
120, 118475.77, -187500.02, 187500.00, 48451.05, -187500.02, 187500.00, -187500.02, -187500.02, 0.00, 0.00, 0.00
121, 116583.45, -187500.02, 187500.00, 46714.18, -187500.02, 187500.00, -187500.02, -187500.02, 0.00, 0.00, 0.00
122, 116879.26, -187500.02, 187500.00, 46941.28, -187500.02, 187500.00, -187500.02, -187500.02, 0.00, 0.00, 0.00
123, 118775.83, -187500.02, 187500.00, 48691.89, -187500.02, 187500.00, -187500.02, -187500.02, 0.00, 0.00, 0.00
124, 118738.63, -187500.02, 187500.00, 48727.41, -187500.02, 187500.00, -187500.02, -187500.02, 0.00, 0.00, 0.00
125, 116803.93, -187500.02, 187500.00, 46972.48, -187500.02, 187500.00, -187500.02, -187500.02, 0.00, 0.00, 0.00
126, 116529.27, -187500.02, 187500.00, 46682.29, -187500.02, 187500.00, -187500.02, -187500.02, 0.00, 0.00, 0.00
127, 118423.34, -187500.02, 187500.00, 48423.76, -187500.02, 187500.00, -187500.02, -187500.02, 0.00, 0.00, 0.00
128, 118886.13, -187500.02, 187500.00, 48922.07, -187500.02, 187500.00, -187500.02, -187500.02, 0.00, 0.00, 0.00
129, 117055.68, -187500.02, 187500.00, 47279.55, -187500.02, 187500.00, -187500.02, -187500.02, 0.00, 0.00, 0.00
130, 116269.81, -187500.02, 187500.00, 46524.80, -187500.02, 187500.00, -187500.02, -187500.02, 0.00, 0.00, 0.00
131, 117992.53, -187500.02, 187500.00, 48090.11, -187500.02, 187500.00, -187500.02, -187500.02, 0.00, 0.00, 0.00
132, 118960.25, -187500.02, 187500.00, 49042.70, -187500.02, 187500.00, -187500.02, -187500.02, 0.00, 0.00, 0.00
133, 117374.39, -187500.02, 187500.00, 47635.95, -187500.02, 187500.00, -187500.02, -187500.02, 0.00, 0.00, 0.00
134, 116166.35, -187500.02, 187500.00, 46502.54, -187500.02, 187500.00, -187500.02, -187500.02, 0.00, 0.00, 0.00
135, 117592.59, -187500.02, 187500.00, 47778.66, -187500.02, 187500.00, -187500.02, -187500.02, 0.00, 0.00, 0.00
136, 118928.95, -187500.02, 187500.00, 49049.74, -187500.02, 187500.00, -187500.02, -187500.02, 0.00, 0.00, 0.00
137, 117686.13, -187500.02, 187500.00, 47961.16, -187500.02, 187500.00, -187500.02, -187500.02, 0.00, 0.00, 0.00
138, 116112.86, -187500.02, 187500.00, 46497.95, -187500.02, 187500.00, -187500.02, -187500.02, 0.00, 0.00, 0.00
139, 117156.44, -187500.02, 187500.00, 47412.32, -187500.02, 187500.00, -187500.02, -187500.02, 0.00, 0.00, 0.00
140, 118856.42, -187500.02, 187500.00, 49008.19, -187500.02, 187500.00, -187500.02, -187500.02, 0.00, 0.00, 0.00
141, 118070.23, -187500.02, 187500.00, 48351.80, -187500.02, 187500.00, -187500.02, -187500.02, 0.00, 0.00, 0.00
142, 116246.63, -187500.02, 187500.00, 46671.58, -187500.02, 187500.00, -187500.02, -187500.02, 0.00, 0.00, 0.00
143, 116844.77, -187500.02, 187500.00, 47174.16, -187500.02, 187500.00, -187500.02, -187500.02, 0.00, 0.00, 0.00
144, 118714.98, -187500.02, 187500.00, 48906.93, -187500.02, 187500.00, -187500.02, -187500.02, 0.00, 0.00, 0.00
145, 118386.08, -187500.02, 187500.00, 48666.47, -187500.02, 187500.00, -187500.02, -187500.02, 0.00, 0.00, 0.00
146, 116483.85, -187500.02, 187500.00, 46923.44, -187500.02, 187500.00, -187500.02, -187500.02, 0.00, 0.00, 0.00
147, 116566.89, -187500.02, 187500.00, 46949.99, -187500.02, 187500.00, -187500.02, -187500.02, 0.00, 0.00, 0.00
148, 118526.11, -187500.02, 187500.00, 48747.92, -187500.02, 187500.00, -187500.02, -187500.02, 0.00, 0.00, 0.00
149, 118705.71, -187500.02, 187500.00, 48969.79, -187500.02, 187500.00, -187500.02, -187500.02, 0.00, 0.00, 0.00
150, 116800.06, -187500.02, 187500.00, 47226.64, -187500.02, 187500.00, -187500.02, -187500.02, 0.00, 0.00, 0.00
151, 116339.89, -187500.02, 187500.00, 46747.75, -187500.02, 187500.00, -187500.02, -187500.02, 0.00, 0.00, 0.00
152, 118238.29, -187500.02, 187500.00, 48470.67, -187500.02, 187500.00, -187500.02, -187500.02, 0.00, 0.00, 0.00
153, 118939.53, -187500.02, 187500.00, 49167.18, -187500.02, 187500.00, -187500.02, -187500.02, 0.00, 0.00, 0.00
154, 117215.85, -187500.02, 187500.00, 47608.86, -187500.02, 187500.00, -187500.02, -187500.02, 0.00, 0.00, 0.00
155, 116271.55, -187500.02, 187500.00, 46693.55, -187500.02, 187500.00, -187500.02, -187500.02, 0.00, 0.00, 0.00
156, 117923.55, -187500.02, 187500.00, 48166.53, -187500.02, 187500.00, -187500.02, -187500.02, 0.00, 0.00, 0.00
157, 119086.34, -187500.02, 187500.00, 49273.17, -187500.02, 187500.00, -187500.02, -187500.02, 0.00, 0.00, 0.00
158, 117661.59, -187500.02, 187500.00, 48003.88, -187500.02, 187500.00, -187500.02, -187500.02, 0.00, 0.00, 0.00
159, 116337.12, -187500.02, 187500.00, 46756.96, -187500.02, 187500.00, -187500.02, -187500.02, 0.00, 0.00, 0.00
160, 117649.74, -187500.02, 187500.00, 47914.52, -187500.02, 187500.00, -187500.02, -187500.02, 0.00, 0.00, 0.00
161, 119160.37, -187500.02, 187500.00, 49330.48, -187500.02, 187500.00, -187500.02, -187500.02, 0.00, 0.00, 0.00
162, 118097.31, -187500.02, 187500.00, 48399.48, -187500.02, 187500.00, -187500.02, -187500.02, 0.00, 0.00, 0.00
163, 116422.79, -187500.02, 187500.00, 46837.50, -187500.02, 187500.00, -187500.02, -187500.02, 0.00, 0.00, 0.00
164, 117313.82, -187500.02, 187500.00, 47604.52, -187500.02, 187500.00, -187500.02, -187500.02, 0.00, 0.00, 0.00
165, 119103.75, -187500.02, 187500.00, 49268.96, -187500.02, 187500.00, -187500.02, -187500.02, 0.00, 0.00, 0.00
166, 118512.92, -187500.02, 187500.00, 48786.57, -187500.02, 187500.00, -187500.02, -187500.02, 0.00, 0.00, 0.00
167, 116618.28, -187500.02, 187500.00, 47040.72, -187500.02, 187500.00, -187500.02, -187500.02, 0.00, 0.00, 0.00
168, 116986.14, -187500.02, 187500.00, 47326.87, -187500.02, 187500.00, -187500.02, -187500.02, 0.00, 0.00, 0.00
169, 118909.17, -187500.02, 187500.00, 49100.43, -187500.02, 187500.00, -187500.02, -187500.02, 0.00, 0.00, 0.00
170, 118824.40, -187500.02, 187500.00, 49089.66, -187500.02, 187500.00, -187500.02, -187500.02, 0.00, 0.00, 0.00
171, 116907.30, -187500.02, 187500.00, 47345.04, -187500.02, 187500.00, -187500.02, -187500.02, 0.00, 0.00, 0.00
172, 116722.55, -187500.02, 187500.00, 47126.44, -187500.02, 187500.00, -187500.02, -187500.02, 0.00, 0.00, 0.00
173, 118678.13, -187500.02, 187500.00, 48920.17, -187500.02, 187500.00, -187500.02, -187500.02, 0.00, 0.00, 0.00
174, 119069.95, -187500.02, 187500.00, 49346.59, -187500.02, 187500.00, -187500.02, -187500.02, 0.00, 0.00, 0.00
175, 117180.27, -187500.02, 187500.00, 47637.89, -187500.02, 187500.00, -187500.02, -187500.02, 0.00, 0.00, 0.00
176, 116504.28, -187500.02, 187500.00, 46980.08, -187500.02, 187500.00, -187500.02, -187500.02, 0.00, 0.00, 0.00
177, 118324.23, -187500.02, 187500.00, 48638.13, -187500.02, 187500.00, -187500.02, -187500.02, 0.00, 0.00, 0.00
178, 119219.13, -187500.02, 187500.00, 49527.39, -187500.02, 187500.00, -187500.02, -187500.02, 0.00, 0.00, 0.00
179, 117562.48, -187500.02, 187500.00, 48054.04, -187500.02, 187500.00, -187500.02, -187500.02, 0.00, 0.00, 0.00
180, 116418.68, -187500.02, 187500.00, 46979.43, -187500.02, 187500.00, -187500.02, -187500.02, 0.00, 0.00, 0.00
181, 117943.13, -187500.02, 187500.00, 48351.36, -187500.02, 187500.00, -187500.02, -187500.02, 0.00, 0.00, 0.00
182, 119273.69, -187500.02, 187500.00, 49626.53, -187500.02, 187500.00, -187500.02, -187500.02, 0.00, 0.00, 0.00
183, 117989.47, -187500.02, 187500.00, 48504.27, -187500.02, 187500.00, -187500.02, -187500.02, 0.00, 0.00, 0.00
184, 116464.09, -187500.02, 187500.00, 47081.78, -187500.02, 187500.00, -187500.02, -187500.02, 0.00, 0.00, 0.00
185, 117631.88, -187500.02, 187500.00, 48111.46, -187500.02, 187500.00, -187500.02, -187500.02, 0.00, 0.00, 0.00
186, 119287.81, -187500.02, 187500.00, 49664.81, -187500.02, 187500.00, -187500.02, -187500.02, 0.00, 0.00, 0.00
187, 118425.23, -187500.02, 187500.00, 48928.04, -187500.02, 187500.00, -187500.02, -187500.02, 0.00, 0.00, 0.00
188, 116638.30, -187500.02, 187500.00, 47270.56, -187500.02, 187500.00, -187500.02, -187500.02, 0.00, 0.00, 0.00
189, 117299.54, -187500.02, 187500.00, 47821.91, -187500.02, 187500.00, -187500.02, -187500.02, 0.00, 0.00, 0.00
190, 119185.48, -187500.02, 187500.00, 49571.56, -187500.02, 187500.00, -187500.02, -187500.02, 0.00, 0.00, 0.00
191, 118818.02, -187500.02, 187500.00, 49305.62, -187500.02, 187500.00, -187500.02, -187500.02, 0.00, 0.00, 0.00
192, 116891.02, -187500.02, 187500.00, 47543.90, -187500.02, 187500.00, -187500.02, -187500.02, 0.00, 0.00, 0.00
193, 117093.52, -187500.02, 187500.00, 47693.10, -187500.02, 187500.00, -187500.02, -187500.02, 0.00, 0.00, 0.00
194, 119064.23, -187500.02, 187500.00, 49514.16, -187500.02, 187500.00, -187500.02, -187500.02, 0.00, 0.00, 0.00
195, 119175.20, -187500.02, 187500.00, 49687.95, -187500.02, 187500.00, -187500.02, -187500.02, 0.00, 0.00, 0.00
196, 117268.71, -187500.02, 187500.00, 47964.18, -187500.02, 187500.00, -187500.02, -187500.02, 0.00, 0.00, 0.00
197, 116876.64, -187500.02, 187500.00, 47565.83, -187500.02, 187500.00, -187500.02, -187500.02, 0.00, 0.00, 0.00
198, 118758.03, -187500.02, 187500.00, 49291.07, -187500.02, 187500.00, -187500.02, -187500.02, 0.00, 0.00, 0.00
199, 119374.83, -187500.02, 187500.00, 49930.46, -187500.02, 187500.00, -187500.02, -187500.02, 0.00, 0.00, 0.00
200, 117587.96, -187500.02, 187500.00, 48329.34, -187500.02, 187500.00, -187500.02, -187500.02, 0.00, 0.00, 0.00
201, 116691.66, -187500.02, 187500.00, 47474.75, -187500.02, 187500.00, -187500.02, -187500.02, 0.00, 0.00, 0.00
202, 118414.64, -187500.02, 187500.00, 49044.04, -187500.02, 187500.00, -187500.02, -187500.02, 0.00, 0.00, 0.00
203, 119477.24, -187500.02, 187500.00, 50083.95, -187500.02, 187500.00, -187500.02, -187500.02, 0.00, 0.00, 0.00
204, 117946.55, -187500.02, 187500.00, 48729.57, -187500.02, 187500.00, -187500.02, -187500.02, 0.00, 0.00, 0.00
205, 116593.58, -187500.02, 187500.00, 47463.61, -187500.02, 187500.00, -187500.02, -187500.02, 0.00, 0.00, 0.00
206, 117968.66, -187500.02, 187500.00, 48699.44, -187500.02, 187500.00, -187500.02, -187500.02, 0.00, 0.00, 0.00
207, 119428.72, -187500.02, 187500.00, 50095.40, -187500.02, 187500.00, -187500.02, -187500.02, 0.00, 0.00, 0.00
208, 118250.40, -187500.02, 187500.00, 49077.23, -187500.02, 187500.00, -187500.02, -187500.02, 0.00, 0.00, 0.00
209, 116585.53, -187500.02, 187500.00, 47542.74, -187500.02, 187500.00, -187500.02, -187500.02, 0.00, 0.00, 0.00
210, 117550.46, -187500.02, 187500.00, 48399.15, -187500.02, 187500.00, -187500.02, -187500.02, 0.00, 0.00, 0.00
211, 119302.09, -187500.02, 187500.00, 50059.84, -187500.02, 187500.00, -187500.02, -187500.02, 0.00, 0.00, 0.00
212, 118569.14, -187500.02, 187500.00, 49467.52, -187500.02, 187500.00, -187500.02, -187500.02, 0.00, 0.00, 0.00
213, 116689.52, -187500.02, 187500.00, 47753.23, -187500.02, 187500.00, -187500.02, -187500.02, 0.00, 0.00, 0.00
214, 117189.90, -187500.02, 187500.00, 48188.13, -187500.02, 187500.00, -187500.02, -187500.02, 0.00, 0.00, 0.00
215, 119100.91, -187500.02, 187500.00, 49983.26, -187500.02, 187500.00, -187500.02, -187500.02, 0.00, 0.00, 0.00
216, 118858.13, -187500.02, 187500.00, 49841.13, -187500.02, 187500.00, -187500.02, -187500.02, 0.00, 0.00, 0.00
217, 116897.52, -187500.02, 187500.00, 48054.21, -187500.02, 187500.00, -187500.02, -187500.02, 0.00, 0.00, 0.00
218, 116818.10, -187500.02, 187500.00, 47945.07, -187500.02, 187500.00, -187500.02, -187500.02, 0.00, 0.00, 0.00
219, 118748.73, -187500.02, 187500.00, 49737.64, -187500.02, 187500.00, -187500.02, -187500.02, 0.00, 0.00, 0.00
220, 119041.95, -187500.02, 187500.00, 50088.89, -187500.02, 187500.00, -187500.02, -187500.02, 0.00, 0.00, 0.00
221, 117156.13, -187500.02, 187500.00, 48388.33, -187500.02, 187500.00, -187500.02, -187500.02, 0.00, 0.00, 0.00
222, 116555.80, -187500.02, 187500.00, 47798.11, -187500.02, 187500.00, -187500.02, -187500.02, 0.00, 0.00, 0.00
223, 118397.81, -187500.02, 187500.00, 49484.61, -187500.02, 187500.00, -187500.02, -187500.02, 0.00, 0.00, 0.00
224, 119199.86, -187500.02, 187500.00, 50291.78, -187500.02, 187500.00, -187500.02, -187500.02, 0.00, 0.00, 0.00
225, 117459.24, -187500.02, 187500.00, 48723.63, -187500.02, 187500.00, -187500.02, -187500.02, 0.00, 0.00, 0.00
226, 116368.09, -187500.02, 187500.00, 47679.67, -187500.02, 187500.00, -187500.02, -187500.02, 0.00, 0.00, 0.00
227, 117973.48, -187500.02, 187500.00, 49132.84, -187500.02, 187500.00, -187500.02, -187500.02, 0.00, 0.00, 0.00
228, 119238.64, -187500.02, 187500.00, 50359.84, -187500.02, 187500.00, -187500.02, -187500.02, 0.00, 0.00, 0.00
229, 117849.95, -187500.02, 187500.00, 49136.46, -187500.02, 187500.00, -187500.02, -187500.02, 0.00, 0.00, 0.00
230, 116367.20, -187500.02, 187500.00, 47747.08, -187500.02, 187500.00, -187500.02, -187500.02, 0.00, 0.00, 0.00
231, 117587.85, -187500.02, 187500.00, 48836.08, -187500.02, 187500.00, -187500.02, -187500.02, 0.00, 0.00, 0.00
232, 119174.42, -187500.02, 187500.00, 50345.36, -187500.02, 187500.00, -187500.02, -187500.02, 0.00, 0.00, 0.00
233, 118182.05, -187500.02, 187500.00, 49494.76, -187500.02, 187500.00, -187500.02, -187500.02, 0.00, 0.00, 0.00
234, 116410.50, -187500.02, 187500.00, 47847.21, -187500.02, 187500.00, -187500.02, -187500.02, 0.00, 0.00, 0.00
235, 117219.72, -187500.02, 187500.00, 48548.99, -187500.02, 187500.00, -187500.02, -187500.02, 0.00, 0.00, 0.00
236, 119055.18, -187500.02, 187500.00, 50271.91, -187500.02, 187500.00, -187500.02, -187500.02, 0.00, 0.00, 0.00
237, 118521.64, -187500.02, 187500.00, 49849.17, -187500.02, 187500.00, -187500.02, -187500.02, 0.00, 0.00, 0.00
238, 116605.88, -187500.02, 187500.00, 48085.66, -187500.02, 187500.00, -187500.02, -187500.02, 0.00, 0.00, 0.00
239, 116892.27, -187500.02, 187500.00, 48305.20, -187500.02, 187500.00, -187500.02, -187500.02, 0.00, 0.00, 0.00
240, 118843.70, -187500.02, 187500.00, 50122.00, -187500.02, 187500.00, -187500.02, -187500.02, 0.00, 0.00, 0.00
241, 118798.18, -187500.02, 187500.00, 50152.75, -187500.02, 187500.00, -187500.02, -187500.02, 0.00, 0.00, 0.00
242, 116852.08, -187500.02, 187500.00, 48377.67, -187500.02, 187500.00, -187500.02, -187500.02, 0.00, 0.00, 0.00
243, 116616.00, -187500.02, 187500.00, 48125.05, -187500.02, 187500.00, -187500.02, -187500.02, 0.00, 0.00, 0.00
244, 118546.63, -187500.02, 187500.00, 49907.00, -187500.02, 187500.00, -187500.02, -187500.02, 0.00, 0.00, 0.00
245, 119030.21, -187500.02, 187500.00, 50420.28, -187500.02, 187500.00, -187500.02, -187500.02, 0.00, 0.00, 0.00
246, 117226.65, -187500.02, 187500.00, 48792.20, -187500.02, 187500.00, -187500.02, -187500.02, 0.00, 0.00, 0.00
247, 116498.74, -187500.02, 187500.00, 48086.60, -187500.02, 187500.00, -187500.02, -187500.02, 0.00, 0.00, 0.00
248, 118265.38, -187500.02, 187500.00, 49699.91, -187500.02, 187500.00, -187500.02, -187500.02, 0.00, 0.00, 0.00
249, 119206.50, -187500.02, 187500.00, 50626.21, -187500.02, 187500.00, -187500.02, -187500.02, 0.00, 0.00, 0.00
250, 117620.75, -187500.02, 187500.00, 49210.02, -187500.02, 187500.00, -187500.02, -187500.02, 0.00, 0.00, 0.00
251, 116413.23, -187500.02, 187500.00, 48068.61, -187500.02, 187500.00, -187500.02, -187500.02, 0.00, 0.00, 0.00
252, 117917.92, -187500.02, 187500.00, 49430.48, -187500.02, 187500.00, -187500.02, -187500.02, 0.00, 0.00, 0.00
253, 119304.42, -187500.02, 187500.00, 50761.79, -187500.02, 187500.00, -187500.02, -187500.02, 0.00, 0.00, 0.00
254, 118051.83, -187500.02, 187500.00, 49666.02, -187500.02, 187500.00, -187500.02, -187500.02, 0.00, 0.00, 0.00
255, 116516.06, -187500.02, 187500.00, 48238.95, -187500.02, 187500.00, -187500.02, -187500.02, 0.00, 0.00, 0.00
0, 117641.30, -187500.02, 187500.00, 49249.03, -187500.02, 187500.00, -187500.02, -187500.02, 0.00, 0.00, 0.00
1, 119271.23, -187500.02, 187500.00, 50791.27, -187500.02, 187500.00, -187500.02, -187500.02, 0.00, 0.00, 0.00
2, 118437.48, -187500.02, 187500.00, 50089.65, -187500.02, 187500.00, -187500.02, -187500.02, 0.00, 0.00, 0.00
3, 116615.38, -187500.02, 187500.00, 48407.35, -187500.02, 187500.00, -187500.02, -187500.02, 0.00, 0.00, 0.00
4, 117235.05, -187500.02, 187500.00, 48941.22, -187500.02, 187500.00, -187500.02, -187500.02, 0.00, 0.00, 0.00
5, 119076.41, -187500.02, 187500.00, 50661.66, -187500.02, 187500.00, -187500.02, -187500.02, 0.00, 0.00, 0.00
6, 118725.17, -187500.02, 187500.00, 50412.66, -187500.02, 187500.00, -187500.02, -187500.02, 0.00, 0.00, 0.00
7, 116797.85, -187500.02, 187500.00, 48655.79, -187500.02, 187500.00, -187500.02, -187500.02, 0.00, 0.00, 0.00
8, 116862.25, -187500.02, 187500.00, 48680.00, -187500.02, 187500.00, -187500.02, -187500.02, 0.00, 0.00, 0.00
9, 118815.79, -187500.02, 187500.00, 50496.28, -187500.02, 187500.00, -187500.02, -187500.02, 0.00, 0.00, 0.00
10, 118959.96, -187500.02, 187500.00, 50706.96, -187500.02, 187500.00, -187500.02, -187500.02, 0.00, 0.00, 0.00
11, 117044.48, -187500.02, 187500.00, 48976.00, -187500.02, 187500.00, -187500.02, -187500.02, 0.00, 0.00, 0.00
12, 116595.10, -187500.02, 187500.00, 48535.61, -187500.02, 187500.00, -187500.02, -187500.02, 0.00, 0.00, 0.00
13, 118453.67, -187500.02, 187500.00, 50249.69, -187500.02, 187500.00, -187500.02, -187500.02, 0.00, 0.00, 0.00
14, 119091.86, -187500.02, 187500.00, 50907.95, -187500.02, 187500.00, -187500.02, -187500.02, 0.00, 0.00, 0.00
15, 117325.30, -187500.02, 187500.00, 49321.67, -187500.02, 187500.00, -187500.02, -187500.02, 0.00, 0.00, 0.00
16, 116384.14, -187500.02, 187500.00, 48428.94, -187500.02, 187500.00, -187500.02, -187500.02, 0.00, 0.00, 0.00
17, 118034.71, -187500.02, 187500.00, 49935.47, -187500.02, 187500.00, -187500.02, -187500.02, 0.00, 0.00, 0.00
18, 119118.95, -187500.02, 187500.00, 50991.30, -187500.02, 187500.00, -187500.02, -187500.02, 0.00, 0.00, 0.00
19, 117622.27, -187500.02, 187500.00, 49662.63, -187500.02, 187500.00, -187500.02, -187500.02, 0.00, 0.00, 0.00
20, 116269.66, -187500.02, 187500.00, 48400.82, -187500.02, 187500.00, -187500.02, -187500.02, 0.00, 0.00, 0.00
21, 117605.45, -187500.02, 187500.00, 49607.28, -187500.02, 187500.00, -187500.02, -187500.02, 0.00, 0.00, 0.00
22, 119087.84, -187500.02, 187500.00, 51024.25, -187500.02, 187500.00, -187500.02, -187500.02, 0.00, 0.00, 0.00
23, 117956.66, -187500.02, 187500.00, 50044.73, -187500.02, 187500.00, -187500.02, -187500.02, 0.00, 0.00, 0.00
24, 116260.31, -187500.02, 187500.00, 48475.81, -187500.02, 187500.00, -187500.02, -187500.02, 0.00, 0.00, 0.00
25, 117159.97, -187500.02, 187500.00, 49273.01, -187500.02, 187500.00, -187500.02, -187500.02, 0.00, 0.00, 0.00
26, 118887.67, -187500.02, 187500.00, 50899.48, -187500.02, 187500.00, -187500.02, -187500.02, 0.00, 0.00, 0.00
27, 118249.46, -187500.02, 187500.00, 50383.22, -187500.02, 187500.00, -187500.02, -187500.02, 0.00, 0.00, 0.00
28, 116351.55, -187500.02, 187500.00, 48638.76, -187500.02, 187500.00, -187500.02, -187500.02, 0.00, 0.00, 0.00
29, 116757.75, -187500.02, 187500.00, 48974.75, -187500.02, 187500.00, -187500.02, -187500.02, 0.00, 0.00, 0.00
30, 118677.43, -187500.02, 187500.00, 50762.48, -187500.02, 187500.00, -187500.02, -187500.02, 0.00, 0.00, 0.00
31, 118553.41, -187500.02, 187500.00, 50720.44, -187500.02, 187500.00, -187500.02, -187500.02, 0.00, 0.00, 0.00
32, 116607.10, -187500.02, 187500.00, 48941.11, -187500.02, 187500.00, -187500.02, -187500.02, 0.00, 0.00, 0.00
33, 116471.43, -187500.02, 187500.00, 48770.05, -187500.02, 187500.00, -187500.02, -187500.02, 0.00, 0.00, 0.00
34, 118392.90, -187500.02, 187500.00, 50539.21, -187500.02, 187500.00, -187500.02, -187500.02, 0.00, 0.00, 0.00
35, 118764.45, -187500.02, 187500.00, 50946.80, -187500.02, 187500.00, -187500.02, -187500.02, 0.00, 0.00, 0.00
36, 116900.71, -187500.02, 187500.00, 49253.21, -187500.02, 187500.00, -187500.02, -187500.02, 0.00, 0.00, 0.00
37, 116230.37, -187500.02, 187500.00, 48589.20, -187500.02, 187500.00, -187500.02, -187500.02, 0.00, 0.00, 0.00
38, 118047.80, -187500.02, 187500.00, 50245.47, -187500.02, 187500.00, -187500.02, -187500.02, 0.00, 0.00, 0.00
40, 117264.42, -187500.02, 187500.00, 49616.33, -187500.02, 187500.00, -187500.02, -187500.02, 0.00, 0.00, 0.00
41, 116149.61, -187500.02, 187500.00, 48553.20, -187500.02, 187500.00, -187500.02, -187500.02, 0.00, 0.00, 0.00
42, 117731.10, -187500.02, 187500.00, 49984.00, -187500.02, 187500.00, -187500.02, -187500.02, 0.00, 0.00, 0.00
43, 119029.49, -187500.02, 187500.00, 51231.14, -187500.02, 187500.00, -187500.02, -187500.02, 0.00, 0.00, 0.00
44, 117681.39, -187500.02, 187500.00, 50036.14, -187500.02, 187500.00, -187500.02, -187500.02, 0.00, 0.00, 0.00
45, 116174.69, -187500.02, 187500.00, 48622.33, -187500.02, 187500.00, -187500.02, -187500.02, 0.00, 0.00, 0.00
46, 117364.52, -187500.02, 187500.00, 49679.43, -187500.02, 187500.00, -187500.02, -187500.02, 0.00, 0.00, 0.00
47, 118991.61, -187500.02, 187500.00, 51214.42, -187500.02, 187500.00, -187500.02, -187500.02, 0.00, 0.00, 0.00
48, 118055.45, -187500.02, 187500.00, 50408.79, -187500.02, 187500.00, -187500.02, -187500.02, 0.00, 0.00, 0.00
49, 116264.65, -187500.02, 187500.00, 48744.10, -187500.02, 187500.00, -187500.02, -187500.02, 0.00, 0.00, 0.00
50, 117014.26, -187500.02, 187500.00, 49391.90, -187500.02, 187500.00, -187500.02, -187500.02, 0.00, 0.00, 0.00
51, 118850.05, -187500.02, 187500.00, 51106.34, -187500.02, 187500.00, -187500.02, -187500.02, 0.00, 0.00, 0.00
52, 118384.02, -187500.02, 187500.00, 50742.10, -187500.02, 187500.00, -187500.02, -187500.02, 0.00, 0.00, 0.00
53, 116448.83, -187500.02, 187500.00, 48960.51, -187500.02, 187500.00, -187500.02, -187500.02, 0.00, 0.00, 0.00
54, 116656.74, -187500.02, 187500.00, 49108.41, -187500.02, 187500.00, -187500.02, -187500.02, 0.00, 0.00, 0.00
55, 118594.06, -187500.02, 187500.00, 50902.52, -187500.02, 187500.00, -187500.02, -187500.02, 0.00, 0.00, 0.00
56, 118668.73, -187500.02, 187500.00, 51040.05, -187500.02, 187500.00, -187500.02, -187500.02, 0.00, 0.00, 0.00
57, 116738.77, -187500.02, 187500.00, 49279.43, -187500.02, 187500.00, -187500.02, -187500.02, 0.00, 0.00, 0.00
58, 116350.03, -187500.02, 187500.00, 48869.83, -187500.02, 187500.00, -187500.02, -187500.02, 0.00, 0.00, 0.00
59, 118249.93, -187500.02, 187500.00, 50611.19, -187500.02, 187500.00, -187500.02, -187500.02, 0.00, 0.00, 0.00
60, 118836.60, -187500.02, 187500.00, 51218.80, -187500.02, 187500.00, -187500.02, -187500.02, 0.00, 0.00, 0.00
61, 117035.88, -187500.02, 187500.00, 49591.77, -187500.02, 187500.00, -187500.02, -187500.02, 0.00, 0.00, 0.00
62, 116172.05, -187500.02, 187500.00, 48758.77, -187500.02, 187500.00, -187500.02, -187500.02, 0.00, 0.00, 0.00
63, 117906.74, -187500.02, 187500.00, 50334.96, -187500.02, 187500.00, -187500.02, -187500.02, 0.00, 0.00, 0.00
64, 118950.57, -187500.02, 187500.00, 51350.34, -187500.02, 187500.00, -187500.02, -187500.02, 0.00, 0.00, 0.00
65, 117395.02, -187500.02, 187500.00, 49957.06, -187500.02, 187500.00, -187500.02, -187500.02, 0.00, 0.00, 0.00
66, 116083.02, -187500.02, 187500.00, 48714.08, -187500.02, 187500.00, -187500.02, -187500.02, 0.00, 0.00, 0.00
67, 117519.99, -187500.02, 187500.00, 50000.79, -187500.02, 187500.00, -187500.02, -187500.02, 0.00, 0.00, 0.00
68, 119002.09, -187500.02, 187500.00, 51414.06, -187500.02, 187500.00, -187500.02, -187500.02, 0.00, 0.00, 0.00
69, 117803.88, -187500.02, 187500.00, 50362.84, -187500.02, 187500.00, -187500.02, -187500.02, 0.00, 0.00, 0.00
70, 116145.45, -187500.02, 187500.00, 48810.87, -187500.02, 187500.00, -187500.02, -187500.02, 0.00, 0.00, 0.00
71, 117134.83, -187500.02, 187500.00, 49677.09, -187500.02, 187500.00, -187500.02, -187500.02, 0.00, 0.00, 0.00
72, 118859.38, -187500.02, 187500.00, 51293.27, -187500.02, 187500.00, -187500.02, -187500.02, 0.00, 0.00, 0.00
73, 118123.66, -187500.02, 187500.00, 50674.55, -187500.02, 187500.00, -187500.02, -187500.02, 0.00, 0.00, 0.00
74, 116250.88, -187500.02, 187500.00, 48937.82, -187500.02, 187500.00, -187500.02, -187500.02, 0.00, 0.00, 0.00
75, 116748.09, -187500.02, 187500.00, 49347.73, -187500.02, 187500.00, -187500.02, -187500.02, 0.00, 0.00, 0.00
76, 118660.22, -187500.02, 187500.00, 51127.71, -187500.02, 187500.00, -187500.02, -187500.02, 0.00, 0.00, 0.00
77, 118419.02, -187500.02, 187500.00, 50974.11, -187500.02, 187500.00, -187500.02, -187500.02, 0.00, 0.00, 0.00
78, 116448.59, -187500.02, 187500.00, 49166.35, -187500.02, 187500.00, -187500.02, -187500.02, 0.00, 0.00, 0.00
79, 116428.09, -187500.02, 187500.00, 49105.08, -187500.02, 187500.00, -187500.02, -187500.02, 0.00, 0.00, 0.00
80, 118383.62, -187500.02, 187500.00, 50912.04, -187500.02, 187500.00, -187500.02, -187500.02, 0.00, 0.00, 0.00
81, 118611.36, -187500.02, 187500.00, 51186.07, -187500.02, 187500.00, -187500.02, -187500.02, 0.00, 0.00, 0.00
82, 116714.68, -187500.02, 187500.00, 49465.59, -187500.02, 187500.00, -187500.02, -187500.02, 0.00, 0.00, 0.00
83, 116152.83, -187500.02, 187500.00, 48909.59, -187500.02, 187500.00, -187500.02, -187500.02, 0.00, 0.00, 0.00
84, 117963.23, -187500.02, 187500.00, 50566.86, -187500.02, 187500.00, -187500.02, -187500.02, 0.00, 0.00, 0.00
85, 118744.60, -187500.02, 187500.00, 51353.54, -187500.02, 187500.00, -187500.02, -187500.02, 0.00, 0.00, 0.00
86, 117019.89, -187500.02, 187500.00, 49804.13, -187500.02, 187500.00, -187500.02, -187500.02, 0.00, 0.00, 0.00
87, 115946.90, -187500.02, 187500.00, 48777.94, -187500.02, 187500.00, -187500.02, -187500.02, 0.00, 0.00, 0.00
88, 117572.48, -187500.02, 187500.00, 50250.07, -187500.02, 187500.00, -187500.02, -187500.02, 0.00, 0.00, 0.00
89, 118818.02, -187500.02, 187500.00, 51457.58, -187500.02, 187500.00, -187500.02, -187500.02, 0.00, 0.00, 0.00
90, 117394.29, -187500.02, 187500.00, 50195.94, -187500.02, 187500.00, -187500.02, -187500.02, 0.00, 0.00, 0.00
91, 115915.56, -187500.02, 187500.00, 48802.08, -187500.02, 187500.00, -187500.02, -187500.02, 0.00, 0.00, 0.00
92, 117167.62, -187500.02, 187500.00, 49913.28, -187500.02, 187500.00, -187500.02, -187500.02, 0.00, 0.00, 0.00
93, 118773.92, -187500.02, 187500.00, 51435.90, -187500.02, 187500.00, -187500.02, -187500.02, 0.00, 0.00, 0.00
94, 117767.31, -187500.02, 187500.00, 50567.54, -187500.02, 187500.00, -187500.02, -187500.02, 0.00, 0.00, 0.00
95, 115998.80, -187500.02, 187500.00, 48921.73, -187500.02, 187500.00, -187500.02, -187500.02, 0.00, 0.00, 0.00
96, 116793.67, -187500.02, 187500.00, 49606.72, -187500.02, 187500.00, -187500.02, -187500.02, 0.00, 0.00, 0.00
97, 118621.22, -187500.02, 187500.00, 51315.02, -187500.02, 187500.00, -187500.02, -187500.02, 0.00, 0.00, 0.00
98, 118108.09, -187500.02, 187500.00, 50910.75, -187500.02, 187500.00, -187500.02, -187500.02, 0.00, 0.00, 0.00
99, 116174.48, -187500.02, 187500.00, 49127.19, -187500.02, 187500.00, -187500.02, -187500.02, 0.00, 0.00, 0.00
100, 116463.49, -187500.02, 187500.00, 49343.48, -187500.02, 187500.00, -187500.02, -187500.02, 0.00, 0.00, 0.00
101, 118424.43, -187500.02, 187500.00, 51162.80, -187500.02, 187500.00, -187500.02, -187500.02, 0.00, 0.00, 0.00
102, 118390.39, -187500.02, 187500.00, 51202.23, -187500.02, 187500.00, -187500.02, -187500.02, 0.00, 0.00, 0.00
103, 116422.37, -187500.02, 187500.00, 49402.81, -187500.02, 187500.00, -187500.02, -187500.02, 0.00, 0.00, 0.00
104, 116139.86, -187500.02, 187500.00, 49091.54, -187500.02, 187500.00, -187500.02, -187500.02, 0.00, 0.00, 0.00
105, 118071.63, -187500.02, 187500.00, 50866.33, -187500.02, 187500.00, -187500.02, -187500.02, 0.00, 0.00, 0.00
106, 118557.18, -187500.02, 187500.00, 51381.76, -187500.02, 187500.00, -187500.02, -187500.02, 0.00, 0.00, 0.00
107, 116676.57, -187500.02, 187500.00, 49672.97, -187500.02, 187500.00, -187500.02, -187500.02, 0.00, 0.00, 0.00
108, 115913.66, -187500.02, 187500.00, 48927.59, -187500.02, 187500.00, -187500.02, -187500.02, 0.00, 0.00, 0.00
109, 117702.23, -187500.02, 187500.00, 50557.88, -187500.02, 187500.00, -187500.02, -187500.02, 0.00, 0.00, 0.00
110, 118653.56, -187500.02, 187500.00, 51494.21, -187500.02, 187500.00, -187500.02, -187500.02, 0.00, 0.00, 0.00
111, 117032.52, -187500.02, 187500.00, 50042.49, -187500.02, 187500.00, -187500.02, -187500.02, 0.00, 0.00, 0.00
112, 115787.58, -187500.02, 187500.00, 48860.11, -187500.02, 187500.00, -187500.02, -187500.02, 0.00, 0.00, 0.00
113, 117282.57, -187500.02, 187500.00, 50207.14, -187500.02, 187500.00, -187500.02, -187500.02, 0.00, 0.00, 0.00
114, 118639.05, -187500.02, 187500.00, 51507.69, -187500.02, 187500.00, -187500.02, -187500.02, 0.00, 0.00, 0.00
115, 117353.43, -187500.02, 187500.00, 50375.55, -187500.02, 187500.00, -187500.02, -187500.02, 0.00, 0.00, 0.00
116, 115767.02, -187500.02, 187500.00, 48892.18, -187500.02, 187500.00, -187500.02, -187500.02, 0.00, 0.00, 0.00
117, 116875.23, -187500.02, 187500.00, 49874.74, -187500.02, 187500.00, -187500.02, -187500.02, 0.00, 0.00, 0.00
118, 118550.56, -187500.02, 187500.00, 51457.13, -187500.02, 187500.00, -187500.02, -187500.02, 0.00, 0.00, 0.00
119, 117730.97, -187500.02, 187500.00, 50769.55, -187500.02, 187500.00, -187500.02, -187500.02, 0.00, 0.00, 0.00
120, 115889.63, -187500.02, 187500.00, 49065.65, -187500.02, 187500.00, -187500.02, -187500.02, 0.00, 0.00, 0.00
121, 116476.79, -187500.02, 187500.00, 49558.20, -187500.02, 187500.00, -187500.02, -187500.02, 0.00, 0.00, 0.00
122, 118386.88, -187500.02, 187500.00, 51344.50, -187500.02, 187500.00, -187500.02, -187500.02, 0.00, 0.00, 0.00
123, 118037.50, -187500.02, 187500.00, 51095.04, -187500.02, 187500.00, -187500.02, -187500.02, 0.00, 0.00, 0.00
124, 116083.76, -187500.02, 187500.00, 49298.22, -187500.02, 187500.00, -187500.02, -187500.02, 0.00, 0.00, 0.00
125, 116170.62, -187500.02, 187500.00, 49327.01, -187500.02, 187500.00, -187500.02, -187500.02, 0.00, 0.00, 0.00
126, 118114.30, -187500.02, 187500.00, 51121.14, -187500.02, 187500.00, -187500.02, -187500.02, 0.00, 0.00, 0.00
127, 118281.92, -187500.02, 187500.00, 51345.06, -187500.02, 187500.00, -187500.02, -187500.02, 0.00, 0.00, 0.00
128, 116326.30, -187500.02, 187500.00, 49559.36, -187500.02, 187500.00, -187500.02, -187500.02, 0.00, 0.00, 0.00
129, 115869.02, -187500.02, 187500.00, 49089.86, -187500.02, 187500.00, -187500.02, -187500.02, 0.00, 0.00, 0.00
130, 117738.97, -187500.02, 187500.00, 50803.70, -187500.02, 187500.00, -187500.02, -187500.02, 0.00, 0.00, 0.00
131, 118423.65, -187500.02, 187500.00, 51503.60, -187500.02, 187500.00, -187500.02, -187500.02, 0.00, 0.00, 0.00
132, 116645.01, -187500.02, 187500.00, 49900.00, -187500.02, 187500.00, -187500.02, -187500.02, 0.00, 0.00, 0.00
133, 115678.56, -187500.02, 187500.00, 48968.96, -187500.02, 187500.00, -187500.02, -187500.02, 0.00, 0.00, 0.00
134, 117372.72, -187500.02, 187500.00, 50506.89, -187500.02, 187500.00, -187500.02, -187500.02, 0.00, 0.00, 0.00
135, 118513.93, -187500.02, 187500.00, 51615.36, -187500.02, 187500.00, -187500.02, -187500.02, 0.00, 0.00, 0.00
136, 117017.77, -187500.02, 187500.00, 50276.70, -187500.02, 187500.00, -187500.02, -187500.02, 0.00, 0.00, 0.00
137, 115646.31, -187500.02, 187500.00, 48978.19, -187500.02, 187500.00, -187500.02, -187500.02, 0.00, 0.00, 0.00
138, 116983.10, -187500.02, 187500.00, 50168.42, -187500.02, 187500.00, -187500.02, -187500.02, 0.00, 0.00, 0.00
139, 118495.18, -187500.02, 187500.00, 51604.39, -187500.02, 187500.00, -187500.02, -187500.02, 0.00, 0.00, 0.00
140, 117352.29, -187500.02, 187500.00, 50598.38, -187500.02, 187500.00, -187500.02, -187500.02, 0.00, 0.00, 0.00
141, 115656.80, -187500.02, 187500.00, 49006.64, -187500.02, 187500.00, -187500.02, -187500.02, 0.00, 0.00, 0.00
142, 116575.16, -187500.02, 187500.00, 49797.18, -187500.02, 187500.00, -187500.02, -187500.02, 0.00, 0.00, 0.00
143, 118385.54, -187500.02, 187500.00, 51489.79, -187500.02, 187500.00, -187500.02, -187500.02, 0.00, 0.00, 0.00
144, 117744.85, -187500.02, 187500.00, 50955.96, -187500.02, 187500.00, -187500.02, -187500.02, 0.00, 0.00, 0.00
145, 115849.76, -187500.02, 187500.00, 49191.70, -187500.02, 187500.00, -187500.02, -187500.02, 0.00, 0.00, 0.00
146, 116264.14, -187500.02, 187500.00, 49514.84, -187500.02, 187500.00, -187500.02, -187500.02, 0.00, 0.00, 0.00
147, 118218.20, -187500.02, 187500.00, 51323.70, -187500.02, 187500.00, -187500.02, -187500.02, 0.00, 0.00, 0.00
148, 118074.20, -187500.02, 187500.00, 51250.96, -187500.02, 187500.00, -187500.02, -187500.02, 0.00, 0.00, 0.00
149, 116130.59, -187500.02, 187500.00, 49460.39, -187500.02, 187500.00, -187500.02, -187500.02, 0.00, 0.00, 0.00
150, 116031.23, -187500.02, 187500.00, 49314.41, -187500.02, 187500.00, -187500.02, -187500.02, 0.00, 0.00, 0.00
151, 117997.42, -187500.02, 187500.00, 51119.80, -187500.02, 187500.00, -187500.02, -187500.02, 0.00, 0.00, 0.00
152, 118338.47, -187500.02, 187500.00, 51487.46, -187500.02, 187500.00, -187500.02, -187500.02, 0.00, 0.00, 0.00
153, 116482.65, -187500.02, 187500.00, 49792.18, -187500.02, 187500.00, -187500.02, -187500.02, 0.00, 0.00, 0.00
154, 115856.28, -187500.02, 187500.00, 49167.53, -187500.02, 187500.00, -187500.02, -187500.02, 0.00, 0.00, 0.00
155, 117670.20, -187500.02, 187500.00, 50818.66, -187500.02, 187500.00, -187500.02, -187500.02, 0.00, 0.00, 0.00
156, 118542.34, -187500.02, 187500.00, 51680.27, -187500.02, 187500.00, -187500.02, -187500.02, 0.00, 0.00, 0.00
157, 116883.15, -187500.02, 187500.00, 50184.78, -187500.02, 187500.00, -187500.02, -187500.02, 0.00, 0.00, 0.00
158, 115753.71, -187500.02, 187500.00, 49100.16, -187500.02, 187500.00, -187500.02, -187500.02, 0.00, 0.00, 0.00
159, 117316.93, -187500.02, 187500.00, 50506.80, -187500.02, 187500.00, -187500.02, -187500.02, 0.00, 0.00, 0.00
160, 118620.84, -187500.02, 187500.00, 51760.63, -187500.02, 187500.00, -187500.02, -187500.02, 0.00, 0.00, 0.00
161, 117293.57, -187500.02, 187500.00, 50586.40, -187500.02, 187500.00, -187500.02, -187500.02, 0.00, 0.00, 0.00
162, 115804.12, -187500.02, 187500.00, 49186.00, -187500.02, 187500.00, -187500.02, -187500.02, 0.00, 0.00, 0.00
163, 117026.58, -187500.02, 187500.00, 50273.23, -187500.02, 187500.00, -187500.02, -187500.02, 0.00, 0.00, 0.00
164, 118652.42, -187500.02, 187500.00, 51808.61, -187500.02, 187500.00, -187500.02, -187500.02, 0.00, 0.00, 0.00
165, 117709.83, -187500.02, 187500.00, 50992.33, -187500.02, 187500.00, -187500.02, -187500.02, 0.00, 0.00, 0.00
166, 115934.27, -187500.02, 187500.00, 49335.95, -187500.02, 187500.00, -187500.02, -187500.02, 0.00, 0.00, 0.00
167, 116665.41, -187500.02, 187500.00, 49959.43, -187500.02, 187500.00, -187500.02, -187500.02, 0.00, 0.00, 0.00
168, 118524.05, -187500.02, 187500.00, 51692.83, -187500.02, 187500.00, -187500.02, -187500.02, 0.00, 0.00, 0.00
169, 118065.55, -187500.02, 187500.00, 51329.55, -187500.02, 187500.00, -187500.02, -187500.02, 0.00, 0.00, 0.00
170, 116133.38, -187500.02, 187500.00, 49545.16, -187500.02, 187500.00, -187500.02, -187500.02, 0.00, 0.00, 0.00
171, 116350.13, -187500.02, 187500.00, 49696.29, -187500.02, 187500.00, -187500.02, -187500.02, 0.00, 0.00, 0.00
172, 118323.83, -187500.02, 187500.00, 51525.78, -187500.02, 187500.00, -187500.02, -187500.02, 0.00, 0.00, 0.00
173, 118385.54, -187500.02, 187500.00, 51646.48, -187500.02, 187500.00, -187500.02, -187500.02, 0.00, 0.00, 0.00
174, 116459.31, -187500.02, 187500.00, 49877.78, -187500.02, 187500.00, -187500.02, -187500.02, 0.00, 0.00, 0.00
175, 116146.74, -187500.02, 187500.00, 49544.18, -187500.02, 187500.00, -187500.02, -187500.02, 0.00, 0.00, 0.00
176, 118102.27, -187500.02, 187500.00, 51342.04, -187500.02, 187500.00, -187500.02, -187500.02, 0.00, 0.00, 0.00
177, 118651.17, -187500.02, 187500.00, 51911.86, -187500.02, 187500.00, -187500.02, -187500.02, 0.00, 0.00, 0.00
178, 116850.18, -187500.02, 187500.00, 50285.07, -187500.02, 187500.00, -187500.02, -187500.02, 0.00, 0.00, 0.00
179, 116024.50, -187500.02, 187500.00, 49490.14, -187500.02, 187500.00, -187500.02, -187500.02, 0.00, 0.00, 0.00
180, 117763.02, -187500.02, 187500.00, 51075.77, -187500.02, 187500.00, -187500.02, -187500.02, 0.00, 0.00, 0.00
181, 118772.43, -187500.02, 187500.00, 52062.26, -187500.02, 187500.00, -187500.02, -187500.02, 0.00, 0.00, 0.00
182, 117221.64, -187500.02, 187500.00, 50677.28, -187500.02, 187500.00, -187500.02, -187500.02, 0.00, 0.00, 0.00
183, 115906.11, -187500.02, 187500.00, 49429.32, -187500.02, 187500.00, -187500.02, -187500.02, 0.00, 0.00, 0.00
184, 117341.34, -187500.02, 187500.00, 50719.26, -187500.02, 187500.00, -187500.02, -187500.02, 0.00, 0.00, 0.00
185, 118774.95, -187500.02, 187500.00, 52090.11, -187500.02, 187500.00, -187500.02, -187500.02, 0.00, 0.00, 0.00
186, 117569.55, -187500.02, 187500.00, 51033.50, -187500.02, 187500.00, -187500.02, -187500.02, 0.00, 0.00, 0.00
187, 115956.78, -187500.02, 187500.00, 49524.98, -187500.02, 187500.00, -187500.02, -187500.02, 0.00, 0.00, 0.00
188, 116993.41, -187500.02, 187500.00, 50438.16, -187500.02, 187500.00, -187500.02, -187500.02, 0.00, 0.00, 0.00
189, 118707.83, -187500.02, 187500.00, 52052.43, -187500.02, 187500.00, -187500.02, -187500.02, 0.00, 0.00, 0.00
190, 117939.34, -187500.02, 187500.00, 51406.17, -187500.02, 187500.00, -187500.02, -187500.02, 0.00, 0.00, 0.00
191, 116094.53, -187500.02, 187500.00, 49695.88, -187500.02, 187500.00, -187500.02, -187500.02, 0.00, 0.00, 0.00
192, 116657.46, -187500.02, 187500.00, 50169.32, -187500.02, 187500.00, -187500.02, -187500.02, 0.00, 0.00, 0.00
193, 118568.42, -187500.02, 187500.00, 51949.27, -187500.02, 187500.00, -187500.02, -187500.02, 0.00, 0.00, 0.00
194, 118296.89, -187500.02, 187500.00, 51763.09, -187500.02, 187500.00, -187500.02, -187500.02, 0.00, 0.00, 0.00
195, 116350.57, -187500.02, 187500.00, 49970.47, -187500.02, 187500.00, -187500.02, -187500.02, 0.00, 0.00, 0.00
196, 116394.11, -187500.02, 187500.00, 49964.20, -187500.02, 187500.00, -187500.02, -187500.02, 0.00, 0.00, 0.00
197, 118323.05, -187500.02, 187500.00, 51741.34, -187500.02, 187500.00, -187500.02, -187500.02, 0.00, 0.00, 0.00
198, 118561.34, -187500.02, 187500.00, 52024.49, -187500.02, 187500.00, -187500.02, -187500.02, 0.00, 0.00, 0.00
199, 116649.73, -187500.02, 187500.00, 50279.00, -187500.02, 187500.00, -187500.02, -187500.02, 0.00, 0.00, 0.00
200, 116140.22, -187500.02, 187500.00, 49764.28, -187500.02, 187500.00, -187500.02, -187500.02, 0.00, 0.00, 0.00
201, 118032.56, -187500.02, 187500.00, 51495.36, -187500.02, 187500.00, -187500.02, -187500.02, 0.00, 0.00, 0.00
202, 118795.43, -187500.02, 187500.00, 52258.36, -187500.02, 187500.00, -187500.02, -187500.02, 0.00, 0.00, 0.00
203, 117039.25, -187500.02, 187500.00, 50669.37, -187500.02, 187500.00, -187500.02, -187500.02, 0.00, 0.00, 0.00
204, 116039.62, -187500.02, 187500.00, 49710.03, -187500.02, 187500.00, -187500.02, -187500.02, 0.00, 0.00, 0.00
205, 117690.02, -187500.02, 187500.00, 51203.24, -187500.02, 187500.00, -187500.02, -187500.02, 0.00, 0.00, 0.00
206, 118870.06, -187500.02, 187500.00, 52339.31, -187500.02, 187500.00, -187500.02, -187500.02, 0.00, 0.00, 0.00
207, 117416.30, -187500.02, 187500.00, 51040.23, -187500.02, 187500.00, -187500.02, -187500.02, 0.00, 0.00, 0.00
208, 115992.32, -187500.02, 187500.00, 49695.32, -187500.02, 187500.00, -187500.02, -187500.02, 0.00, 0.00, 0.00
209, 117300.66, -187500.02, 187500.00, 50864.79, -187500.02, 187500.00, -187500.02, -187500.02, 0.00, 0.00, 0.00
210, 118863.84, -187500.02, 187500.00, 52347.18, -187500.02, 187500.00, -187500.02, -187500.02, 0.00, 0.00, 0.00
211, 117795.27, -187500.02, 187500.00, 51413.44, -187500.02, 187500.00, -187500.02, -187500.02, 0.00, 0.00, 0.00
212, 116065.74, -187500.02, 187500.00, 49802.03, -187500.02, 187500.00, -187500.02, -187500.02, 0.00, 0.00, 0.00
213, 116920.98, -187500.02, 187500.00, 50550.43, -187500.02, 187500.00, -187500.02, -187500.02, 0.00, 0.00, 0.00
214, 118724.44, -187500.02, 187500.00, 52242.53, -187500.02, 187500.00, -187500.02, -187500.02, 0.00, 0.00, 0.00
215, 118120.31, -187500.02, 187500.00, 51748.31, -187500.02, 187500.00, -187500.02, -187500.02, 0.00, 0.00, 0.00
216, 116197.33, -187500.02, 187500.00, 49971.52, -187500.02, 187500.00, -187500.02, -187500.02, 0.00, 0.00, 0.00
217, 116514.72, -187500.02, 187500.00, 50219.32, -187500.02, 187500.00, -187500.02, -187500.02, 0.00, 0.00, 0.00
218, 118443.32, -187500.02, 187500.00, 52013.36, -187500.02, 187500.00, -187500.02, -187500.02, 0.00, 0.00, 0.00
219, 118391.89, -187500.02, 187500.00, 52038.05, -187500.02, 187500.00, -187500.02, -187500.02, 0.00, 0.00, 0.00
220, 116436.36, -187500.02, 187500.00, 50249.83, -187500.02, 187500.00, -187500.02, -187500.02, 0.00, 0.00, 0.00
221, 116231.19, -187500.02, 187500.00, 50017.95, -187500.02, 187500.00, -187500.02, -187500.02, 0.00, 0.00, 0.00
222, 118182.54, -187500.02, 187500.00, 51819.90, -187500.02, 187500.00, -187500.02, -187500.02, 0.00, 0.00, 0.00
223, 118629.91, -187500.02, 187500.00, 52301.40, -187500.02, 187500.00, -187500.02, -187500.02, 0.00, 0.00, 0.00
224, 116757.06, -187500.02, 187500.00, 50597.89, -187500.02, 187500.00, -187500.02, -187500.02, 0.00, 0.00, 0.00
225, 116021.22, -187500.02, 187500.00, 49876.42, -187500.02, 187500.00, -187500.02, -187500.02, 0.00, 0.00, 0.00
226, 117812.84, -187500.02, 187500.00, 51512.14, -187500.02, 187500.00, -187500.02, -187500.02, 0.00, 0.00, 0.00
227, 118764.54, -187500.02, 187500.00, 52453.75, -187500.02, 187500.00, -187500.02, -187500.02, 0.00, 0.00, 0.00
228, 117125.38, -187500.02, 187500.00, 50982.00, -187500.02, 187500.00, -187500.02, -187500.02, 0.00, 0.00, 0.00
229, 115901.08, -187500.02, 187500.00, 49815.71, -187500.02, 187500.00, -187500.02, -187500.02, 0.00, 0.00, 0.00
230, 117422.41, -187500.02, 187500.00, 51192.49, -187500.02, 187500.00, -187500.02, -187500.02, 0.00, 0.00, 0.00
231, 118798.51, -187500.02, 187500.00, 52516.45, -187500.02, 187500.00, -187500.02, -187500.02, 0.00, 0.00, 0.00
232, 117496.77, -187500.02, 187500.00, 51364.42, -187500.02, 187500.00, -187500.02, -187500.02, 0.00, 0.00, 0.00
233, 115913.21, -187500.02, 187500.00, 49874.56, -187500.02, 187500.00, -187500.02, -187500.02, 0.00, 0.00, 0.00
234, 117046.38, -187500.02, 187500.00, 50881.20, -187500.02, 187500.00, -187500.02, -187500.02, 0.00, 0.00, 0.00
235, 118715.61, -187500.02, 187500.00, 52459.41, -187500.02, 187500.00, -187500.02, -187500.02, 0.00, 0.00, 0.00
236, 117839.38, -187500.02, 187500.00, 51712.23, -187500.02, 187500.00, -187500.02, -187500.02, 0.00, 0.00, 0.00
237, 115992.16, -187500.02, 187500.00, 49990.77, -187500.02, 187500.00, -187500.02, -187500.02, 0.00, 0.00, 0.00
238, 116666.11, -187500.02, 187500.00, 50566.15, -187500.02, 187500.00, -187500.02, -187500.02, 0.00, 0.00, 0.00
239, 118550.48, -187500.02, 187500.00, 52324.74, -187500.02, 187500.00, -187500.02, -187500.02, 0.00, 0.00, 0.00
240, 118160.26, -187500.02, 187500.00, 52026.97, -187500.02, 187500.00, -187500.02, -187500.02, 0.00, 0.00, 0.00
241, 116221.11, -187500.02, 187500.00, 50239.14, -187500.02, 187500.00, -187500.02, -187500.02, 0.00, 0.00, 0.00
242, 116354.57, -187500.02, 187500.00, 50316.82, -187500.02, 187500.00, -187500.02, -187500.02, 0.00, 0.00, 0.00
243, 118312.98, -187500.02, 187500.00, 52129.68, -187500.02, 187500.00, -187500.02, -187500.02, 0.00, 0.00, 0.00
244, 118439.07, -187500.02, 187500.00, 52310.77, -187500.02, 187500.00, -187500.02, -187500.02, 0.00, 0.00, 0.00
245, 116509.09, -187500.02, 187500.00, 50545.92, -187500.02, 187500.00, -187500.02, -187500.02, 0.00, 0.00, 0.00
246, 116113.55, -187500.02, 187500.00, 50137.42, -187500.02, 187500.00, -187500.02, -187500.02, 0.00, 0.00, 0.00
247, 117940.74, -187500.02, 187500.00, 51808.05, -187500.02, 187500.00, -187500.02, -187500.02, 0.00, 0.00, 0.00
248, 118555.84, -187500.02, 187500.00, 52434.75, -187500.02, 187500.00, -187500.02, -187500.02, 0.00, 0.00, 0.00
249, 116831.02, -187500.02, 187500.00, 50877.17, -187500.02, 187500.00, -187500.02, -187500.02, 0.00, 0.00, 0.00
250, 115917.38, -187500.02, 187500.00, 49997.97, -187500.02, 187500.00, -187500.02, -187500.02, 0.00, 0.00, 0.00
251, 117572.14, -187500.02, 187500.00, 51501.03, -187500.02, 187500.00, -187500.02, -187500.02, 0.00, 0.00, 0.00
252, 118638.95, -187500.02, 187500.00, 52538.64, -187500.02, 187500.00, -187500.02, -187500.02, 0.00, 0.00, 0.00
253, 117137.35, -187500.02, 187500.00, 51198.08, -187500.02, 187500.00, -187500.02, -187500.02, 0.00, 0.00, 0.00
254, 115805.32, -187500.02, 187500.00, 49943.54, -187500.02, 187500.00, -187500.02, -187500.02, 0.00, 0.00, 0.00
255, 117158.95, -187500.02, 187500.00, 51158.27, -187500.02, 187500.00, -187500.02, -187500.02, 0.00, 0.00, 0.00
0, 118614.53, -187500.02, 187500.00, 52542.64, -187500.02, 187500.00, -187500.02, -187500.02, 0.00, 0.00, 0.00
1, 117466.41, -187500.02, 187500.00, 51536.59, -187500.02, 187500.00, -187500.02, -187500.02, 0.00, 0.00, 0.00
2, 115796.54, -187500.02, 187500.00, 49981.72, -187500.02, 187500.00, -187500.02, -187500.02, 0.00, 0.00, 0.00
3, 116736.20, -187500.02, 187500.00, 50810.45, -187500.02, 187500.00, -187500.02, -187500.02, 0.00, 0.00, 0.00
4, 118460.77, -187500.02, 187500.00, 52430.13, -187500.02, 187500.00, -187500.02, -187500.02, 0.00, 0.00, 0.00
5, 117762.91, -187500.02, 187500.00, 51846.41, -187500.02, 187500.00, -187500.02, -187500.02, 0.00, 0.00, 0.00
6, 130322.38, 0.00, 187500.00, 66041.00, -179136.08, 187500.00, -180094.95, -187500.02, 0.00, 0.00, 0.00
7, 129940.14, 0.00, 187500.00, 65930.31, -179436.27, 187500.00, -180304.23, -187500.02, 0.00, 0.00, 0.00
8, 127720.45, 0.00, 187500.00, 64065.66, -180797.91, 187500.00, -181441.38, -187500.02, 0.00, 0.00, 0.00
9, 127125.45, 0.00, 187500.00, 63616.55, -181124.50, 187500.00, -181927.77, -187500.02, 0.00, 0.00, 0.00
10, 128675.10, 0.00, 187500.00, 65162.22, -180226.02, 187500.00, -181362.03, -187500.02, 0.00, 0.00, 0.00
11, 128873.11, 0.00, 187500.00, 65534.39, -180213.09, 187500.00, -181329.53, -187500.02, 0.00, 0.00, 0.00
12, 126827.84, 0.00, 187500.00, 63800.97, -181526.42, 187500.00, -182393.56, -187500.02, 0.00, 0.00, 0.00
13, 125812.29, 0.00, 187500.00, 62937.44, -182133.11, 187500.00, -183079.17, -187500.02, 0.00, 0.00, 0.00
14, 127208.35, 0.00, 187500.00, 64289.56, -181359.75, 187500.00, -182646.06, -187500.02, 0.00, 0.00, 0.00
15, 127909.41, 0.00, 187500.00, 65081.77, -181071.03, 187500.00, -182417.20, -187500.02, 0.00, 0.00, 0.00
16, 126146.67, 0.00, 187500.00, 63593.68, -182249.70, 187500.00, -183345.88, -187500.02, 0.00, 0.00, 0.00
17, 124733.28, 0.00, 187500.00, 62345.03, -183133.14, 187500.00, -184226.42, -187500.02, 0.00, 0.00, 0.00
18, 125898.74, 0.00, 187500.00, 63449.36, -182501.89, 187500.00, -183929.28, -187500.02, 0.00, 0.00, 0.00
19, 127051.80, 0.00, 187500.00, 64622.64, -181945.58, 187500.00, -183508.02, -187500.02, 0.00, 0.00, 0.00
20, 125686.23, 0.00, 187500.00, 63494.24, -182903.17, 187500.00, -184239.44, -187500.02, 0.00, 0.00, 0.00
21, 123926.09, 0.00, 187500.00, 61920.50, -184024.31, 187500.00, -185271.08, -187500.02, 0.00, 0.00, 0.00
22, 124712.02, 0.00, 187500.00, 62646.86, -183628.89, 187500.00, -185178.23, -187500.02, 0.00, 0.00, 0.00
23, 126202.75, 0.00, 187500.00, 64095.08, -182874.20, 187500.00, -184635.38, -187500.02, 0.00, 0.00, 0.00
24, 125289.19, 0.00, 187500.00, 63375.33, -183580.77, 187500.00, -185158.36, -187500.02, 0.00, 0.00, 0.00
25, 123341.37, 0.00, 187500.00, 61630.53, -184834.97, 187500.00, -186252.92, -187500.02, 0.00, 0.00, 0.00
26, 123684.00, 0.00, 187500.00, 61934.43, -184702.45, 187500.00, -186372.73, -187500.02, 0.00, 0.00, 0.00
27, 125343.64, 0.00, 187500.00, 63505.84, -183853.63, 187500.00, -185788.13, -187500.02, 0.00, 0.00, 0.00
28, 124934.24, 0.00, 187500.00, 63241.84, -184269.83, 187500.00, -186080.80, -187500.02, 0.00, 0.00, 0.00
29, 122938.34, 0.00, 187500.00, 61459.81, -185570.81, 187500.00, -187178.69, -187500.02, 0.00, 0.00, 0.00
30, 122809.89, 0.00, 187500.00, 61328.25, -185712.48, 187500.00, -187500.02, -187500.02, 0.00, 0.00, 0.00
31, 124517.07, 0.00, 187500.00, 62917.77, -184829.94, 187500.00, -186942.14, -187500.02, 0.00, 0.00, 0.00
32, 124598.03, 0.00, 187500.00, 63092.69, -184960.59, 187500.00, -187011.14, -187500.02, 0.00, 0.00, 0.00
33, 122629.58, 0.00, 187500.00, 61344.11, -186273.67, 187500.00, -187500.02, -187500.02, 0.00, 0.00, 0.00
34, 121985.52, 0.00, 187500.00, 60738.65, -186733.50, 187500.00, -187500.02, -187500.02, 0.00, 0.00, 0.00
35, 123638.24, 0.00, 187500.00, 62260.98, -185868.58, 187500.00, -187500.02, -187500.02, 0.00, 0.00, 0.00
36, 124247.78, 0.00, 187500.00, 62913.61, -185668.92, 187500.00, -187500.02, -187500.02, 0.00, 0.00, 0.00
37, 122431.63, 0.00, 187500.00, 61312.53, -186917.11, 187500.00, -187500.02, -187500.02, 0.00, 0.00, 0.00
38, 121354.12, 0.00, 187500.00, 60313.59, -187500.02, 187500.00, -187500.02, -187500.02, 0.00, 0.00, 0.00
39, 122797.38, 0.00, 187500.00, 61625.66, -186892.14, 187500.00, -187500.02, -187500.02, 0.00, 0.00, 0.00
40, 123807.11, 0.00, 187500.00, 62624.58, -186469.16, 187500.00, -187500.02, -187500.02, 0.00, 0.00, 0.00
41, 122303.40, 0.00, 187500.00, 61323.08, -187500.02, 187500.00, -187500.02, -187500.02, 0.00, 0.00, 0.00
42, 120815.45, 0.00, 187500.00, 59955.13, -187500.02, 187500.00, -187500.02, -187500.02, 0.00, 0.00, 0.00
