%OpenBCI Raw EEG Data
%
%Sample Rate = 250.0 Hz
%First Column = SampleIndex
%Other Columns = EEG data in microvolts followed by Accel Data (in G) interleaved with Aux Data
0, -187500.02, -187500.02, -187500.02, -187500.02, 116315.26, -187500.02, -187500.02, -187500.02, 0.00, 0.00, 0.00
1, -187500.02, -187500.02, -187500.02, -187500.02, 118499.53, -187500.02, -187500.02, -187500.02, 0.00, 0.00, 0.00
2, -187500.02, -187500.02, -187500.02, -187500.02, 118690.93, -187500.02, -187500.02, -187500.02, 0.00, 0.00, 0.00
3, -187500.02, -187500.02, -187500.02, -187500.02, 116656.52, -187500.02, -187500.02, -187500.02, 0.00, 0.00, 0.00
4, -187500.02, -187500.02, -187500.02, -187500.02, 116222.32, -187500.02, -187500.02, -187500.02, 0.00, 0.00, 0.00
5, -187500.02, -187500.02, -187500.02, -187500.02, 118189.38, -187500.02, -187500.02, -187500.02, 0.00, 0.00, 0.00
6, -187500.02, -187500.02, -187500.02, -187500.02, 118990.06, -187500.02, -187500.02, -187500.02, 0.00, 0.00, 0.00
7, -187500.02, -187500.02, -187500.02, -187500.02, 117022.87, -187500.02, -187500.02, -187500.02, 0.00, 0.00, 0.00
8, -187500.02, -187500.02, -187500.02, -187500.02, 115839.45, -187500.02, -187500.02, -187500.02, 0.00, 0.00, 0.00
9, -187500.02, -187500.02, -187500.02, -187500.02, 117370.64, -187500.02, -187500.02, -187500.02, 0.00, 0.00, 0.00
10, -187500.02, -187500.02, -187500.02, -187500.02, 118819.55, -187500.02, -187500.02, -187500.02, 0.00, 0.00, 0.00
11, -187500.02, -187500.02, -187500.02, -187500.02, 117090.01, -187500.02, -187500.02, -187500.02, 0.00, 0.00, 0.00
12, -187500.02, -187500.02, -187500.02, -187500.02, 115893.70, -187500.02, -187500.02, -187500.02, 0.00, 0.00, 0.00
13, -187500.02, -187500.02, -187500.02, -187500.02, 117025.39, -187500.02, -187500.02, -187500.02, 0.00, 0.00, 0.00
14, -187500.02, -187500.02, -187500.02, -187500.02, 118762.26, -187500.02, -187500.02, -187500.02, 0.00, 0.00, 0.00
15, -187500.02, -187500.02, -187500.02, -187500.02, 117461.95, -187500.02, -187500.02, -187500.02, 0.00, 0.00, 0.00
16, -187500.02, -187500.02, -187500.02, -187500.02, 115818.16, -187500.02, -187500.02, -187500.02, 0.00, 0.00, 0.00
17, -187500.02, -187500.02, -187500.02, -187500.02, 116695.48, -187500.02, -187500.02, -187500.02, 0.00, 0.00, 0.00
18, -187500.02, -187500.02, -187500.02, -187500.02, 118708.30, -187500.02, -187500.02, -187500.02, 0.00, 0.00, 0.00
19, -187500.02, -187500.02, -187500.02, -187500.02, 117757.13, -187500.02, -187500.02, -187500.02, 0.00, 0.00, 0.00
20, -187500.02, -187500.02, -187500.02, -187500.02, 115806.89, -187500.02, -187500.02, -187500.02, 0.00, 0.00, 0.00
21, -187500.02, -187500.02, -187500.02, -187500.02, 115980.59, -187500.02, -187500.02, -187500.02, 0.00, 0.00, 0.00
22, -187500.02, -187500.02, -187500.02, -187500.02, 118182.45, -187500.02, -187500.02, -187500.02, 0.00, 0.00, 0.00
23, -187500.02, -187500.02, -187500.02, -187500.02, 118121.61, -187500.02, -187500.02, -187500.02, 0.00, 0.00, 0.00
24, -187500.02, -187500.02, -187500.02, -187500.02, 116057.49, -187500.02, -187500.02, -187500.02, 0.00, 0.00, 0.00
25, -187500.02, -187500.02, -187500.02, -187500.02, 115762.01, -187500.02, -187500.02, -187500.02, 0.00, 0.00, 0.00
26, -187500.02, -187500.02, -187500.02, -187500.02, 117922.08, -187500.02, -187500.02, -187500.02, 0.00, 0.00, 0.00
27, -187500.02, -187500.02, -187500.02, -187500.02, 118300.58, -187500.02, -187500.02, -187500.02, 0.00, 0.00, 0.00
28, -187500.02, -187500.02, -187500.02, -187500.02, 116254.62, -187500.02, -187500.02, -187500.02, 0.00, 0.00, 0.00
29, -187500.02, -187500.02, -187500.02, -187500.02, 115705.39, -187500.02, -187500.02, -187500.02, 0.00, 0.00, 0.00
30, -187500.02, -187500.02, -187500.02, -187500.02, 117580.05, -187500.02, -187500.02, -187500.02, 0.00, 0.00, 0.00
31, -187500.02, -187500.02, -187500.02, -187500.02, 118650.03, -187500.02, -187500.02, -187500.02, 0.00, 0.00, 0.00
32, -187500.02, -187500.02, -187500.02, -187500.02, 116850.05, -187500.02, -187500.02, -187500.02, 0.00, 0.00, 0.00
33, -187500.02, -187500.02, -187500.02, -187500.02, 115987.47, -187500.02, -187500.02, -187500.02, 0.00, 0.00, 0.00
34, -187500.02, -187500.02, -187500.02, -187500.02, 117544.29, -187500.02, -187500.02, -187500.02, 0.00, 0.00, 0.00
35, -187500.02, -187500.02, -187500.02, -187500.02, 119088.21, -187500.02, -187500.02, -187500.02, 0.00, 0.00, 0.00
36, -187500.02, -187500.02, -187500.02, -187500.02, 117492.03, -187500.02, -187500.02, -187500.02, 0.00, 0.00, 0.00
37, -187500.02, -187500.02, -187500.02, -187500.02, 116055.08, -187500.02, -187500.02, -187500.02, 0.00, 0.00, 0.00
38, -187500.02, -187500.02, -187500.02, -187500.02, 117041.84, -187500.02, -187500.02, -187500.02, 0.00, 0.00, 0.00
39, -187500.02, -187500.02, -187500.02, -187500.02, 118880.77, -187500.02, -187500.02, -187500.02, 0.00, 0.00, 0.00
40, -187500.02, -187500.02, -187500.02, -187500.02, 117772.45, -187500.02, -187500.02, -187500.02, 0.00, 0.00, 0.00
41, -187500.02, -187500.02, -187500.02, -187500.02, 116000.45, -187500.02, -187500.02, -187500.02, 0.00, 0.00, 0.00
42, -187500.02, -187500.02, -187500.02, -187500.02, 116441.43, -187500.02, -187500.02, -187500.02, 0.00, 0.00, 0.00
43, -187500.02, -187500.02, -187500.02, -187500.02, 118528.64, -187500.02, -187500.02, -187500.02, 0.00, 0.00, 0.00
44, -187500.02, -187500.02, -187500.02, -187500.02, 117889.49, -187500.02, -187500.02, -187500.02, 0.00, 0.00, 0.00
45, -187500.02, -187500.02, -187500.02, -187500.02, 115952.42, -187500.02, -187500.02, -187500.02, 0.00, 0.00, 0.00
46, -187500.02, -187500.02, -187500.02, -187500.02, 116040.42, -187500.02, -187500.02, -187500.02, 0.00, 0.00, 0.00
47, -187500.02, -187500.02, -187500.02, -187500.02, 118252.46, -187500.02, -187500.02, -187500.02, 0.00, 0.00, 0.00
48, -187500.02, -187500.02, -187500.02, -187500.02, 118259.32, -187500.02, -187500.02, -187500.02, 0.00, 0.00, 0.00
49, -187500.02, -187500.02, -187500.02, -187500.02, 116213.94, -187500.02, -187500.02, -187500.02, 0.00, 0.00, 0.00
50, -187500.02, -187500.02, -187500.02, -187500.02, 115896.30, -187500.02, -187500.02, -187500.02, 0.00, 0.00, 0.00
51, -187500.02, -187500.02, -187500.02, -187500.02, 117960.99, -187500.02, -187500.02, -187500.02, 0.00, 0.00, 0.00
52, -187500.02, -187500.02, -187500.02, -187500.02, 118703.85, -187500.02, -187500.02, -187500.02, 0.00, 0.00, 0.00
53, -187500.02, -187500.02, -187500.02, -187500.02, 116402.05, -187500.02, -187500.02, -187500.02, 0.00, 0.00, 0.00
54, -187500.02, -187500.02, -187500.02, -187500.02, 115504.40, -187500.02, -187500.02, -187500.02, 0.00, 0.00, 0.00
55, -187500.02, -187500.02, -187500.02, -187500.02, 117229.51, -187500.02, -187500.02, -187500.02, 0.00, 0.00, 0.00
56, -187500.02, -187500.02, -187500.02, -187500.02, 118544.55, -187500.02, -187500.02, -187500.02, 0.00, 0.00, 0.00
57, -187500.02, -187500.02, -187500.02, -187500.02, 116562.84, -187500.02, -187500.02, -187500.02, 0.00, 0.00, 0.00
58, -187500.02, -187500.02, -187500.02, -187500.02, 115409.63, -187500.02, -187500.02, -187500.02, 0.00, 0.00, 0.00
59, -187500.02, -187500.02, -187500.02, -187500.02, 116696.53, -187500.02, -187500.02, -187500.02, 0.00, 0.00, 0.00
60, -187500.02, -187500.02, -187500.02, -187500.02, 118378.61, -187500.02, -187500.02, -187500.02, 0.00, 0.00, 0.00
61, -187500.02, -187500.02, -187500.02, -187500.02, 116824.31, -187500.02, -187500.02, -187500.02, 0.00, 0.00, 0.00
62, -187500.02, -187500.02, -187500.02, -187500.02, 115318.57, -187500.02, -187500.02, -187500.02, 0.00, 0.00, 0.00
63, -187500.02, -187500.02, -187500.02, -187500.02, 116264.36, -187500.02, -187500.02, -187500.02, 0.00, 0.00, 0.00
64, -187500.02, -187500.02, -187500.02, -187500.02, 118264.28, -187500.02, -187500.02, -187500.02, 0.00, 0.00, 0.00
65, -187500.02, -187500.02, -187500.02, -187500.02, 117193.05, -187500.02, -187500.02, -187500.02, 0.00, 0.00, 0.00
66, -187500.02, -187500.02, -187500.02, -187500.02, 115438.64, -187500.02, -187500.02, -187500.02, 0.00, 0.00, 0.00
67, -187500.02, -187500.02, -187500.02, -187500.02, 115832.91, -187500.02, -187500.02, -187500.02, 0.00, 0.00, 0.00
68, -187500.02, -187500.02, -187500.02, -187500.02, 117998.74, -187500.02, -187500.02, -187500.02, 0.00, 0.00, 0.00
69, -187500.02, -187500.02, -187500.02, -187500.02, 117503.90, -187500.02, -187500.02, -187500.02, 0.00, 0.00, 0.00
70, -187500.02, -187500.02, -187500.02, -187500.02, 115529.44, -187500.02, -187500.02, -187500.02, 0.00, 0.00, 0.00
71, -187500.02, -187500.02, -187500.02, -187500.02, 115535.16, -187500.02, -187500.02, -187500.02, 0.00, 0.00, 0.00
72, -187500.02, -187500.02, -187500.02, -187500.02, 117662.13, -187500.02, -187500.02, -187500.02, 0.00, 0.00, 0.00
74, -187500.02, -187500.02, -187500.02, -187500.02, 115881.95, -187500.02, -187500.02, -187500.02, 0.00, 0.00, 0.00
75, -187500.02, -187500.02, -187500.02, -187500.02, 115210.52, -187500.02, -187500.02, -187500.02, 0.00, 0.00, 0.00
76, -187500.02, -187500.02, -187500.02, -187500.02, 117192.31, -187500.02, -187500.02, -187500.02, 0.00, 0.00, 0.00
77, -187500.02, -187500.02, -187500.02, -187500.02, 118105.97, -187500.02, -187500.02, -187500.02, 0.00, 0.00, 0.00
78, -187500.02, -187500.02, -187500.02, -187500.02, 116153.02, -187500.02, -187500.02, -187500.02, 0.00, 0.00, 0.00
79, -187500.02, -187500.02, -187500.02, -187500.02, 115276.81, -187500.02, -187500.02, -187500.02, 0.00, 0.00, 0.00
80, -187500.02, -187500.02, -187500.02, -187500.02, 116814.37, -187500.02, -187500.02, -187500.02, 0.00, 0.00, 0.00
81, -187500.02, -187500.02, -187500.02, -187500.02, 118229.75, -187500.02, -187500.02, -187500.02, 0.00, 0.00, 0.00
82, -187500.02, -187500.02, -187500.02, -187500.02, 116383.25, -187500.02, -187500.02, -187500.02, 0.00, 0.00, 0.00
83, -187500.02, -187500.02, -187500.02, -187500.02, 115120.63, -187500.02, -187500.02, -187500.02, 0.00, 0.00, 0.00
84, -187500.02, -187500.02, -187500.02, -187500.02, 116254.26, -187500.02, -187500.02, -187500.02, 0.00, 0.00, 0.00
85, -187500.02, -187500.02, -187500.02, -187500.02, 118057.69, -187500.02, -187500.02, -187500.02, 0.00, 0.00, 0.00
86, -187500.02, -187500.02, -187500.02, -187500.02, 116830.24, -187500.02, -187500.02, -187500.02, 0.00, 0.00, 0.00
87, -187500.02, -187500.02, -187500.02, -187500.02, 115208.13, -187500.02, -187500.02, -187500.02, 0.00, 0.00, 0.00
88, -187500.02, -187500.02, -187500.02, -187500.02, 115786.52, -187500.02, -187500.02, -187500.02, 0.00, 0.00, 0.00
89, -187500.02, -187500.02, -187500.02, -187500.02, 117905.88, -187500.02, -187500.02, -187500.02, 0.00, 0.00, 0.00
90, -187500.02, -187500.02, -187500.02, -187500.02, 117167.73, -187500.02, -187500.02, -187500.02, 0.00, 0.00, 0.00
91, -187500.02, -187500.02, -187500.02, -187500.02, 115132.36, -187500.02, -187500.02, -187500.02, 0.00, 0.00, 0.00
92, -187500.02, -187500.02, -187500.02, -187500.02, 115263.67, -187500.02, -187500.02, -187500.02, 0.00, 0.00, 0.00
93, -187500.02, -187500.02, -187500.02, -187500.02, 117471.80, -187500.02, -187500.02, -187500.02, 0.00, 0.00, 0.00
94, -187500.02, -187500.02, -187500.02, -187500.02, 117533.42, -187500.02, -187500.02, -187500.02, 0.00, 0.00, 0.00
95, -187500.02, -187500.02, -187500.02, -187500.02, 115410.95, -187500.02, -187500.02, -187500.02, 0.00, 0.00, 0.00
96, -187500.02, -187500.02, -187500.02, -187500.02, 114997.53, -187500.02, -187500.02, -187500.02, 0.00, 0.00, 0.00
97, -187500.02, -187500.02, -187500.02, -187500.02, 117131.23, -187500.02, -187500.02, -187500.02, 0.00, 0.00, 0.00
98, -187500.02, -187500.02, -187500.02, -187500.02, 117669.32, -187500.02, -187500.02, -187500.02, 0.00, 0.00, 0.00
99, -187500.02, -187500.02, -187500.02, -187500.02, 115481.54, -187500.02, -187500.02, -187500.02, 0.00, 0.00, 0.00
100, -187500.02, -187500.02, -187500.02, -187500.02, 114708.16, -187500.02, -187500.02, -187500.02, 0.00, 0.00, 0.00
101, -187500.02, -187500.02, -187500.02, -187500.02, 116552.79, -187500.02, -187500.02, -187500.02, 0.00, 0.00, 0.00
102, -187500.02, -187500.02, -187500.02, -187500.02, 117605.33, -187500.02, -187500.02, -187500.02, 0.00, 0.00, 0.00
103, -187500.02, -187500.02, -187500.02, -187500.02, 115842.00, -187500.02, -187500.02, -187500.02, 0.00, 0.00, 0.00
104, -187500.02, -187500.02, -187500.02, -187500.02, 114881.15, -187500.02, -187500.02, -187500.02, 0.00, 0.00, 0.00
105, -187500.02, -187500.02, -187500.02, -187500.02, 116183.23, -187500.02, -187500.02, -187500.02, 0.00, 0.00, 0.00
106, -187500.02, -187500.02, -187500.02, -187500.02, 117844.61, -187500.02, -187500.02, -187500.02, 0.00, 0.00, 0.00
107, -187500.02, -187500.02, -187500.02, -187500.02, 116385.06, -187500.02, -187500.02, -187500.02, 0.00, 0.00, 0.00
108, -187500.02, -187500.02, -187500.02, -187500.02, 114813.40, -187500.02, -187500.02, -187500.02, 0.00, 0.00, 0.00
109, -187500.02, -187500.02, -187500.02, -187500.02, 115883.22, -187500.02, -187500.02, -187500.02, 0.00, 0.00, 0.00
110, -187500.02, -187500.02, -187500.02, -187500.02, 118034.64, -187500.02, -187500.02, -187500.02, 0.00, 0.00, 0.00
111, -187500.02, -187500.02, -187500.02, -187500.02, 116934.82, -187500.02, -187500.02, -187500.02, 0.00, 0.00, 0.00
112, -187500.02, -187500.02, -187500.02, -187500.02, 115202.18, -187500.02, -187500.02, -187500.02, 0.00, 0.00, 0.00
113, -187500.02, -187500.02, -187500.02, -187500.02, 115748.46, -187500.02, -187500.02, -187500.02, 0.00, 0.00, 0.00
114, -187500.02, -187500.02, -187500.02, -187500.02, 118044.07, -187500.02, -187500.02, -187500.02, 0.00, 0.00, 0.00
115, -187500.02, -187500.02, -187500.02, -187500.02, 117446.70, -187500.02, -187500.02, -187500.02, 0.00, 0.00, 0.00
116, -187500.02, -187500.02, -187500.02, -187500.02, 115532.27, -187500.02, -187500.02, -187500.02, 0.00, 0.00, 0.00
117, -187500.02, -187500.02, -187500.02, -187500.02, 115778.19, -187500.02, -187500.02, -187500.02, 0.00, 0.00, 0.00
118, -187500.02, -187500.02, -187500.02, -187500.02, 117981.06, -187500.02, -187500.02, -187500.02, 0.00, 0.00, 0.00
119, -187500.02, -187500.02, -187500.02, -187500.02, 117911.21, -187500.02, -187500.02, -187500.02, 0.00, 0.00, 0.00
120, -187500.02, -187500.02, -187500.02, -187500.02, 115789.03, -187500.02, -187500.02, -187500.02, 0.00, 0.00, 0.00
121, -187500.02, -187500.02, -187500.02, -187500.02, 115428.54, -187500.02, -187500.02, -187500.02, 0.00, 0.00, 0.00
122, -187500.02, -187500.02, -187500.02, -187500.02, 117478.20, -187500.02, -187500.02, -187500.02, 0.00, 0.00, 0.00
123, -187500.02, -187500.02, -187500.02, -187500.02, 118338.18, -187500.02, -187500.02, -187500.02, 0.00, 0.00, 0.00
124, -187500.02, -187500.02, -187500.02, -187500.02, 116358.04, -187500.02, -187500.02, -187500.02, 0.00, 0.00, 0.00
125, -187500.02, -187500.02, -187500.02, -187500.02, 115512.56, -187500.02, -187500.02, -187500.02, 0.00, 0.00, 0.00
126, -187500.02, -187500.02, -187500.02, -187500.02, 117169.98, -187500.02, -187500.02, -187500.02, 0.00, 0.00, 0.00
127, -187500.02, -187500.02, -187500.02, -187500.02, 118302.46, -187500.02, -187500.02, -187500.02, 0.00, 0.00, 0.00
128, -187500.02, -187500.02, -187500.02, -187500.02, 116465.57, -187500.02, -187500.02, -187500.02, 0.00, 0.00, 0.00
129, -187500.02, -187500.02, -187500.02, -187500.02, 115290.65, -187500.02, -187500.02, -187500.02, 0.00, 0.00, 0.00
130, -187500.02, -187500.02, -187500.02, -187500.02, 116487.19, -187500.02, -187500.02, -187500.02, 0.00, 0.00, 0.00
131, -187500.02, -187500.02, -187500.02, -187500.02, 118258.18, -187500.02, -187500.02, -187500.02, 0.00, 0.00, 0.00
132, -187500.02, -187500.02, -187500.02, -187500.02, 116800.58, -187500.02, -187500.02, -187500.02, 0.00, 0.00, 0.00
133, -187500.02, -187500.02, -187500.02, -187500.02, 115334.05, -187500.02, -187500.02, -187500.02, 0.00, 0.00, 0.00
134, -187500.02, -187500.02, -187500.02, -187500.02, 115977.37, -187500.02, -187500.02, -187500.02, 0.00, 0.00, 0.00
135, -187500.02, -187500.02, -187500.02, -187500.02, 117892.02, -187500.02, -187500.02, -187500.02, 0.00, 0.00, 0.00
136, -187500.02, -187500.02, -187500.02, -187500.02, 116963.08, -187500.02, -187500.02, -187500.02, 0.00, 0.00, 0.00
137, -187500.02, -187500.02, -187500.02, -187500.02, 115378.07, -187500.02, -187500.02, -187500.02, 0.00, 0.00, 0.00
138, -187500.02, -187500.02, -187500.02, -187500.02, 115716.79, -187500.02, -187500.02, -187500.02, 0.00, 0.00, 0.00
139, -187500.02, -187500.02, -187500.02, -187500.02, 117842.20, -187500.02, -187500.02, -187500.02, 0.00, 0.00, 0.00
140, -187500.02, -187500.02, -187500.02, -187500.02, 117327.90, -187500.02, -187500.02, -187500.02, 0.00, 0.00, 0.00
141, -187500.02, -187500.02, -187500.02, -187500.02, 115238.52, -187500.02, -187500.02, -187500.02, 0.00, 0.00, 0.00
142, -187500.02, -187500.02, -187500.02, -187500.02, 115235.47, -187500.02, -187500.02, -187500.02, 0.00, 0.00, 0.00
143, -187500.02, -187500.02, -187500.02, -187500.02, 117449.23, -187500.02, -187500.02, -187500.02, 0.00, 0.00, 0.00
144, -187500.02, -187500.02, -187500.02, -187500.02, 117699.34, -187500.02, -187500.02, -187500.02, 0.00, 0.00, 0.00
145, -187500.02, -187500.02, -187500.02, -187500.02, 115642.60, -187500.02, -187500.02, -187500.02, 0.00, 0.00, 0.00
146, -187500.02, -187500.02, -187500.02, -187500.02, 115056.80, -187500.02, -187500.02, -187500.02, 0.00, 0.00, 0.00
147, -187500.02, -187500.02, -187500.02, -187500.02, 116942.80, -187500.02, -187500.02, -187500.02, 0.00, 0.00, 0.00
148, -187500.02, -187500.02, -187500.02, -187500.02, 117852.02, -187500.02, -187500.02, -187500.02, 0.00, 0.00, 0.00
149, -187500.02, -187500.02, -187500.02, -187500.02, 115836.66, -187500.02, -187500.02, -187500.02, 0.00, 0.00, 0.00
150, -187500.02, -187500.02, -187500.02, -187500.02, 114833.49, -187500.02, -187500.02, -187500.02, 0.00, 0.00, 0.00
151, -187500.02, -187500.02, -187500.02, -187500.02, 116255.09, -187500.02, -187500.02, -187500.02, 0.00, 0.00, 0.00
152, -187500.02, -187500.02, -187500.02, -187500.02, 117776.39, -187500.02, -187500.02, -187500.02, 0.00, 0.00, 0.00
153, -187500.02, -187500.02, -187500.02, -187500.02, 116127.73, -187500.02, -187500.02, -187500.02, 0.00, 0.00, 0.00
154, -187500.02, -187500.02, -187500.02, -187500.02, 114768.25, -187500.02, -187500.02, -187500.02, 0.00, 0.00, 0.00
155, -187500.02, -187500.02, -187500.02, -187500.02, 115792.63, -187500.02, -187500.02, -187500.02, 0.00, 0.00, 0.00
156, -187500.02, -187500.02, -187500.02, -187500.02, 117972.28, -187500.02, -187500.02, -187500.02, 0.00, 0.00, 0.00
157, -187500.02, -187500.02, -187500.02, -187500.02, 116710.70, -187500.02, -187500.02, -187500.02, 0.00, 0.00, 0.00
158, -187500.02, -187500.02, -187500.02, -187500.02, 114980.45, -187500.02, -187500.02, -187500.02, 0.00, 0.00, 0.00
159, -187500.02, -187500.02, -187500.02, -187500.02, 115413.99, -187500.02, -187500.02, -187500.02, 0.00, 0.00, 0.00
160, -187500.02, -187500.02, -187500.02, -187500.02, 117647.45, -187500.02, -187500.02, -187500.02, 0.00, 0.00, 0.00
161, -187500.02, -187500.02, -187500.02, -187500.02, 117077.16, -187500.02, -187500.02, -187500.02, 0.00, 0.00, 0.00
162, -187500.02, -187500.02, -187500.02, -187500.02, 115197.51, -187500.02, -187500.02, -187500.02, 0.00, 0.00, 0.00
163, -187500.02, -187500.02, -187500.02, -187500.02, 115079.65, -187500.02, -187500.02, -187500.02, 0.00, 0.00, 0.00
164, -187500.02, -187500.02, -187500.02, -187500.02, 117313.24, -187500.02, -187500.02, -187500.02, 0.00, 0.00, 0.00
165, -187500.02, -187500.02, -187500.02, -187500.02, 117468.23, -187500.02, -187500.02, -187500.02, 0.00, 0.00, 0.00
166, -187500.02, -187500.02, -187500.02, -187500.02, 115358.98, -187500.02, -187500.02, -187500.02, 0.00, 0.00, 0.00
167, -187500.02, -187500.02, -187500.02, -187500.02, 114838.27, -187500.02, -187500.02, -187500.02, 0.00, 0.00, 0.00
168, -187500.02, -187500.02, -187500.02, -187500.02, 116848.73, -187500.02, -187500.02, -187500.02, 0.00, 0.00, 0.00
169, -187500.02, -187500.02, -187500.02, -187500.02, 117803.14, -187500.02, -187500.02, -187500.02, 0.00, 0.00, 0.00
170, -187500.02, -187500.02, -187500.02, -187500.02, 115929.13, -187500.02, -187500.02, -187500.02, 0.00, 0.00, 0.00
171, -187500.02, -187500.02, -187500.02, -187500.02, 114919.52, -187500.02, -187500.02, -187500.02, 0.00, 0.00, 0.00
172, -187500.02, -187500.02, -187500.02, -187500.02, 116438.46, -187500.02, -187500.02, -187500.02, 0.00, 0.00, 0.00
173, -187500.02, -187500.02, -187500.02, -187500.02, 117827.28, -187500.02, -187500.02, -187500.02, 0.00, 0.00, 0.00
174, -187500.02, -187500.02, -187500.02, -187500.02, 116261.79, -187500.02, -187500.02, -187500.02, 0.00, 0.00, 0.00
175, -187500.02, -187500.02, -187500.02, -187500.02, 114952.56, -187500.02, -187500.02, -187500.02, 0.00, 0.00, 0.00
176, -187500.02, -187500.02, -187500.02, -187500.02, 115967.53, -187500.02, -187500.02, -187500.02, 0.00, 0.00, 0.00
177, -187500.02, -187500.02, -187500.02, -187500.02, 117882.56, -187500.02, -187500.02, -187500.02, 0.00, 0.00, 0.00
178, -187500.02, -187500.02, -187500.02, -187500.02, 116723.29, -187500.02, -187500.02, -187500.02, 0.00, 0.00, 0.00
179, -187500.02, -187500.02, -187500.02, -187500.02, 114988.16, -187500.02, -187500.02, -187500.02, 0.00, 0.00, 0.00
180, -187500.02, -187500.02, -187500.02, -187500.02, 115424.56, -187500.02, -187500.02, -187500.02, 0.00, 0.00, 0.00
181, -187500.02, -187500.02, -187500.02, -187500.02, 117608.46, -187500.02, -187500.02, -187500.02, 0.00, 0.00, 0.00
182, -187500.02, -187500.02, -187500.02, -187500.02, 116745.28, -187500.02, -187500.02, -187500.02, 0.00, 0.00, 0.00
183, -187500.02, -187500.02, -187500.02, -187500.02, 114899.34, -187500.02, -187500.02, -187500.02, 0.00, 0.00, 0.00
184, -187500.02, -187500.02, -187500.02, -187500.02, 115008.75, -187500.02, -187500.02, -187500.02, 0.00, 0.00, 0.00
185, -187500.02, -187500.02, -187500.02, -187500.02, 117355.62, -187500.02, -187500.02, -187500.02, 0.00, 0.00, 0.00
186, -187500.02, -187500.02, -187500.02, -187500.02, 117340.30, -187500.02, -187500.02, -187500.02, 0.00, 0.00, 0.00
187, -187500.02, -187500.02, -187500.02, -187500.02, 115011.08, -187500.02, -187500.02, -187500.02, 0.00, 0.00, 0.00
188, -187500.02, -187500.02, -187500.02, -187500.02, 114389.88, -187500.02, -187500.02, -187500.02, 0.00, 0.00, 0.00
189, -187500.02, -187500.02, -187500.02, -187500.02, 116509.20, -187500.02, -187500.02, -187500.02, 0.00, 0.00, 0.00
190, -187500.02, -187500.02, -187500.02, -187500.02, 117248.62, -187500.02, -187500.02, -187500.02, 0.00, 0.00, 0.00
191, -187500.02, -187500.02, -187500.02, -187500.02, 115507.91, -187500.02, -187500.02, -187500.02, 0.00, 0.00, 0.00
192, -187500.02, -187500.02, -187500.02, -187500.02, 116011.14, -187500.02, -187500.02, -187500.02, 0.00, 0.00, 0.00
193, -187500.02, -187500.02, -187500.02, -187500.02, 117778.34, -187500.02, -187500.02, -187500.02, 0.00, 0.00, 0.00
194, -187500.02, -187500.02, -187500.02, -187500.02, 116175.52, -187500.02, -187500.02, -187500.02, 0.00, 0.00, 0.00
195, -187500.02, -187500.02, -187500.02, -187500.02, 113859.65, -187500.02, -187500.02, -187500.02, 0.00, 0.00, 0.00
196, -187500.02, -187500.02, -187500.02, -187500.02, 115461.91, -187500.02, -187500.02, -187500.02, 0.00, 0.00, 0.00
197, -187500.02, -187500.02, -187500.02, -187500.02, 117840.25, -187500.02, -187500.02, -187500.02, 0.00, 0.00, 0.00
198, -187500.02, -187500.02, -187500.02, -187500.02, 116943.77, -187500.02, -187500.02, -187500.02, 0.00, 0.00, 0.00
199, -187500.02, -187500.02, -187500.02, -187500.02, 114000.02, -187500.02, -187500.02, -187500.02, 0.00, 0.00, 0.00
200, -187500.02, -187500.02, -187500.02, -187500.02, 115076.92, -187500.02, -187500.02, -187500.02, 0.00, 0.00, 0.00
201, -187500.02, -187500.02, -187500.02, -187500.02, 117653.34, -187500.02, -187500.02, -187500.02, 0.00, 0.00, 0.00
202, -187500.02, -187500.02, -187500.02, -187500.02, 117435.08, -187500.02, -187500.02, -187500.02, 0.00, 0.00, 0.00
203, -187500.02, -187500.02, -187500.02, -187500.02, 114357.96, -187500.02, -187500.02, -187500.02, 0.00, 0.00, 0.00
204, -187500.02, -187500.02, -187500.02, -187500.02, 114627.19, -187500.02, -187500.02, -187500.02, 0.00, 0.00, 0.00
205, -187500.02, -187500.02, -187500.02, -187500.02, 117226.42, -187500.02, -187500.02, -187500.02, 0.00, 0.00, 0.00
206, -187500.02, -187500.02, -187500.02, -187500.02, 117715.46, -187500.02, -187500.02, -187500.02, 0.00, 0.00, 0.00
207, -187500.02, -187500.02, -187500.02, -187500.02, 114742.81, -187500.02, -187500.02, -187500.02, 0.00, 0.00, 0.00
208, -187500.02, -187500.02, -187500.02, -187500.02, 114482.46, -187500.02, -187500.02, -187500.02, 0.00, 0.00, 0.00
209, -187500.02, -187500.02, -187500.02, -187500.02, 117088.73, -187500.02, -187500.02, -187500.02, 0.00, 0.00, 0.00
210, -187500.02, -187500.02, -187500.02, -187500.02, 118247.95, -187500.02, -187500.02, -187500.02, 0.00, 0.00, 0.00
211, -187500.02, -187500.02, -187500.02, -187500.02, 115585.74, -187500.02, -187500.02, -187500.02, 0.00, 0.00, 0.00
212, -187500.02, -187500.02, -187500.02, -187500.02, 114338.35, -187500.02, -187500.02, -187500.02, 0.00, 0.00, 0.00
213, -187500.02, -187500.02, -187500.02, -187500.02, 116850.91, -187500.02, -187500.02, -187500.02, 0.00, 0.00, 0.00
214, -187500.02, -187500.02, -187500.02, -187500.02, 118505.62, -187500.02, -187500.02, -187500.02, 0.00, 0.00, 0.00
215, -187500.02, -187500.02, -187500.02, -187500.02, 116453.16, -187500.02, -187500.02, -187500.02, 0.00, 0.00, 0.00
216, -187500.02, -187500.02, -187500.02, -187500.02, 114688.27, -187500.02, -187500.02, -187500.02, 0.00, 0.00, 0.00
217, -187500.02, -187500.02, -187500.02, -187500.02, 116771.39, -187500.02, -187500.02, -187500.02, 0.00, 0.00, 0.00
218, -187500.02, -187500.02, -187500.02, -187500.02, 118705.30, -187500.02, -187500.02, -187500.02, 0.00, 0.00, 0.00
219, -187500.02, -187500.02, -187500.02, -187500.02, 117191.63, -187500.02, -187500.02, -187500.02, 0.00, 0.00, 0.00
220, -187500.02, -187500.02, -187500.02, -187500.02, 114779.16, -187500.02, -187500.02, -187500.02, 0.00, 0.00, 0.00
221, -187500.02, -187500.02, -187500.02, -187500.02, 116403.57, -187500.02, -187500.02, -187500.02, 0.00, 0.00, 0.00
222, -187500.02, -187500.02, -187500.02, -187500.02, 118821.83, -187500.02, -187500.02, -187500.02, 0.00, 0.00, 0.00
223, -187500.02, -187500.02, -187500.02, -187500.02, 117983.03, -187500.02, -187500.02, -187500.02, 0.00, 0.00, 0.00
224, -187500.02, -187500.02, -187500.02, -187500.02, 115058.02, -187500.02, -187500.02, -187500.02, 0.00, 0.00, 0.00
225, -187500.02, -187500.02, -187500.02, -187500.02, 115871.51, -187500.02, -187500.02, -187500.02, 0.00, 0.00, 0.00
226, -187500.02, -187500.02, -187500.02, -187500.02, 118460.17, -187500.02, -187500.02, -187500.02, 0.00, 0.00, 0.00
227, -187500.02, -187500.02, -187500.02, -187500.02, 118544.88, -187500.02, -187500.02, -187500.02, 0.00, 0.00, 0.00
228, -187500.02, -187500.02, -187500.02, -187500.02, 115584.55, -187500.02, -187500.02, -187500.02, 0.00, 0.00, 0.00
229, -187500.02, -187500.02, -187500.02, -187500.02, 115624.43, -187500.02, -187500.02, -187500.02, 0.00, 0.00, 0.00
230, -187500.02, -187500.02, -187500.02, -187500.02, 118128.25, -187500.02, -187500.02, -187500.02, 0.00, 0.00, 0.00
231, -187500.02, -187500.02, -187500.02, -187500.02, 118718.96, -187500.02, -187500.02, -187500.02, 0.00, 0.00, 0.00
232, -187500.02, -187500.02, -187500.02, -187500.02, 115864.69, -187500.02, -187500.02, -187500.02, 0.00, 0.00, 0.00
233, -187500.02, -187500.02, -187500.02, -187500.02, 115292.80, -187500.02, -187500.02, -187500.02, 0.00, 0.00, 0.00
234, -187500.02, -187500.02, -187500.02, -187500.02, 117889.31, -187500.02, -187500.02, -187500.02, 0.00, 0.00, 0.00
235, -187500.02, -187500.02, -187500.02, -187500.02, 119186.60, -187500.02, -187500.02, -187500.02, 0.00, 0.00, 0.00
236, -187500.02, -187500.02, -187500.02, -187500.02, 116680.28, -187500.02, -187500.02, -187500.02, 0.00, 0.00, 0.00
237, -187500.02, -187500.02, -187500.02, -187500.02, 115174.76, -187500.02, -187500.02, -187500.02, 0.00, 0.00, 0.00
238, -187500.02, -187500.02, -187500.02, -187500.02, 117358.52, -187500.02, -187500.02, -187500.02, 0.00, 0.00, 0.00
239, -187500.02, -187500.02, -187500.02, -187500.02, 119299.28, -187500.02, -187500.02, -187500.02, 0.00, 0.00, 0.00
240, -187500.02, -187500.02, -187500.02, -187500.02, 117244.57, -187500.02, -187500.02, -187500.02, 0.00, 0.00, 0.00
241, -187500.02, -187500.02, -187500.02, -187500.02, 115023.80, -187500.02, -187500.02, -187500.02, 0.00, 0.00, 0.00
242, -187500.02, -187500.02, -187500.02, -187500.02, 116803.87, -187500.02, -187500.02, -187500.02, 0.00, 0.00, 0.00
243, -187500.02, -187500.02, -187500.02, -187500.02, 118820.44, -187500.02, -187500.02, -187500.02, 0.00, 0.00, 0.00
244, -187500.02, -187500.02, -187500.02, -187500.02, 117503.07, -187500.02, -187500.02, -187500.02, 0.00, 0.00, 0.00
245, -187500.02, -187500.02, -187500.02, -187500.02, 114826.12, -187500.02, -187500.02, -187500.02, 0.00, 0.00, 0.00
246, -187500.02, -187500.02, -187500.02, -187500.02, 116049.78, -187500.02, -187500.02, -187500.02, 0.00, 0.00, 0.00
247, -187500.02, -187500.02, -187500.02, -187500.02, 118415.20, -187500.02, -187500.02, -187500.02, 0.00, 0.00, 0.00
248, -187500.02, -187500.02, -187500.02, -187500.02, 117776.75, -187500.02, -187500.02, -187500.02, 0.00, 0.00, 0.00
249, -187500.02, -187500.02, -187500.02, -187500.02, 114637.45, -187500.02, -187500.02, -187500.02, 0.00, 0.00, 0.00
250, -187500.02, -187500.02, -187500.02, -187500.02, 115294.07, -187500.02, -187500.02, -187500.02, 0.00, 0.00, 0.00
251, -187500.02, -187500.02, -187500.02, -187500.02, 117747.40, -187500.02, -187500.02, -187500.02, 0.00, 0.00, 0.00
252, -187500.02, -187500.02, -187500.02, -187500.02, 117916.31, -187500.02, -187500.02, -187500.02, 0.00, 0.00, 0.00
253, -187500.02, -187500.02, -187500.02, -187500.02, 114881.05, -187500.02, -187500.02, -187500.02, 0.00, 0.00, 0.00
254, -187500.02, -187500.02, -187500.02, -187500.02, 114425.52, -187500.02, -187500.02, -187500.02, 0.00, 0.00, 0.00
255, -187500.02, -187500.02, -187500.02, -187500.02, 116764.68, -187500.02, -187500.02, -187500.02, 0.00, 0.00, 0.00
0, -187500.02, -187500.02, -187500.02, -187500.02, 117732.13, -187500.02, -187500.02, -187500.02, 0.00, 0.00, 0.00
1, -187500.02, -187500.02, -187500.02, -187500.02, 114936.64, -187500.02, -187500.02, -187500.02, 0.00, 0.00, 0.00
2, -187500.02, -187500.02, -187500.02, -187500.02, 113940.49, -187500.02, -187500.02, -187500.02, 0.00, 0.00, 0.00
3, -187500.02, -187500.02, -187500.02, -187500.02, 116223.75, -187500.02, -187500.02, -187500.02, 0.00, 0.00, 0.00
4, -187500.02, -187500.02, -187500.02, -187500.02, 117669.95, -187500.02, -187500.02, -187500.02, 0.00, 0.00, 0.00
5, -187500.02, -187500.02, -187500.02, -187500.02, 115331.89, -187500.02, -187500.02, -187500.02, 0.00, 0.00, 0.00
6, -187500.02, -187500.02, -187500.02, -187500.02, 113533.27, -187500.02, -187500.02, -187500.02, 0.00, 0.00, 0.00
7, -187500.02, -187500.02, -187500.02, -187500.02, 115433.03, -187500.02, -187500.02, -187500.02, 0.00, 0.00, 0.00
8, -187500.02, -187500.02, -187500.02, -187500.02, 117456.05, -187500.02, -187500.02, -187500.02, 0.00, 0.00, 0.00
9, -187500.02, -187500.02, -187500.02, -187500.02, 115989.48, -187500.02, -187500.02, -187500.02, 0.00, 0.00, 0.00
10, -187500.02, -187500.02, -187500.02, -187500.02, 113841.41, -187500.02, -187500.02, -187500.02, 0.00, 0.00, 0.00
11, -187500.02, -187500.02, -187500.02, -187500.02, 115618.95, -187500.02, -187500.02, -187500.02, 0.00, 0.00, 0.00
12, -187500.02, -187500.02, -187500.02, -187500.02, 118164.52, -187500.02, -187500.02, -187500.02, 0.00, 0.00, 0.00
13, -187500.02, -187500.02, -187500.02, -187500.02, 117205.34, -187500.02, -187500.02, -187500.02, 0.00, 0.00, 0.00
14, -187500.02, -187500.02, -187500.02, -187500.02, 114451.01, -187500.02, -187500.02, -187500.02, 0.00, 0.00, 0.00
15, -187500.02, -187500.02, -187500.02, -187500.02, 115483.21, -187500.02, -187500.02, -187500.02, 0.00, 0.00, 0.00
16, -187500.02, -187500.02, -187500.02, -187500.02, 117936.63, -187500.02, -187500.02, -187500.02, 0.00, 0.00, 0.00
17, -187500.02, -187500.02, -187500.02, -187500.02, 117610.72, -187500.02, -187500.02, -187500.02, 0.00, 0.00, 0.00
18, -187500.02, -187500.02, -187500.02, -187500.02, 114525.30, -187500.02, -187500.02, -187500.02, 0.00, 0.00, 0.00
19, -187500.02, -187500.02, -187500.02, -187500.02, 114768.41, -187500.02, -187500.02, -187500.02, 0.00, 0.00, 0.00
20, -187500.02, -187500.02, -187500.02, -187500.02, 117349.36, -187500.02, -187500.02, -187500.02, 0.00, 0.00, 0.00
21, -187500.02, -187500.02, -187500.02, -187500.02, 117796.66, -187500.02, -187500.02, -187500.02, 0.00, 0.00, 0.00
22, -187500.02, -187500.02, -187500.02, -187500.02, 114781.03, -187500.02, -187500.02, -187500.02, 0.00, 0.00, 0.00
23, -187500.02, -187500.02, -187500.02, -187500.02, 114282.81, -187500.02, -187500.02, -187500.02, 0.00, 0.00, 0.00
24, -187500.02, -187500.02, -187500.02, -187500.02, 116866.07, -187500.02, -187500.02, -187500.02, 0.00, 0.00, 0.00
25, -187500.02, -187500.02, -187500.02, -187500.02, 117846.23, -187500.02, -187500.02, -187500.02, 0.00, 0.00, 0.00
26, -187500.02, -187500.02, -187500.02, -187500.02, 115129.38, -187500.02, -187500.02, -187500.02, 0.00, 0.00, 0.00
27, -187500.02, -187500.02, -187500.02, -187500.02, 113766.38, -187500.02, -187500.02, -187500.02, 0.00, 0.00, 0.00
28, -187500.02, -187500.02, -187500.02, -187500.02, 115913.93, -187500.02, -187500.02, -187500.02, 0.00, 0.00, 0.00
29, -187500.02, -187500.02, -187500.02, -187500.02, 117425.96, -187500.02, -187500.02, -187500.02, 0.00, 0.00, 0.00
30, -187500.02, -187500.02, -187500.02, -187500.02, 115001.82, -187500.02, -187500.02, -187500.02, 0.00, 0.00, 0.00
31, -187500.02, -187500.02, -187500.02, -187500.02, 113062.63, -187500.02, -187500.02, -187500.02, 0.00, 0.00, 0.00
32, -187500.02, -187500.02, -187500.02, -187500.02, 115090.89, -187500.02, -187500.02, -187500.02, 0.00, 0.00, 0.00
33, -187500.02, -187500.02, -187500.02, -187500.02, 117244.69, -187500.02, -187500.02, -187500.02, 0.00, 0.00, 0.00
34, -187500.02, -187500.02, -187500.02, -187500.02, 116046.72, -187500.02, -187500.02, -187500.02, 0.00, 0.00, 0.00
35, -187500.02, -187500.02, -187500.02, -187500.02, 113833.32, -187500.02, -187500.02, -187500.02, 0.00, 0.00, 0.00
36, -187500.02, -187500.02, -187500.02, -187500.02, 115600.58, -187500.02, -187500.02, -187500.02, 0.00, 0.00, 0.00
37, -187500.02, -187500.02, -187500.02, -187500.02, 118357.53, -187500.02, -187500.02, -187500.02, 0.00, 0.00, 0.00
38, -187500.02, -187500.02, -187500.02, -187500.02, 117861.64, -187500.02, -187500.02, -187500.02, 0.00, 0.00, 0.00
39, -187500.02, -187500.02, -187500.02, -187500.02, 114875.02, -187500.02, -187500.02, -187500.02, 0.00, 0.00, 0.00
40, -187500.02, -187500.02, -187500.02, -187500.02, 115682.05, -187500.02, -187500.02, -187500.02, 0.00, 0.00, 0.00
41, -187500.02, -187500.02, -187500.02, -187500.02, 118182.37, -187500.02, -187500.02, -187500.02, 0.00, 0.00, 0.00
42, -187500.02, -187500.02, -187500.02, -187500.02, 118159.68, -187500.02, -187500.02, -187500.02, 0.00, 0.00, 0.00
43, -187500.02, -187500.02, -187500.02, -187500.02, 115165.57, -187500.02, -187500.02, -187500.02, 0.00, 0.00, 0.00
44, -187500.02, -187500.02, -187500.02, -187500.02, 115088.88, -187500.02, -187500.02, -187500.02, 0.00, 0.00, 0.00
45, -187500.02, -187500.02, -187500.02, -187500.02, 117517.24, -187500.02, -187500.02, -187500.02, 0.00, 0.00, 0.00
46, -187500.02, -187500.02, -187500.02, -187500.02, 118257.38, -187500.02, -187500.02, -187500.02, 0.00, 0.00, 0.00
47, -187500.02, -187500.02, -187500.02, -187500.02, 115250.77, -187500.02, -187500.02, -187500.02, 0.00, 0.00, 0.00
48, -187500.02, -187500.02, -187500.02, -187500.02, 114343.72, -187500.02, -187500.02, -187500.02, 0.00, 0.00, 0.00
49, -187500.02, -187500.02, -187500.02, -187500.02, 116709.52, -187500.02, -187500.02, -187500.02, 0.00, 0.00, 0.00
50, -187500.02, -187500.02, -187500.02, -187500.02, 118004.00, -187500.02, -187500.02, -187500.02, 0.00, 0.00, 0.00
51, -187500.02, -187500.02, -187500.02, -187500.02, 115363.83, -187500.02, -187500.02, -187500.02, 0.00, 0.00, 0.00
52, -187500.02, -187500.02, -187500.02, -187500.02, 113673.66, -187500.02, -187500.02, -187500.02, 0.00, 0.00, 0.00
53, -187500.02, -187500.02, -187500.02, -187500.02, 115606.13, -187500.02, -187500.02, -187500.02, 0.00, 0.00, 0.00
54, -187500.02, -187500.02, -187500.02, -187500.02, 117356.87, -187500.02, -187500.02, -187500.02, 0.00, 0.00, 0.00
55, -187500.02, -187500.02, -187500.02, -187500.02, 115631.94, -187500.02, -187500.02, -187500.02, 0.00, 0.00, 0.00
56, -187500.02, -187500.02, -187500.02, -187500.02, 113369.70, -187500.02, -187500.02, -187500.02, 0.00, 0.00, 0.00
57, -187500.02, -187500.02, -187500.02, -187500.02, 114962.41, -187500.02, -187500.02, -187500.02, 0.00, 0.00, 0.00
58, -187500.02, -187500.02, -187500.02, -187500.02, 117338.23, -187500.02, -187500.02, -187500.02, 0.00, 0.00, 0.00
59, -187500.02, -187500.02, -187500.02, -187500.02, 116353.25, -187500.02, -187500.02, -187500.02, 0.00, 0.00, 0.00
60, -187500.02, -187500.02, -187500.02, -187500.02, 113905.80, -187500.02, -187500.02, -187500.02, 0.00, 0.00, 0.00
61, -187500.02, -187500.02, -187500.02, -187500.02, 115440.61, -187500.02, -187500.02, -187500.02, 0.00, 0.00, 0.00
62, -187500.02, -187500.02, -187500.02, -187500.02, 118113.19, -187500.02, -187500.02, -187500.02, 0.00, 0.00, 0.00
63, -187500.02, -187500.02, -187500.02, -187500.02, 118012.38, -187500.02, -187500.02, -187500.02, 0.00, 0.00, 0.00
64, -187500.02, -187500.02, -187500.02, -187500.02, 115299.30, -187500.02, -187500.02, -187500.02, 0.00, 0.00, 0.00
65, -187500.02, -187500.02, -187500.02, -187500.02, 115821.80, -187500.02, -187500.02, -187500.02, 0.00, 0.00, 0.00
66, -187500.02, -187500.02, -187500.02, -187500.02, 118408.83, -187500.02, -187500.02, -187500.02, 0.00, 0.00, 0.00
67, -187500.02, -187500.02, -187500.02, -187500.02, 118485.88, -187500.02, -187500.02, -187500.02, 0.00, 0.00, 0.00
68, -187500.02, -187500.02, -187500.02, -187500.02, 115431.18, -187500.02, -187500.02, -187500.02, 0.00, 0.00, 0.00
69, -187500.02, -187500.02, -187500.02, -187500.02, 115026.84, -187500.02, -187500.02, -187500.02, 0.00, 0.00, 0.00
70, -187500.02, -187500.02, -187500.02, -187500.02, 117449.30, -187500.02, -187500.02, -187500.02, 0.00, 0.00, 0.00
71, -187500.02, -187500.02, -187500.02, -187500.02, 118359.77, -187500.02, -187500.02, -187500.02, 0.00, 0.00, 0.00
72, -187500.02, -187500.02, -187500.02, -187500.02, 115561.45, -187500.02, -187500.02, -187500.02, 0.00, 0.00, 0.00
73, -187500.02, -187500.02, -187500.02, -187500.02, 114144.07, -187500.02, -187500.02, -187500.02, 0.00, 0.00, 0.00
74, -187500.02, -187500.02, -187500.02, -187500.02, 116216.53, -187500.02, -187500.02, -187500.02, 0.00, 0.00, 0.00
75, -187500.02, -187500.02, -187500.02, -187500.02, 117813.54, -187500.02, -187500.02, -187500.02, 0.00, 0.00, 0.00
76, -187500.02, -187500.02, -187500.02, -187500.02, 115603.42, -187500.02, -187500.02, -187500.02, 0.00, 0.00, 0.00
77, -187500.02, -187500.02, -187500.02, -187500.02, 113646.97, -187500.02, -187500.02, -187500.02, 0.00, 0.00, 0.00
78, -187500.02, -187500.02, -187500.02, -187500.02, 115655.90, -187500.02, -187500.02, -187500.02, 0.00, 0.00, 0.00
79, -187500.02, -187500.02, -187500.02, -187500.02, 117651.11, -187500.02, -187500.02, -187500.02, 0.00, 0.00, 0.00
80, -187500.02, -187500.02, -187500.02, -187500.02, 116022.94, -187500.02, -187500.02, -187500.02, 0.00, 0.00, 0.00
81, -187500.02, -187500.02, -187500.02, -187500.02, 113518.18, -187500.02, -187500.02, -187500.02, 0.00, 0.00, 0.00
82, -187500.02, -187500.02, -187500.02, -187500.02, 115231.87, -187500.02, -187500.02, -187500.02, 0.00, 0.00, 0.00
83, -187500.02, -187500.02, -187500.02, -187500.02, 117760.19, -187500.02, -187500.02, -187500.02, 0.00, 0.00, 0.00
84, -187500.02, -187500.02, -187500.02, -187500.02, 117168.58, -187500.02, -187500.02, -187500.02, 0.00, 0.00, 0.00
85, -187500.02, -187500.02, -187500.02, -187500.02, 114572.36, -187500.02, -187500.02, -187500.02, 0.00, 0.00, 0.00
86, -187500.02, -187500.02, -187500.02, -187500.02, 115906.64, -187500.02, -187500.02, -187500.02, 0.00, 0.00, 0.00
87, -187500.02, -187500.02, -187500.02, -187500.02, 118863.48, -187500.02, -187500.02, -187500.02, 0.00, 0.00, 0.00
88, -187500.02, -187500.02, -187500.02, -187500.02, 118888.63, -187500.02, -187500.02, -187500.02, 0.00, 0.00, 0.00
89, -187500.02, -187500.02, -187500.02, -187500.02, 115820.68, -187500.02, -187500.02, -187500.02, 0.00, 0.00, 0.00
90, -187500.02, -187500.02, -187500.02, -187500.02, 115944.38, -187500.02, -187500.02, -187500.02, 0.00, 0.00, 0.00
91, -187500.02, -187500.02, -187500.02, -187500.02, 118506.40, -187500.02, -187500.02, -187500.02, 0.00, 0.00, 0.00
92, -187500.02, -187500.02, -187500.02, -187500.02, 118910.13, -187500.02, -187500.02, -187500.02, 0.00, 0.00, 0.00
93, -187500.02, -187500.02, -187500.02, -187500.02, 115820.45, -187500.02, -187500.02, -187500.02, 0.00, 0.00, 0.00
94, -187500.02, -187500.02, -187500.02, -187500.02, 115039.69, -187500.02, -187500.02, -187500.02, 0.00, 0.00, 0.00
95, -187500.02, -187500.02, -187500.02, -187500.02, 117568.48, -187500.02, -187500.02, -187500.02, 0.00, 0.00, 0.00
96, -187500.02, -187500.02, -187500.02, -187500.02, 118754.16, -187500.02, -187500.02, -187500.02, 0.00, 0.00, 0.00
97, -187500.02, -187500.02, -187500.02, -187500.02, 116097.44, -187500.02, -187500.02, -187500.02, 0.00, 0.00, 0.00
98, -187500.02, -187500.02, -187500.02, -187500.02, 114726.80, -187500.02, -187500.02, -187500.02, 0.00, 0.00, 0.00
99, -187500.02, -187500.02, -187500.02, -187500.02, 116962.09, -187500.02, -187500.02, -187500.02, 0.00, 0.00, 0.00
100, -187500.02, -187500.02, -187500.02, -187500.02, 118764.29, -187500.02, -187500.02, -187500.02, 0.00, 0.00, 0.00
101, -187500.02, -187500.02, -187500.02, -187500.02, 116517.67, -187500.02, -187500.02, -187500.02, 0.00, 0.00, 0.00
102, -187500.02, -187500.02, -187500.02, -187500.02, 114105.56, -187500.02, -187500.02, -187500.02, 0.00, 0.00, 0.00
103, -187500.02, -187500.02, -187500.02, -187500.02, 115773.61, -187500.02, -187500.02, -187500.02, 0.00, 0.00, 0.00
104, -187500.02, -187500.02, -187500.02, -187500.02, 117866.00, -187500.02, -187500.02, -187500.02, 0.00, 0.00, 0.00
105, -187500.02, -187500.02, -187500.02, -187500.02, 116527.04, -187500.02, -187500.02, -187500.02, 0.00, 0.00, 0.00
106, -187500.02, -187500.02, -187500.02, -187500.02, 113783.30, -187500.02, -187500.02, -187500.02, 0.00, 0.00, 0.00
107, -187500.02, -187500.02, -187500.02, -187500.02, 114955.53, -187500.02, -187500.02, -187500.02, 0.00, 0.00, 0.00
108, -187500.02, -187500.02, -187500.02, -187500.02, 117305.02, -187500.02, -187500.02, -187500.02, 0.00, 0.00, 0.00
109, -187500.02, -187500.02, -187500.02, -187500.02, 116712.38, -187500.02, -187500.02, -187500.02, 0.00, 0.00, 0.00
110, -187500.02, -187500.02, -187500.02, -187500.02, 113830.68, -187500.02, -187500.02, -187500.02, 0.00, 0.00, 0.00
111, -187500.02, -187500.02, -187500.02, -187500.02, 114617.69, -187500.02, -187500.02, -187500.02, 0.00, 0.00, 0.00
112, -187500.02, -187500.02, -187500.02, -187500.02, 117282.05, -187500.02, -187500.02, -187500.02, 0.00, 0.00, 0.00
113, -187500.02, -187500.02, -187500.02, -187500.02, 117651.51, -187500.02, -187500.02, -187500.02, 0.00, 0.00, 0.00
114, -187500.02, -187500.02, -187500.02, -187500.02, 114896.52, -187500.02, -187500.02, -187500.02, 0.00, 0.00, 0.00
115, -187500.02, -187500.02, -187500.02, -187500.02, 114992.81, -187500.02, -187500.02, -187500.02, 0.00, 0.00, 0.00
116, -187500.02, -187500.02, -187500.02, -187500.02, 117920.49, -187500.02, -187500.02, -187500.02, 0.00, 0.00, 0.00
117, -187500.02, -187500.02, -187500.02, -187500.02, 119126.99, -187500.02, -187500.02, -187500.02, 0.00, 0.00, 0.00
118, -187500.02, -187500.02, -187500.02, -187500.02, 116351.06, -187500.02, -187500.02, -187500.02, 0.00, 0.00, 0.00
119, -187500.02, -187500.02, -187500.02, -187500.02, 115339.60, -187500.02, -187500.02, -187500.02, 0.00, 0.00, 0.00
120, -187500.02, -187500.02, -187500.02, -187500.02, 117590.20, -187500.02, -187500.02, -187500.02, 0.00, 0.00, 0.00
121, -187500.02, -187500.02, -187500.02, -187500.02, 119054.22, -187500.02, -187500.02, -187500.02, 0.00, 0.00, 0.00
122, -187500.02, -187500.02, -187500.02, -187500.02, 116544.49, -187500.02, -187500.02, -187500.02, 0.00, 0.00, 0.00
123, -187500.02, -187500.02, -187500.02, -187500.02, 114681.99, -187500.02, -187500.02, -187500.02, 0.00, 0.00, 0.00
124, -187500.02, -187500.02, -187500.02, -187500.02, 116749.62, -187500.02, -187500.02, -187500.02, 0.00, 0.00, 0.00
125, -187500.02, -187500.02, -187500.02, -187500.02, 118570.37, -187500.02, -187500.02, -187500.02, 0.00, 0.00, 0.00
126, -187500.02, -187500.02, -187500.02, -187500.02, 116656.90, -187500.02, -187500.02, -187500.02, 0.00, 0.00, 0.00
127, -187500.02, -187500.02, -187500.02, -187500.02, 114199.10, -187500.02, -187500.02, -187500.02, 0.00, 0.00, 0.00
128, -187500.02, -187500.02, -187500.02, -187500.02, 115754.23, -187500.02, -187500.02, -187500.02, 0.00, 0.00, 0.00
129, -187500.02, -187500.02, -187500.02, -187500.02, 118009.63, -187500.02, -187500.02, -187500.02, 0.00, 0.00, 0.00
130, -187500.02, -187500.02, -187500.02, -187500.02, 116894.55, -187500.02, -187500.02, -187500.02, 0.00, 0.00, 0.00
131, -187500.02, -187500.02, -187500.02, -187500.02, 113827.13, -187500.02, -187500.02, -187500.02, 0.00, 0.00, 0.00
132, -187500.02, -187500.02, -187500.02, -187500.02, 114698.66, -187500.02, -187500.02, -187500.02, 0.00, 0.00, 0.00
133, -187500.02, -187500.02, -187500.02, -187500.02, 117114.84, -187500.02, -187500.02, -187500.02, 0.00, 0.00, 0.00
134, -187500.02, -187500.02, -187500.02, -187500.02, 116768.30, -187500.02, -187500.02, -187500.02, 0.00, 0.00, 0.00
135, -187500.02, -187500.02, -187500.02, -187500.02, 113630.84, -187500.02, -187500.02, -187500.02, 0.00, 0.00, 0.00
136, -187500.02, -187500.02, -187500.02, -187500.02, 114051.31, -187500.02, -187500.02, -187500.02, 0.00, 0.00, 0.00
137, -187500.02, -187500.02, -187500.02, -187500.02, 116658.98, -187500.02, -187500.02, -187500.02, 0.00, 0.00, 0.00
138, -187500.02, -187500.02, -187500.02, -187500.02, 116963.92, -187500.02, -187500.02, -187500.02, 0.00, 0.00, 0.00
139, -187500.02, -187500.02, -187500.02, -187500.02, 113806.67, -187500.02, -187500.02, -187500.02, 0.00, 0.00, 0.00
140, -187500.02, -187500.02, -187500.02, -187500.02, 113370.01, -187500.02, -187500.02, -187500.02, 0.00, 0.00, 0.00
141, -187500.02, -187500.02, -187500.02, -187500.02, 115999.16, -187500.02, -187500.02, -187500.02, 0.00, 0.00, 0.00
142, -187500.02, -187500.02, -187500.02, -187500.02, 117346.84, -187500.02, -187500.02, -187500.02, 0.00, 0.00, 0.00
143, -187500.02, -187500.02, -187500.02, -187500.02, 114957.32, -187500.02, -187500.02, -187500.02, 0.00, 0.00, 0.00
144, -187500.02, -187500.02, -187500.02, -187500.02, 114172.62, -187500.02, -187500.02, -187500.02, 0.00, 0.00, 0.00
145, -187500.02, -187500.02, -187500.02, -187500.02, 116856.34, -187500.02, -187500.02, -187500.02, 0.00, 0.00, 0.00
146, -187500.02, -187500.02, -187500.02, -187500.02, 118805.38, -187500.02, -187500.02, -187500.02, 0.00, 0.00, 0.00
147, -187500.02, -187500.02, -187500.02, -187500.02, 116675.79, -187500.02, -187500.02, -187500.02, 0.00, 0.00, 0.00
148, -187500.02, -187500.02, -187500.02, -187500.02, 114787.47, -187500.02, -187500.02, -187500.02, 0.00, 0.00, 0.00
149, -187500.02, -187500.02, -187500.02, -187500.02, 116781.18, -187500.02, -187500.02, -187500.02, 0.00, 0.00, 0.00
150, -187500.02, -187500.02, -187500.02, -187500.02, 118872.97, -187500.02, -187500.02, -187500.02, 0.00, 0.00, 0.00
151, -187500.02, -187500.02, -187500.02, -187500.02, 117396.41, -187500.02, -187500.02, -187500.02, 0.00, 0.00, 0.00
152, -187500.02, -187500.02, -187500.02, -187500.02, 114898.98, -187500.02, -187500.02, -187500.02, 0.00, 0.00, 0.00
153, -187500.02, -187500.02, -187500.02, -187500.02, 116246.70, -187500.02, -187500.02, -187500.02, 0.00, 0.00, 0.00
154, -187500.02, -187500.02, -187500.02, -187500.02, 118586.82, -187500.02, -187500.02, -187500.02, 0.00, 0.00, 0.00
155, -187500.02, -187500.02, -187500.02, -187500.02, 117740.70, -187500.02, -187500.02, -187500.02, 0.00, 0.00, 0.00
156, -187500.02, -187500.02, -187500.02, -187500.02, 114749.60, -187500.02, -187500.02, -187500.02, 0.00, 0.00, 0.00
157, -187500.02, -187500.02, -187500.02, -187500.02, 115561.04, -187500.02, -187500.02, -187500.02, 0.00, 0.00, 0.00
158, -187500.02, -187500.02, -187500.02, -187500.02, 118118.73, -187500.02, -187500.02, -187500.02, 0.00, 0.00, 0.00
159, -187500.02, -187500.02, -187500.02, -187500.02, 117844.38, -187500.02, -187500.02, -187500.02, 0.00, 0.00, 0.00
160, -187500.02, -187500.02, -187500.02, -187500.02, 114561.96, -187500.02, -187500.02, -187500.02, 0.00, 0.00, 0.00
161, -187500.02, -187500.02, -187500.02, -187500.02, 114590.35, -187500.02, -187500.02, -187500.02, 0.00, 0.00, 0.00
162, -187500.02, -187500.02, -187500.02, -187500.02, 117080.13, -187500.02, -187500.02, -187500.02, 0.00, 0.00, 0.00
163, -187500.02, -187500.02, -187500.02, -187500.02, 117712.30, -187500.02, -187500.02, -187500.02, 0.00, 0.00, 0.00
164, -187500.02, -187500.02, -187500.02, -187500.02, 114717.62, -187500.02, -187500.02, -187500.02, 0.00, 0.00, 0.00
165, -187500.02, -187500.02, -187500.02, -187500.02, 113985.24, -187500.02, -187500.02, -187500.02, 0.00, 0.00, 0.00
166, -187500.02, -187500.02, -187500.02, -187500.02, 116343.42, -187500.02, -187500.02, -187500.02, 0.00, 0.00, 0.00
167, -187500.02, -187500.02, -187500.02, -187500.02, 117711.97, -187500.02, -187500.02, -187500.02, 0.00, 0.00, 0.00
168, -187500.02, -187500.02, -187500.02, -187500.02, 115505.81, -187500.02, -187500.02, -187500.02, 0.00, 0.00, 0.00
169, -187500.02, -187500.02, -187500.02, -187500.02, 114342.09, -187500.02, -187500.02, -187500.02, 0.00, 0.00, 0.00
170, -187500.02, -187500.02, -187500.02, -187500.02, 116813.95, -187500.02, -187500.02, -187500.02, 0.00, 0.00, 0.00
171, -187500.02, -187500.02, -187500.02, -187500.02, 118925.60, -187500.02, -187500.02, -187500.02, 0.00, 0.00, 0.00
172, -187500.02, -187500.02, -187500.02, -187500.02, 117016.92, -187500.02, -187500.02, -187500.02, 0.00, 0.00, 0.00
173, -187500.02, -187500.02, -187500.02, -187500.02, 114790.24, -187500.02, -187500.02, -187500.02, 0.00, 0.00, 0.00
174, -187500.02, -187500.02, -187500.02, -187500.02, 116544.56, -187500.02, -187500.02, -187500.02, 0.00, 0.00, 0.00
175, -187500.02, -187500.02, -187500.02, -187500.02, 118631.23, -187500.02, -187500.02, -187500.02, 0.00, 0.00, 0.00
176, -187500.02, -187500.02, -187500.02, -187500.02, 117258.88, -187500.02, -187500.02, -187500.02, 0.00, 0.00, 0.00
177, -187500.02, -187500.02, -187500.02, -187500.02, 114366.54, -187500.02, -187500.02, -187500.02, 0.00, 0.00, 0.00
178, -187500.02, -187500.02, -187500.02, -187500.02, 115360.75, -187500.02, -187500.02, -187500.02, 0.00, 0.00, 0.00
179, -187500.02, -187500.02, -187500.02, -187500.02, 117684.14, -187500.02, -187500.02, -187500.02, 0.00, 0.00, 0.00
180, -187500.02, -187500.02, -187500.02, -187500.02, 116999.84, -187500.02, -187500.02, -187500.02, 0.00, 0.00, 0.00
181, -187500.02, -187500.02, -187500.02, -187500.02, 113824.80, -187500.02, -187500.02, -187500.02, 0.00, 0.00, 0.00
182, -187500.02, -187500.02, -187500.02, -187500.02, 114203.69, -187500.02, -187500.02, -187500.02, 0.00, 0.00, 0.00
183, -187500.02, -187500.02, -187500.02, -187500.02, 116594.70, -187500.02, -187500.02, -187500.02, 0.00, 0.00, 0.00
184, -187500.02, -187500.02, -187500.02, -187500.02, 116713.18, -187500.02, -187500.02, -187500.02, 0.00, 0.00, 0.00
185, -187500.02, -187500.02, -187500.02, -187500.02, 113405.98, -187500.02, -187500.02, -187500.02, 0.00, 0.00, 0.00
186, -187500.02, -187500.02, -187500.02, -187500.02, 112907.91, -187500.02, -187500.02, -187500.02, 0.00, 0.00, 0.00
187, -187500.02, -187500.02, -187500.02, -187500.02, 115334.80, -187500.02, -187500.02, -187500.02, 0.00, 0.00, 0.00
188, -187500.02, -187500.02, -187500.02, -187500.02, 116153.59, -187500.02, -187500.02, -187500.02, 0.00, 0.00, 0.00
189, -187500.02, -187500.02, -187500.02, -187500.02, 113425.16, -187500.02, -187500.02, -187500.02, 0.00, 0.00, 0.00
190, -187500.02, -187500.02, -187500.02, -187500.02, 112557.44, -187500.02, -187500.02, -187500.02, 0.00, 0.00, 0.00
191, -187500.02, -187500.02, -187500.02, -187500.02, 114951.40, -187500.02, -187500.02, -187500.02, 0.00, 0.00, 0.00
192, -187500.02, -187500.02, -187500.02, -187500.02, 116689.02, -187500.02, -187500.02, -187500.02, 0.00, 0.00, 0.00
193, -187500.02, -187500.02, -187500.02, -187500.02, 114446.27, -187500.02, -187500.02, -187500.02, 0.00, 0.00, 0.00
194, -187500.02, -187500.02, -187500.02, -187500.02, 112957.87, -187500.02, -187500.02, -187500.02, 0.00, 0.00, 0.00
195, -187500.02, -187500.02, -187500.02, -187500.02, 115277.30, -187500.02, -187500.02, -187500.02, 0.00, 0.00, 0.00
196, -187500.02, -187500.02, -187500.02, -187500.02, 117561.32, -187500.02, -187500.02, -187500.02, 0.00, 0.00, 0.00
197, -187500.02, -187500.02, -187500.02, -187500.02, 116092.45, -187500.02, -187500.02, -187500.02, 0.00, 0.00, 0.00
198, -187500.02, -187500.02, -187500.02, -187500.02, 113801.06, -187500.02, -187500.02, -187500.02, 0.00, 0.00, 0.00
199, -187500.02, -187500.02, -187500.02, -187500.02, 115286.52, -187500.02, -187500.02, -187500.02, 0.00, 0.00, 0.00
200, -187500.02, -187500.02, -187500.02, -187500.02, 117515.84, -187500.02, -187500.02, -187500.02, 0.00, 0.00, 0.00
201, -187500.02, -187500.02, -187500.02, -187500.02, 116497.35, -187500.02, -187500.02, -187500.02, 0.00, 0.00, 0.00
202, -187500.02, -187500.02, -187500.02, -187500.02, 113734.70, -187500.02, -187500.02, -187500.02, 0.00, 0.00, 0.00
203, -187500.02, -187500.02, -187500.02, -187500.02, 114539.66, -187500.02, -187500.02, -187500.02, 0.00, 0.00, 0.00
204, -187500.02, -187500.02, -187500.02, -187500.02, 116906.91, -187500.02, -187500.02, -187500.02, 0.00, 0.00, 0.00
205, -187500.02, -187500.02, -187500.02, -187500.02, 116675.38, -187500.02, -187500.02, -187500.02, 0.00, 0.00, 0.00
206, -187500.02, -187500.02, -187500.02, -187500.02, 113614.20, -187500.02, -187500.02, -187500.02, 0.00, 0.00, 0.00
207, -187500.02, -187500.02, -187500.02, -187500.02, 114026.46, -187500.02, -187500.02, -187500.02, 0.00, 0.00, 0.00
208, -187500.02, -187500.02, -187500.02, -187500.02, 116701.00, -187500.02, -187500.02, -187500.02, 0.00, 0.00, 0.00
209, -187500.02, -187500.02, -187500.02, -187500.02, 117066.63, -187500.02, -187500.02, -187500.02, 0.00, 0.00, 0.00
210, -187500.02, -187500.02, -187500.02, -187500.02, 114106.12, -187500.02, -187500.02, -187500.02, 0.00, 0.00, 0.00
211, -187500.02, -187500.02, -187500.02, -187500.02, 113418.36, -187500.02, -187500.02, -187500.02, 0.00, 0.00, 0.00
212, -187500.02, -187500.02, -187500.02, -187500.02, 115754.34, -187500.02, -187500.02, -187500.02, 0.00, 0.00, 0.00
213, -187500.02, -187500.02, -187500.02, -187500.02, 116821.88, -187500.02, -187500.02, -187500.02, 0.00, 0.00, 0.00
214, -187500.02, -187500.02, -187500.02, -187500.02, 114180.77, -187500.02, -187500.02, -187500.02, 0.00, 0.00, 0.00
215, -187500.02, -187500.02, -187500.02, -187500.02, 112939.29, -187500.02, -187500.02, -187500.02, 0.00, 0.00, 0.00
216, -187500.02, -187500.02, -187500.02, -187500.02, 114922.81, -187500.02, -187500.02, -187500.02, 0.00, 0.00, 0.00
217, -187500.02, -187500.02, -187500.02, -187500.02, 116727.98, -187500.02, -187500.02, -187500.02, 0.00, 0.00, 0.00
218, -187500.02, -187500.02, -187500.02, -187500.02, 114893.98, -187500.02, -187500.02, -187500.02, 0.00, 0.00, 0.00
219, -187500.02, -187500.02, -187500.02, -187500.02, 113189.12, -187500.02, -187500.02, -187500.02, 0.00, 0.00, 0.00
220, -187500.02, -187500.02, -187500.02, -187500.02, 115324.91, -187500.02, -187500.02, -187500.02, 0.00, 0.00, 0.00
221, -187500.02, -187500.02, -187500.02, -187500.02, 117583.83, -187500.02, -187500.02, -187500.02, 0.00, 0.00, 0.00
222, -187500.02, -187500.02, -187500.02, -187500.02, 116435.73, -187500.02, -187500.02, -187500.02, 0.00, 0.00, 0.00
223, -187500.02, -187500.02, -187500.02, -187500.02, 113870.65, -187500.02, -187500.02, -187500.02, 0.00, 0.00, 0.00
224, -187500.02, -187500.02, -187500.02, -187500.02, 115077.66, -187500.02, -187500.02, -187500.02, 0.00, 0.00, 0.00
225, -187500.02, -187500.02, -187500.02, -187500.02, 117323.99, -187500.02, -187500.02, -187500.02, 0.00, 0.00, 0.00
226, -187500.02, -187500.02, -187500.02, -187500.02, 116754.18, -187500.02, -187500.02, -187500.02, 0.00, 0.00, 0.00
227, -187500.02, -187500.02, -187500.02, -187500.02, 113810.85, -187500.02, -187500.02, -187500.02, 0.00, 0.00, 0.00
228, -187500.02, -187500.02, -187500.02, -187500.02, 114321.03, -187500.02, -187500.02, -187500.02, 0.00, 0.00, 0.00
229, -187500.02, -187500.02, -187500.02, -187500.02, 116667.23, -187500.02, -187500.02, -187500.02, 0.00, 0.00, 0.00
230, -187500.02, -187500.02, -187500.02, -187500.02, 116690.77, -187500.02, -187500.02, -187500.02, 0.00, 0.00, 0.00
231, -187500.02, -187500.02, -187500.02, -187500.02, 113680.39, -187500.02, -187500.02, -187500.02, 0.00, 0.00, 0.00
232, -187500.02, -187500.02, -187500.02, -187500.02, 113406.40, -187500.02, -187500.02, -187500.02, 0.00, 0.00, 0.00
233, -187500.02, -187500.02, -187500.02, -187500.02, 115754.61, -187500.02, -187500.02, -187500.02, 0.00, 0.00, 0.00
234, -187500.02, -187500.02, -187500.02, -187500.02, 116526.73, -187500.02, -187500.02, -187500.02, 0.00, 0.00, 0.00
235, -187500.02, -187500.02, -187500.02, -187500.02, 113965.04, -187500.02, -187500.02, -187500.02, 0.00, 0.00, 0.00
236, -187500.02, -187500.02, -187500.02, -187500.02, 113009.48, -187500.02, -187500.02, -187500.02, 0.00, 0.00, 0.00
237, -187500.02, -187500.02, -187500.02, -187500.02, 115233.19, -187500.02, -187500.02, -187500.02, 0.00, 0.00, 0.00
238, -187500.02, -187500.02, -187500.02, -187500.02, 116655.29, -187500.02, -187500.02, -187500.02, 0.00, 0.00, 0.00
239, -187500.02, -187500.02, -187500.02, -187500.02, 114338.69, -187500.02, -187500.02, -187500.02, 0.00, 0.00, 0.00
240, -187500.02, -187500.02, -187500.02, -187500.02, 112548.14, -187500.02, -187500.02, -187500.02, 0.00, 0.00, 0.00
241, -187500.02, -187500.02, -187500.02, -187500.02, 114408.12, -187500.02, -187500.02, -187500.02, 0.00, 0.00, 0.00
242, -187500.02, -187500.02, -187500.02, -187500.02, 116189.48, -187500.02, -187500.02, -187500.02, 0.00, 0.00, 0.00
243, -187500.02, -187500.02, -187500.02, -187500.02, 114445.04, -187500.02, -187500.02, -187500.02, 0.00, 0.00, 0.00
244, -187500.02, -187500.02, -187500.02, -187500.02, 111965.54, -187500.02, -187500.02, -187500.02, 0.00, 0.00, 0.00
245, -187500.02, -187500.02, -187500.02, -187500.02, 113495.94, -187500.02, -187500.02, -187500.02, 0.00, 0.00, 0.00
246, -187500.02, -187500.02, -187500.02, -187500.02, 115685.90, -187500.02, -187500.02, -187500.02, 0.00, 0.00, 0.00
247, -187500.02, -187500.02, -187500.02, -187500.02, 114631.77, -187500.02, -187500.02, -187500.02, 0.00, 0.00, 0.00
248, -187500.02, -187500.02, -187500.02, -187500.02, 111988.63, -187500.02, -187500.02, -187500.02, 0.00, 0.00, 0.00
249, -187500.02, -187500.02, -187500.02, -187500.02, 112880.64, -187500.02, -187500.02, -187500.02, 0.00, 0.00, 0.00
250, -187500.02, -187500.02, -187500.02, -187500.02, 115244.70, -187500.02, -187500.02, -187500.02, 0.00, 0.00, 0.00
251, -187500.02, -187500.02, -187500.02, -187500.02, 115257.44, -187500.02, -187500.02, -187500.02, 0.00, 0.00, 0.00
252, -187500.02, -187500.02, -187500.02, -187500.02, 112763.97, -187500.02, -187500.02, -187500.02, 0.00, 0.00, 0.00
253, -187500.02, -187500.02, -187500.02, -187500.02, 113351.59, -187500.02, -187500.02, -187500.02, 0.00, 0.00, 0.00
254, -187500.02, -187500.02, -187500.02, -187500.02, 116104.63, -187500.02, -187500.02, -187500.02, 0.00, 0.00, 0.00
255, -187500.02, -187500.02, -187500.02, -187500.02, 116744.14, -187500.02, -187500.02, -187500.02, 0.00, 0.00, 0.00
0, -187500.02, -187500.02, -187500.02, -187500.02, 114066.60, -187500.02, -187500.02, -187500.02, 0.00, 0.00, 0.00
1, -187500.02, -187500.02, -187500.02, -187500.02, 113629.76, -187500.02, -187500.02, -187500.02, 0.00, 0.00, 0.00
2, -187500.02, -187500.02, -187500.02, -187500.02, 115833.44, -187500.02, -187500.02, -187500.02, 0.00, 0.00, 0.00
3, -187500.02, -187500.02, -187500.02, -187500.02, 117018.69, -187500.02, -187500.02, -187500.02, 0.00, 0.00, 0.00
4, -187500.02, -187500.02, -187500.02, -187500.02, 114573.16, -187500.02, -187500.02, -187500.02, 0.00, 0.00, 0.00
5, -187500.02, -187500.02, -187500.02, -187500.02, 113141.69, -187500.02, -187500.02, -187500.02, 0.00, 0.00, 0.00
6, -187500.02, -187500.02, -187500.02, -187500.02, 115094.98, -187500.02, -187500.02, -187500.02, 0.00, 0.00, 0.00
7, -187500.02, -187500.02, -187500.02, -187500.02, 116694.63, -187500.02, -187500.02, -187500.02, 0.00, 0.00, 0.00
8, -187500.02, -187500.02, -187500.02, -187500.02, 114721.77, -187500.02, -187500.02, -187500.02, 0.00, 0.00, 0.00
9, -187500.02, -187500.02, -187500.02, -187500.02, 112756.10, -187500.02, -187500.02, -187500.02, 0.00, 0.00, 0.00
10, -187500.02, -187500.02, -187500.02, -187500.02, 114237.66, -187500.02, -187500.02, -187500.02, 0.00, 0.00, 0.00
11, -187500.02, -187500.02, -187500.02, -187500.02, 116006.35, -187500.02, -187500.02, -187500.02, 0.00, 0.00, 0.00
12, -187500.02, -187500.02, -187500.02, -187500.02, 114617.55, -187500.02, -187500.02, -187500.02, 0.00, 0.00, 0.00
13, -187500.02, -187500.02, -187500.02, -187500.02, 112358.95, -187500.02, -187500.02, -187500.02, 0.00, 0.00, 0.00
14, -187500.02, -187500.02, -187500.02, -187500.02, 113316.27, -187500.02, -187500.02, -187500.02, 0.00, 0.00, 0.00
15, -187500.02, -187500.02, -187500.02, -187500.02, 115412.36, -187500.02, -187500.02, -187500.02, 0.00, 0.00, 0.00
16, -187500.02, -187500.02, -187500.02, -187500.02, 114756.02, -187500.02, -187500.02, -187500.02, 0.00, 0.00, 0.00
17, -187500.02, -187500.02, -187500.02, -187500.02, 112116.95, -187500.02, -187500.02, -187500.02, 0.00, 0.00, 0.00
18, -187500.02, -187500.02, -187500.02, -187500.02, 112584.37, -187500.02, -187500.02, -187500.02, 0.00, 0.00, 0.00
19, -187500.02, -187500.02, -187500.02, -187500.02, 114918.07, -187500.02, -187500.02, -187500.02, 0.00, 0.00, 0.00
20, -187500.02, -187500.02, -187500.02, -187500.02, 115444.27, -187500.02, -187500.02, -187500.02, 0.00, 0.00, 0.00
21, -187500.02, -187500.02, -187500.02, -187500.02, 113175.95, -187500.02, -187500.02, -187500.02, 0.00, 0.00, 0.00
22, -187500.02, -187500.02, -187500.02, -187500.02, 113352.69, -187500.02, -187500.02, -187500.02, 0.00, 0.00, 0.00
23, -187500.02, -187500.02, -187500.02, -187500.02, 115640.16, -187500.02, -187500.02, -187500.02, 0.00, 0.00, 0.00
24, -187500.02, -187500.02, -187500.02, -187500.02, 116998.52, -187500.02, -187500.02, -187500.02, 0.00, 0.00, 0.00
25, -187500.02, -187500.02, -187500.02, -187500.02, 114732.06, -187500.02, -187500.02, -187500.02, 0.00, 0.00, 0.00
26, -187500.02, -187500.02, -187500.02, -187500.02, 113664.36, -187500.02, -187500.02, -187500.02, 0.00, 0.00, 0.00
27, -187500.02, -187500.02, -187500.02, -187500.02, 115334.98, -187500.02, -187500.02, -187500.02, 0.00, 0.00, 0.00
28, -187500.02, -187500.02, -187500.02, -187500.02, 116785.13, -187500.02, -187500.02, -187500.02, 0.00, 0.00, 0.00
29, -187500.02, -187500.02, -187500.02, -187500.02, 115019.26, -187500.02, -187500.02, -187500.02, 0.00, 0.00, 0.00
30, -187500.02, -187500.02, -187500.02, -187500.02, 113329.29, -187500.02, -187500.02, -187500.02, 0.00, 0.00, 0.00
31, -187500.02, -187500.02, -187500.02, -187500.02, 114398.70, -187500.02, -187500.02, -187500.02, 0.00, 0.00, 0.00
32, -187500.02, -187500.02, -187500.02, -187500.02, 115818.76, -187500.02, -187500.02, -187500.02, 0.00, 0.00, 0.00
33, -187500.02, -187500.02, -187500.02, -187500.02, 114333.62, -187500.02, -187500.02, -187500.02, 0.00, 0.00, 0.00
34, -187500.02, -187500.02, -187500.02, -187500.02, 112260.88, -187500.02, -187500.02, -187500.02, 0.00, 0.00, 0.00
35, -187500.02, -187500.02, -187500.02, -187500.02, 113189.21, -187500.02, -187500.02, -187500.02, 0.00, 0.00, 0.00
36, -187500.02, -187500.02, -187500.02, -187500.02, 115119.86, -187500.02, -187500.02, -187500.02, 0.00, 0.00, 0.00
37, -187500.02, -187500.02, -187500.02, -187500.02, 114492.67, -187500.02, -187500.02, -187500.02, 0.00, 0.00, 0.00
38, -187500.02, -187500.02, -187500.02, -187500.02, 112248.71, -187500.02, -187500.02, -187500.02, 0.00, 0.00, 0.00
39, -187500.02, -187500.02, -187500.02, -187500.02, 112672.81, -187500.02, -187500.02, -187500.02, 0.00, 0.00, 0.00
40, -187500.02, -187500.02, -187500.02, -187500.02, 114667.55, -187500.02, -187500.02, -187500.02, 0.00, 0.00, 0.00
41, -187500.02, -187500.02, -187500.02, -187500.02, 114752.13, -187500.02, -187500.02, -187500.02, 0.00, 0.00, 0.00
42, -187500.02, -187500.02, -187500.02, -187500.02, 112344.24, -187500.02, -187500.02, -187500.02, 0.00, 0.00, 0.00
43, -187500.02, -187500.02, -187500.02, -187500.02, 112407.57, -187500.02, -187500.02, -187500.02, 0.00, 0.00, 0.00
44, -187500.02, -187500.02, -187500.02, -187500.02, 114384.73, -187500.02, -187500.02, -187500.02, 0.00, 0.00, 0.00
45, -187500.02, -187500.02, -187500.02, -187500.02, 115269.93, -187500.02, -187500.02, -187500.02, 0.00, 0.00, 0.00
46, -187500.02, -187500.02, -187500.02, -187500.02, 113097.41, -187500.02, -187500.02, -187500.02, 0.00, 0.00, 0.00
47, -187500.02, -187500.02, -187500.02, -187500.02, 112868.17, -187500.02, -187500.02, -187500.02, 0.00, 0.00, 0.00
48, -187500.02, -187500.02, -187500.02, -187500.02, 115013.45, -187500.02, -187500.02, -187500.02, 0.00, 0.00, 0.00
49, -187500.02, -187500.02, -187500.02, -187500.02, 116331.55, -187500.02, -187500.02, -187500.02, 0.00, 0.00, 0.00
50, -187500.02, -187500.02, -187500.02, -187500.02, 114997.73, -187500.02, -187500.02, -187500.02, 0.00, 0.00, 0.00
51, -187500.02, -187500.02, -187500.02, -187500.02, 113993.27, -187500.02, -187500.02, -187500.02, 0.00, 0.00, 0.00
52, -187500.02, -187500.02, -187500.02, -187500.02, 114481.79, -187500.02, -187500.02, -187500.02, 0.00, 0.00, 0.00
53, -187500.02, -187500.02, -187500.02, -187500.02, 115642.83, -187500.02, -187500.02, -187500.02, 0.00, 0.00, 0.00
54, -187500.02, -187500.02, -187500.02, -187500.02, 114995.99, -187500.02, -187500.02, -187500.02, 0.00, 0.00, 0.00
55, -187500.02, -187500.02, -187500.02, -187500.02, 113511.12, -187500.02, -187500.02, -187500.02, 0.00, 0.00, 0.00
56, -187500.02, -187500.02, -187500.02, -187500.02, 113645.83, -187500.02, -187500.02, -187500.02, 0.00, 0.00, 0.00
57, -187500.02, -187500.02, -187500.02, -187500.02, 114946.95, -187500.02, -187500.02, -187500.02, 0.00, 0.00, 0.00
58, -187500.02, -187500.02, -187500.02, -187500.02, 114745.42, -187500.02, -187500.02, -187500.02, 0.00, 0.00, 0.00
59, -187500.02, -187500.02, -187500.02, -187500.02, 113071.48, -187500.02, -187500.02, -187500.02, 0.00, 0.00, 0.00
60, -187500.02, -187500.02, -187500.02, -187500.02, 112777.16, -187500.02, -187500.02, -187500.02, 0.00, 0.00, 0.00
61, -187500.02, -187500.02, -187500.02, -187500.02, 114058.02, -187500.02, -187500.02, -187500.02, 0.00, 0.00, 0.00
62, -187500.02, -187500.02, -187500.02, -187500.02, 114495.89, -187500.02, -187500.02, -187500.02, 0.00, 0.00, 0.00
63, -187500.02, -187500.02, -187500.02, -187500.02, 112809.12, -187500.02, -187500.02, -187500.02, 0.00, 0.00, 0.00
64, -187500.02, -187500.02, -187500.02, -187500.02, 112100.14, -187500.02, -187500.02, -187500.02, 0.00, 0.00, 0.00
65, -187500.02, -187500.02, -187500.02, -187500.02, 113083.41, -187500.02, -187500.02, -187500.02, 0.00, 0.00, 0.00
66, -187500.02, -187500.02, -187500.02, -187500.02, 114261.94, -187500.02, -187500.02, -187500.02, 0.00, 0.00, 0.00
67, -187500.02, -187500.02, -187500.02, -187500.02, 112851.20, -187500.02, -187500.02, -187500.02, 0.00, 0.00, 0.00
68, -187500.02, -187500.02, -187500.02, -187500.02, 111931.88, -187500.02, -187500.02, -187500.02, 0.00, 0.00, 0.00
69, -187500.02, -187500.02, -187500.02, -187500.02, 112881.65, -187500.02, -187500.02, -187500.02, 0.00, 0.00, 0.00
70, -187500.02, -187500.02, -187500.02, -187500.02, 114477.43, -187500.02, -187500.02, -187500.02, 0.00, 0.00, 0.00
71, -187500.02, -187500.02, -187500.02, -187500.02, 113739.10, -187500.02, -187500.02, -187500.02, 0.00, 0.00, 0.00
72, -187500.02, -187500.02, -187500.02, -187500.02, 112885.49, -187500.02, -187500.02, -187500.02, 0.00, 0.00, 0.00
73, -187500.02, -187500.02, -187500.02, -187500.02, 113494.53, -187500.02, -187500.02, -187500.02, 0.00, 0.00, 0.00
74, -187500.02, -187500.02, -187500.02, -187500.02, 115127.59, -187500.02, -187500.02, -187500.02, 0.00, 0.00, 0.00
75, -187500.02, -187500.02, -187500.02, -187500.02, 114625.77, -187500.02, -187500.02, -187500.02, 0.00, 0.00, 0.00
76, -187500.02, -187500.02, -187500.02, -187500.02, 113278.77, -187500.02, -187500.02, -187500.02, 0.00, 0.00, 0.00
77, -187500.02, -187500.02, -187500.02, -187500.02, 113576.50, -187500.02, -187500.02, -187500.02, 0.00, 0.00, 0.00
78, -187500.02, -187500.02, -187500.02, -187500.02, 115064.54, -187500.02, -187500.02, -187500.02, 0.00, 0.00, 0.00
79, -187500.02, -187500.02, -187500.02, -187500.02, 114997.42, -187500.02, -187500.02, -187500.02, 0.00, 0.00, 0.00
80, -187500.02, -187500.02, -187500.02, -187500.02, 113389.97, -187500.02, -187500.02, -187500.02, 0.00, 0.00, 0.00
81, -187500.02, -187500.02, -187500.02, -187500.02, 112951.48, -187500.02, -187500.02, -187500.02, 0.00, 0.00, 0.00
82, -187500.02, -187500.02, -187500.02, -187500.02, 114173.89, -187500.02, -187500.02, -187500.02, 0.00, 0.00, 0.00
83, -187500.02, -187500.02, -187500.02, -187500.02, 114737.98, -187500.02, -187500.02, -187500.02, 0.00, 0.00, 0.00
84, -187500.02, -187500.02, -187500.02, -187500.02, 113088.54, -187500.02, -187500.02, -187500.02, 0.00, 0.00, 0.00
85, -187500.02, -187500.02, -187500.02, -187500.02, 112395.03, -187500.02, -187500.02, -187500.02, 0.00, 0.00, 0.00
86, -187500.02, -187500.02, -187500.02, -187500.02, 113417.95, -187500.02, -187500.02, -187500.02, 0.00, 0.00, 0.00
87, -187500.02, -187500.02, -187500.02, -187500.02, 114268.95, -187500.02, -187500.02, -187500.02, 0.00, 0.00, 0.00
88, -187500.02, -187500.02, -187500.02, -187500.02, 112726.41, -187500.02, -187500.02, -187500.02, 0.00, 0.00, 0.00
89, -187500.02, -187500.02, -187500.02, -187500.02, 111877.00, -187500.02, -187500.02, -187500.02, 0.00, 0.00, 0.00
90, -187500.02, -187500.02, -187500.02, -187500.02, 112714.59, -187500.02, -187500.02, -187500.02, 0.00, 0.00, 0.00
91, -187500.02, -187500.02, -187500.02, -187500.02, 114088.33, -187500.02, -187500.02, -187500.02, 0.00, 0.00, 0.00
92, -187500.02, -187500.02, -187500.02, -187500.02, 112788.87, -187500.02, -187500.02, -187500.02, 0.00, 0.00, 0.00
93, -187500.02, -187500.02, -187500.02, -187500.02, 111768.60, -187500.02, -187500.02, -187500.02, 0.00, 0.00, 0.00
94, -187500.02, -187500.02, -187500.02, -187500.02, 112370.73, -187500.02, -187500.02, -187500.02, 0.00, 0.00, 0.00
95, -187500.02, -187500.02, -187500.02, -187500.02, 114086.32, -187500.02, -187500.02, -187500.02, 0.00, 0.00, 0.00
96, -187500.02, -187500.02, -187500.02, -187500.02, 113589.75, -187500.02, -187500.02, -187500.02, 0.00, 0.00, 0.00
97, -187500.02, -187500.02, -187500.02, -187500.02, 112621.61, -187500.02, -187500.02, -187500.02, 0.00, 0.00, 0.00
98, -187500.02, -187500.02, -187500.02, -187500.02, 113171.88, -187500.02, -187500.02, -187500.02, 0.00, 0.00, 0.00
99, -187500.02, -187500.02, -187500.02, -187500.02, 114908.26, -187500.02, -187500.02, -187500.02, 0.00, 0.00, 0.00
100, -187500.02, -187500.02, -187500.02, -187500.02, 114778.71, -187500.02, -187500.02, -187500.02, 0.00, 0.00, 0.00
101, -187500.02, -187500.02, -187500.02, -187500.02, 113345.76, -187500.02, -187500.02, -187500.02, 0.00, 0.00, 0.00
102, -187500.02, -187500.02, -187500.02, -187500.02, 113327.68, -187500.02, -187500.02, -187500.02, 0.00, 0.00, 0.00
103, -187500.02, -187500.02, -187500.02, -187500.02, 114768.72, -187500.02, -187500.02, -187500.02, 0.00, 0.00, 0.00
104, -187500.02, -187500.02, -187500.02, -187500.02, 114938.57, -187500.02, -187500.02, -187500.02, 0.00, 0.00, 0.00
105, -187500.02, -187500.02, -187500.02, -187500.02, 113020.43, -187500.02, -187500.02, -187500.02, 0.00, 0.00, 0.00
106, -187500.02, -187500.02, -187500.02, -187500.02, 112418.50, -187500.02, -187500.02, -187500.02, 0.00, 0.00, 0.00
107, -187500.02, -187500.02, -187500.02, -187500.02, 113706.59, -187500.02, -187500.02, -187500.02, 0.00, 0.00, 0.00
108, -187500.02, -187500.02, -187500.02, -187500.02, 114450.34, -187500.02, -187500.02, -187500.02, 0.00, 0.00, 0.00
109, -187500.02, -187500.02, -187500.02, -187500.02, 112733.32, -187500.02, -187500.02, -187500.02, 0.00, 0.00, 0.00
110, -187500.02, -187500.02, -187500.02, -187500.02, 111995.05, -187500.02, -187500.02, -187500.02, 0.00, 0.00, 0.00
111, -187500.02, -187500.02, -187500.02, -187500.02, 113110.84, -187500.02, -187500.02, -187500.02, 0.00, 0.00, 0.00
112, -187500.02, -187500.02, -187500.02, -187500.02, 114230.20, -187500.02, -187500.02, -187500.02, 0.00, 0.00, 0.00
113, -187500.02, -187500.02, -187500.02, -187500.02, 112858.87, -187500.02, -187500.02, -187500.02, 0.00, 0.00, 0.00
114, -187500.02, -187500.02, -187500.02, -187500.02, 111723.88, -187500.02, -187500.02, -187500.02, 0.00, 0.00, 0.00
115, -187500.02, -187500.02, -187500.02, -187500.02, 112351.20, -187500.02, -187500.02, -187500.02, 0.00, 0.00, 0.00
116, -187500.02, -187500.02, -187500.02, -187500.02, 113779.05, -187500.02, -187500.02, -187500.02, 0.00, 0.00, 0.00
117, -187500.02, -187500.02, -187500.02, -187500.02, 112888.63, -187500.02, -187500.02, -187500.02, 0.00, 0.00, 0.00
118, -187500.02, -187500.02, -187500.02, -187500.02, 111454.04, -187500.02, -187500.02, -187500.02, 0.00, 0.00, 0.00
119, -187500.02, -187500.02, -187500.02, -187500.02, 111682.45, -187500.02, -187500.02, -187500.02, 0.00, 0.00, 0.00
120, -187500.02, -187500.02, -187500.02, -187500.02, 113811.48, -187500.02, -187500.02, -187500.02, 0.00, 0.00, 0.00
121, -187500.02, -187500.02, -187500.02, -187500.02, 113848.16, -187500.02, -187500.02, -187500.02, 0.00, 0.00, 0.00
122, -187500.02, -187500.02, -187500.02, -187500.02, 112531.75, -187500.02, -187500.02, -187500.02, 0.00, 0.00, 0.00
123, -187500.02, -187500.02, -187500.02, -187500.02, 112577.13, -187500.02, -187500.02, -187500.02, 0.00, 0.00, 0.00
124, -187500.02, -187500.02, -187500.02, -187500.02, 114680.23, -187500.02, -187500.02, -187500.02, 0.00, 0.00, 0.00
125, -187500.02, -187500.02, -187500.02, -187500.02, 115248.23, -187500.02, -187500.02, -187500.02, 0.00, 0.00, 0.00
126, -187500.02, -187500.02, -187500.02, -187500.02, 113439.26, -187500.02, -187500.02, -187500.02, 0.00, 0.00, 0.00
127, -187500.02, -187500.02, -187500.02, -187500.02, 112711.04, -187500.02, -187500.02, -187500.02, 0.00, 0.00, 0.00
128, -187500.02, -187500.02, -187500.02, -187500.02, 114420.16, -187500.02, -187500.02, -187500.02, 0.00, 0.00, 0.00
129, -187500.02, -187500.02, -187500.02, -187500.02, 115250.51, -187500.02, -187500.02, -187500.02, 0.00, 0.00, 0.00
130, -187500.02, -187500.02, -187500.02, -187500.02, 113370.88, -187500.02, -187500.02, -187500.02, 0.00, 0.00, 0.00
131, -187500.02, -187500.02, -187500.02, -187500.02, 112146.66, -187500.02, -187500.02, -187500.02, 0.00, 0.00, 0.00
132, -187500.02, -187500.02, -187500.02, -187500.02, 113224.84, -187500.02, -187500.02, -187500.02, 0.00, 0.00, 0.00
133, -187500.02, -187500.02, -187500.02, -187500.02, 114621.15, -187500.02, -187500.02, -187500.02, 0.00, 0.00, 0.00
134, -187500.02, -187500.02, -187500.02, -187500.02, 113066.14, -187500.02, -187500.02, -187500.02, 0.00, 0.00, 0.00
135, -187500.02, -187500.02, -187500.02, -187500.02, 111791.35, -187500.02, -187500.02, -187500.02, 0.00, 0.00, 0.00
136, -187500.02, -187500.02, -187500.02, -187500.02, 112610.34, -187500.02, -187500.02, -187500.02, 0.00, 0.00, 0.00
137, -187500.02, -187500.02, -187500.02, -187500.02, 113894.80, -187500.02, -187500.02, -187500.02, 0.00, 0.00, 0.00
138, -187500.02, -187500.02, -187500.02, -187500.02, 112530.70, -187500.02, -187500.02, -187500.02, 0.00, 0.00, 0.00
139, -187500.02, -187500.02, -187500.02, -187500.02, 111350.69, -187500.02, -187500.02, -187500.02, 0.00, 0.00, 0.00
140, -187500.02, -187500.02, -187500.02, -187500.02, 112028.82, -187500.02, -187500.02, -187500.02, 0.00, 0.00, 0.00
141, -187500.02, -187500.02, -187500.02, -187500.02, 113527.95, -187500.02, -187500.02, -187500.02, 0.00, 0.00, 0.00
142, -187500.02, -187500.02, -187500.02, -187500.02, 112618.97, -187500.02, -187500.02, -187500.02, 0.00, 0.00, 0.00
143, -187500.02, -187500.02, -187500.02, -187500.02, 111136.36, -187500.02, -187500.02, -187500.02, 0.00, 0.00, 0.00
144, -187500.02, -187500.02, -187500.02, -187500.02, 111400.40, -187500.02, -187500.02, -187500.02, 0.00, 0.00, 0.00
145, -187500.02, -187500.02, -187500.02, -187500.02, 113037.82, -187500.02, -187500.02, -187500.02, 0.00, 0.00, 0.00
146, -187500.02, -187500.02, -187500.02, -187500.02, 112593.55, -187500.02, -187500.02, -187500.02, 0.00, 0.00, 0.00
147, -187500.02, -187500.02, -187500.02, -187500.02, 111104.17, -187500.02, -187500.02, -187500.02, 0.00, 0.00, 0.00
148, -187500.02, -187500.02, -187500.02, -187500.02, 110943.46, -187500.02, -187500.02, -187500.02, 0.00, 0.00, 0.00
149, -187500.02, -187500.02, -187500.02, -187500.02, 112708.82, -187500.02, -187500.02, -187500.02, 0.00, 0.00, 0.00
150, -187500.02, -187500.02, -187500.02, -187500.02, 113162.95, -187500.02, -187500.02, -187500.02, 0.00, 0.00, 0.00
151, -187500.02, -187500.02, -187500.02, -187500.02, 111843.74, -187500.02, -187500.02, -187500.02, 0.00, 0.00, 0.00
152, -187500.02, -187500.02, -187500.02, -187500.02, 111704.07, -187500.02, -187500.02, -187500.02, 0.00, 0.00, 0.00
153, -187500.02, -187500.02, -187500.02, -187500.02, 113502.20, -187500.02, -187500.02, -187500.02, 0.00, 0.00, 0.00
154, -187500.02, -187500.02, -187500.02, -187500.02, 114535.81, -187500.02, -187500.02, -187500.02, 0.00, 0.00, 0.00
155, -187500.02, -187500.02, -187500.02, -187500.02, 112965.13, -187500.02, -187500.02, -187500.02, 0.00, 0.00, 0.00
156, -187500.02, -187500.02, -187500.02, -187500.02, 112095.20, -187500.02, -187500.02, -187500.02, 0.00, 0.00, 0.00
157, -187500.02, -187500.02, -187500.02, -187500.02, 113031.29, -187500.02, -187500.02, -187500.02, 0.00, 0.00, 0.00
158, -187500.02, -187500.02, -187500.02, -187500.02, 114197.14, -187500.02, -187500.02, -187500.02, 0.00, 0.00, 0.00
159, -187500.02, -187500.02, -187500.02, -187500.02, 112778.70, -187500.02, -187500.02, -187500.02, 0.00, 0.00, 0.00
160, -187500.02, -187500.02, -187500.02, -187500.02, 111543.54, -187500.02, -187500.02, -187500.02, 0.00, 0.00, 0.00
161, -187500.02, -187500.02, -187500.02, -187500.02, 112072.83, -187500.02, -187500.02, -187500.02, 0.00, 0.00, 0.00
162, -187500.02, -187500.02, -187500.02, -187500.02, 113521.47, -187500.02, -187500.02, -187500.02, 0.00, 0.00, 0.00
163, -187500.02, -187500.02, -187500.02, -187500.02, 112464.38, -187500.02, -187500.02, -187500.02, 0.00, 0.00, 0.00
164, -187500.02, -187500.02, -187500.02, -187500.02, 110986.04, -187500.02, -187500.02, -187500.02, 0.00, 0.00, 0.00
165, -187500.02, -187500.02, -187500.02, -187500.02, 111267.27, -187500.02, -187500.02, -187500.02, 0.00, 0.00, 0.00
166, -187500.02, -187500.02, -187500.02, -187500.02, 112925.86, -187500.02, -187500.02, -187500.02, 0.00, 0.00, 0.00
167, -187500.02, -187500.02, -187500.02, -187500.02, 112285.77, -187500.02, -187500.02, -187500.02, 0.00, 0.00, 0.00
168, -187500.02, -187500.02, -187500.02, -187500.02, 110639.73, -187500.02, -187500.02, -187500.02, 0.00, 0.00, 0.00
169, -187500.02, -187500.02, -187500.02, -187500.02, 110644.33, -187500.02, -187500.02, -187500.02, 0.00, 0.00, 0.00
170, -187500.02, -187500.02, -187500.02, -187500.02, 112431.98, -187500.02, -187500.02, -187500.02, 0.00, 0.00, 0.00
171, -187500.02, -187500.02, -187500.02, -187500.02, 112363.02, -187500.02, -187500.02, -187500.02, 0.00, 0.00, 0.00
172, -187500.02, -187500.02, -187500.02, -187500.02, 110540.84, -187500.02, -187500.02, -187500.02, 0.00, 0.00, 0.00
173, -187500.02, -187500.02, -187500.02, -187500.02, 110204.55, -187500.02, -187500.02, -187500.02, 0.00, 0.00, 0.00
174, -187500.02, -187500.02, -187500.02, -187500.02, 111778.59, -187500.02, -187500.02, -187500.02, 0.00, 0.00, 0.00
175, -187500.02, -187500.02, -187500.02, -187500.02, 112521.54, -187500.02, -187500.02, -187500.02, 0.00, 0.00, 0.00
176, -187500.02, -187500.02, -187500.02, -187500.02, 111287.63, -187500.02, -187500.02, -187500.02, 0.00, 0.00, 0.00
177, -187500.02, -187500.02, -187500.02, -187500.02, 111118.16, -187500.02, -187500.02, -187500.02, 0.00, 0.00, 0.00
178, -187500.02, -187500.02, -187500.02, -187500.02, 112831.49, -187500.02, -187500.02, -187500.02, 0.00, 0.00, 0.00
179, -187500.02, -187500.02, -187500.02, -187500.02, 113939.76, -187500.02, -187500.02, -187500.02, 0.00, 0.00, 0.00
180, -187500.02, -187500.02, -187500.02, -187500.02, 112416.98, -187500.02, -187500.02, -187500.02, 0.00, 0.00, 0.00
181, -187500.02, -187500.02, -187500.02, -187500.02, 111464.99, -187500.02, -187500.02, -187500.02, 0.00, 0.00, 0.00
182, -187500.02, -187500.02, -187500.02, -187500.02, 112516.95, -187500.02, -187500.02, -187500.02, 0.00, 0.00, 0.00
183, -187500.02, -187500.02, -187500.02, -187500.02, 113939.73, -187500.02, -187500.02, -187500.02, 0.00, 0.00, 0.00
184, -187500.02, -187500.02, -187500.02, -187500.02, 112721.43, -187500.02, -187500.02, -187500.02, 0.00, 0.00, 0.00
185, -187500.02, -187500.02, -187500.02, -187500.02, 111577.29, -187500.02, -187500.02, -187500.02, 0.00, 0.00, 0.00
186, -187500.02, -187500.02, -187500.02, -187500.02, 112130.09, -187500.02, -187500.02, -187500.02, 0.00, 0.00, 0.00
187, -187500.02, -187500.02, -187500.02, -187500.02, 113857.63, -187500.02, -187500.02, -187500.02, 0.00, 0.00, 0.00
188, -187500.02, -187500.02, -187500.02, -187500.02, 112767.90, -187500.02, -187500.02, -187500.02, 0.00, 0.00, 0.00
189, -187500.02, -187500.02, -187500.02, -187500.02, 111170.51, -187500.02, -187500.02, -187500.02, 0.00, 0.00, 0.00
190, -187500.02, -187500.02, -187500.02, -187500.02, 111482.70, -187500.02, -187500.02, -187500.02, 0.00, 0.00, 0.00
191, -187500.02, -187500.02, -187500.02, -187500.02, 113212.01, -187500.02, -187500.02, -187500.02, 0.00, 0.00, 0.00
192, -187500.02, -187500.02, -187500.02, -187500.02, 112756.55, -187500.02, -187500.02, -187500.02, 0.00, 0.00, 0.00
193, -187500.02, -187500.02, -187500.02, -187500.02, 111258.35, -187500.02, -187500.02, -187500.02, 0.00, 0.00, 0.00
194, -187500.02, -187500.02, -187500.02, -187500.02, 110995.32, -187500.02, -187500.02, -187500.02, 0.00, 0.00, 0.00
195, -187500.02, -187500.02, -187500.02, -187500.02, 112652.41, -187500.02, -187500.02, -187500.02, 0.00, 0.00, 0.00
196, -187500.02, -187500.02, -187500.02, -187500.02, 112759.02, -187500.02, -187500.02, -187500.02, 0.00, 0.00, 0.00
197, -187500.02, -187500.02, -187500.02, -187500.02, 111106.78, -187500.02, -187500.02, -187500.02, 0.00, 0.00, 0.00
198, -187500.02, -187500.02, -187500.02, -187500.02, 110522.38, -187500.02, -187500.02, -187500.02, 0.00, 0.00, 0.00
199, -187500.02, -187500.02, -187500.02, -187500.02, 112131.79, -187500.02, -187500.02, -187500.02, 0.00, 0.00, 0.00
200, -187500.02, -187500.02, -187500.02, -187500.02, 113193.08, -187500.02, -187500.02, -187500.02, 0.00, 0.00, 0.00
201, -187500.02, -187500.02, -187500.02, -187500.02, 111958.74, -187500.02, -187500.02, -187500.02, 0.00, 0.00, 0.00
202, -187500.02, -187500.02, -187500.02, -187500.02, 111405.94, -187500.02, -187500.02, -187500.02, 0.00, 0.00, 0.00
203, -187500.02, -187500.02, -187500.02, -187500.02, 112873.58, -187500.02, -187500.02, -187500.02, 0.00, 0.00, 0.00
204, -187500.02, -187500.02, -187500.02, -187500.02, 114376.98, -187500.02, -187500.02, -187500.02, 0.00, 0.00, 0.00
205, -187500.02, -187500.02, -187500.02, -187500.02, 113053.02, -187500.02, -187500.02, -187500.02, 0.00, 0.00, 0.00
206, -187500.02, -187500.02, -187500.02, -187500.02, 111935.52, -187500.02, -187500.02, -187500.02, 0.00, 0.00, 0.00
207, -187500.02, -187500.02, -187500.02, -187500.02, 112726.19, -187500.02, -187500.02, -187500.02, 0.00, 0.00, 0.00
208, -187500.02, -187500.02, -187500.02, -187500.02, 114242.66, -187500.02, -187500.02, -187500.02, 0.00, 0.00, 0.00
209, -187500.02, -187500.02, -187500.02, -187500.02, 113018.95, -187500.02, -187500.02, -187500.02, 0.00, 0.00, 0.00
210, -187500.02, -187500.02, -187500.02, -187500.02, 111504.09, -187500.02, -187500.02, -187500.02, 0.00, 0.00, 0.00
211, -187500.02, -187500.02, -187500.02, -187500.02, 111861.60, -187500.02, -187500.02, -187500.02, 0.00, 0.00, 0.00
212, -187500.02, -187500.02, -187500.02, -187500.02, 113494.60, -187500.02, -187500.02, -187500.02, 0.00, 0.00, 0.00
213, -187500.02, -187500.02, -187500.02, -187500.02, 112914.84, -187500.02, -187500.02, -187500.02, 0.00, 0.00, 0.00
214, -187500.02, -187500.02, -187500.02, -187500.02, 111260.50, -187500.02, -187500.02, -187500.02, 0.00, 0.00, 0.00
215, -187500.02, -187500.02, -187500.02, -187500.02, 111252.48, -187500.02, -187500.02, -187500.02, 0.00, 0.00, 0.00
216, -187500.02, -187500.02, -187500.02, -187500.02, 113037.41, -187500.02, -187500.02, -187500.02, 0.00, 0.00, 0.00
217, -187500.02, -187500.02, -187500.02, -187500.02, 112992.78, -187500.02, -187500.02, -187500.02, 0.00, 0.00, 0.00
218, -187500.02, -187500.02, -187500.02, -187500.02, 111221.16, -187500.02, -187500.02, -187500.02, 0.00, 0.00, 0.00
219, -187500.02, -187500.02, -187500.02, -187500.02, 110699.88, -187500.02, -187500.02, -187500.02, 0.00, 0.00, 0.00
220, -187500.02, -187500.02, -187500.02, -187500.02, 112306.74, -187500.02, -187500.02, -187500.02, 0.00, 0.00, 0.00
221, -187500.02, -187500.02, -187500.02, -187500.02, 112795.10, -187500.02, -187500.02, -187500.02, 0.00, 0.00, 0.00
222, -187500.02, -187500.02, -187500.02, -187500.02, 111024.98, -187500.02, -187500.02, -187500.02, 0.00, 0.00, 0.00
223, -187500.02, -187500.02, -187500.02, -187500.02, 109976.57, -187500.02, -187500.02, -187500.02, 0.00, 0.00, 0.00
224, -187500.02, -187500.02, -187500.02, -187500.02, 111449.10, -187500.02, -187500.02, -187500.02, 0.00, 0.00, 0.00
225, -187500.02, -187500.02, -187500.02, -187500.02, 112680.57, -187500.02, -187500.02, -187500.02, 0.00, 0.00, 0.00
226, -187500.02, -187500.02, -187500.02, -187500.02, 111060.09, -187500.02, -187500.02, -187500.02, 0.00, 0.00, 0.00
227, -187500.02, -187500.02, -187500.02, -187500.02, 109627.79, -187500.02, -187500.02, -187500.02, 0.00, 0.00, 0.00
228, -187500.02, -187500.02, -187500.02, -187500.02, 110803.36, -187500.02, -187500.02, -187500.02, 0.00, 0.00, 0.00
229, -187500.02, -187500.02, -187500.02, -187500.02, 112802.86, -187500.02, -187500.02, -187500.02, 0.00, 0.00, 0.00
230, -187500.02, -187500.02, -187500.02, -187500.02, 111780.71, -187500.02, -187500.02, -187500.02, 0.00, 0.00, 0.00
231, -187500.02, -187500.02, -187500.02, -187500.02, 110602.48, -187500.02, -187500.02, -187500.02, 0.00, 0.00, 0.00
232, -187500.02, -187500.02, -187500.02, -187500.02, 111633.13, -187500.02, -187500.02, -187500.02, 0.00, 0.00, 0.00
233, -187500.02, -187500.02, -187500.02, -187500.02, 113896.95, -187500.02, -187500.02, -187500.02, 0.00, 0.00, 0.00
234, -187500.02, -187500.02, -187500.02, -187500.02, 113173.25, -187500.02, -187500.02, -187500.02, 0.00, 0.00, 0.00
235, -187500.02, -187500.02, -187500.02, -187500.02, 111330.10, -187500.02, -187500.02, -187500.02, 0.00, 0.00, 0.00
236, -187500.02, -187500.02, -187500.02, -187500.02, 111424.85, -187500.02, -187500.02, -187500.02, 0.00, 0.00, 0.00
237, -187500.02, -187500.02, -187500.02, -187500.02, 113344.22, -187500.02, -187500.02, -187500.02, 0.00, 0.00, 0.00
238, -187500.02, -187500.02, -187500.02, -187500.02, 113135.25, -187500.02, -187500.02, -187500.02, 0.00, 0.00, 0.00
239, -187500.02, -187500.02, -187500.02, -187500.02, 111016.33, -187500.02, -187500.02, -187500.02, 0.00, 0.00, 0.00
240, -187500.02, -187500.02, -187500.02, -187500.02, 110432.55, -187500.02, -187500.02, -187500.02, 0.00, 0.00, 0.00
241, -187500.02, -187500.02, -187500.02, -187500.02, 112515.13, -187500.02, -187500.02, -187500.02, 0.00, 0.00, 0.00
242, -187500.02, -187500.02, -187500.02, -187500.02, 112803.06, -187500.02, -187500.02, -187500.02, 0.00, 0.00, 0.00
243, -187500.02, -187500.02, -187500.02, -187500.02, 110830.52, -187500.02, -187500.02, -187500.02, 0.00, 0.00, 0.00
244, -187500.02, -187500.02, -187500.02, -187500.02, 109955.23, -187500.02, -187500.02, -187500.02, 0.00, 0.00, 0.00
245, -187500.02, -187500.02, -187500.02, -187500.02, 111545.23, -187500.02, -187500.02, -187500.02, 0.00, 0.00, 0.00
246, -187500.02, -187500.02, -187500.02, -187500.02, 112563.47, -187500.02, -187500.02, -187500.02, 0.00, 0.00, 0.00
247, -187500.02, -187500.02, -187500.02, -187500.02, 110898.13, -187500.02, -187500.02, -187500.02, 0.00, 0.00, 0.00
248, -187500.02, -187500.02, -187500.02, -187500.02, 109634.59, -187500.02, -187500.02, -187500.02, 0.00, 0.00, 0.00
249, -187500.02, -187500.02, -187500.02, -187500.02, 110998.67, -187500.02, -187500.02, -187500.02, 0.00, 0.00, 0.00
250, -187500.02, -187500.02, -187500.02, -187500.02, 112528.91, -187500.02, -187500.02, -187500.02, 0.00, 0.00, 0.00
251, -187500.02, -187500.02, -187500.02, -187500.02, 110877.50, -187500.02, -187500.02, -187500.02, 0.00, 0.00, 0.00
252, -187500.02, -187500.02, -187500.02, -187500.02, 109364.09, -187500.02, -187500.02, -187500.02, 0.00, 0.00, 0.00
253, -187500.02, -187500.02, -187500.02, -187500.02, 110342.63, -187500.02, -187500.02, -187500.02, 0.00, 0.00, 0.00
254, -187500.02, -187500.02, -187500.02, -187500.02, 112522.34, -187500.02, -187500.02, -187500.02, 0.00, 0.00, 0.00
255, -187500.02, -187500.02, -187500.02, -187500.02, 111727.27, -187500.02, -187500.02, -187500.02, 0.00, 0.00, 0.00
0, -187500.02, -187500.02, -187500.02, -187500.02, 110344.10, -187500.02, -187500.02, -187500.02, 0.00, 0.00, 0.00
1, -187500.02, -187500.02, -187500.02, -187500.02, 111090.87, -187500.02, -187500.02, -187500.02, 0.00, 0.00, 0.00
2, -187500.02, -187500.02, -187500.02, -187500.02, 113416.44, -187500.02, -187500.02, -187500.02, 0.00, 0.00, 0.00
3, -187500.02, -187500.02, -187500.02, -187500.02, 113035.31, -187500.02, -187500.02, -187500.02, 0.00, 0.00, 0.00
4, -187500.02, -187500.02, -187500.02, -187500.02, 111160.88, -187500.02, -187500.02, -187500.02, 0.00, 0.00, 0.00
5, -187500.02, -187500.02, -187500.02, -187500.02, 110939.08, -187500.02, -187500.02, -187500.02, 0.00, 0.00, 0.00
6, -187500.02, -187500.02, -187500.02, -187500.02, 112891.91, -187500.02, -187500.02, -187500.02, 0.00, 0.00, 0.00
7, -187500.02, -187500.02, -187500.02, -187500.02, 112910.44, -187500.02, -187500.02, -187500.02, 0.00, 0.00, 0.00
8, -187500.02, -187500.02, -187500.02, -187500.02, 110945.34, -187500.02, -187500.02, -187500.02, 0.00, 0.00, 0.00
9, -187500.02, -187500.02, -187500.02, -187500.02, 110392.49, -187500.02, -187500.02, -187500.02, 0.00, 0.00, 0.00
10, -187500.02, -187500.02, -187500.02, -187500.02, 112292.01, -187500.02, -187500.02, -187500.02, 0.00, 0.00, 0.00
11, -187500.02, -187500.02, -187500.02, -187500.02, 112847.74, -187500.02, -187500.02, -187500.02, 0.00, 0.00, 0.00
12, -187500.02, -187500.02, -187500.02, -187500.02, 110952.29, -187500.02, -187500.02, -187500.02, 0.00, 0.00, 0.00
13, -187500.02, -187500.02, -187500.02, -187500.02, 109875.54, -187500.02, -187500.02, -187500.02, 0.00, 0.00, 0.00
14, -187500.02, -187500.02, -187500.02, -187500.02, 111509.61, -187500.02, -187500.02, -187500.02, 0.00, 0.00, 0.00
15, -187500.02, -187500.02, -187500.02, -187500.02, 112759.45, -187500.02, -187500.02, -187500.02, 0.00, 0.00, 0.00
16, -187500.02, -187500.02, -187500.02, -187500.02, 111119.77, -187500.02, -187500.02, -187500.02, 0.00, 0.00, 0.00
17, -187500.02, -187500.02, -187500.02, -187500.02, 109733.83, -187500.02, -187500.02, -187500.02, 0.00, 0.00, 0.00
18, -187500.02, -187500.02, -187500.02, -187500.02, 110768.89, -187500.02, -187500.02, -187500.02, 0.00, 0.00, 0.00
19, -187500.02, -187500.02, -187500.02, -187500.02, 112576.81, -187500.02, -187500.02, -187500.02, 0.00, 0.00, 0.00
20, -187500.02, -187500.02, -187500.02, -187500.02, 111150.86, -187500.02, -187500.02, -187500.02, 0.00, 0.00, 0.00
21, -187500.02, -187500.02, -187500.02, -187500.02, 109517.80, -187500.02, -187500.02, -187500.02, 0.00, 0.00, 0.00
22, -187500.02, -187500.02, -187500.02, -187500.02, 110274.85, -187500.02, -187500.02, -187500.02, 0.00, 0.00, 0.00
23, -187500.02, -187500.02, -187500.02, -187500.02, 112183.49, -187500.02, -187500.02, -187500.02, 0.00, 0.00, 0.00
24, -187500.02, -187500.02, -187500.02, -187500.02, 111248.83, -187500.02, -187500.02, -187500.02, 0.00, 0.00, 0.00
25, -187500.02, -187500.02, -187500.02, -187500.02, 109509.02, -187500.02, -187500.02, -187500.02, 0.00, 0.00, 0.00
26, -187500.02, -187500.02, -187500.02, -187500.02, 109845.92, -187500.02, -187500.02, -187500.02, 0.00, 0.00, 0.00
27, -187500.02, -187500.02, -187500.02, -187500.02, 112248.80, -187500.02, -187500.02, -187500.02, 0.00, 0.00, 0.00
28, -187500.02, -187500.02, -187500.02, -187500.02, 111928.05, -187500.02, -187500.02, -187500.02, 0.00, 0.00, 0.00
29, -187500.02, -187500.02, -187500.02, -187500.02, 110182.98, -187500.02, -187500.02, -187500.02, 0.00, 0.00, 0.00
30, -187500.02, -187500.02, -187500.02, -187500.02, 110161.80, -187500.02, -187500.02, -187500.02, 0.00, 0.00, 0.00
31, -187500.02, -187500.02, -187500.02, -187500.02, 112585.38, -187500.02, -187500.02, -187500.02, 0.00, 0.00, 0.00
32, -187500.02, -187500.02, -187500.02, -187500.02, 112964.33, -187500.02, -187500.02, -187500.02, 0.00, 0.00, 0.00
33, -187500.02, -187500.02, -187500.02, -187500.02, 111199.84, -187500.02, -187500.02, -187500.02, 0.00, 0.00, 0.00
34, -187500.02, -187500.02, -187500.02, -187500.02, 110534.60, -187500.02, -187500.02, -187500.02, 0.00, 0.00, 0.00
35, -187500.02, -187500.02, -187500.02, -187500.02, 112298.11, -187500.02, -187500.02, -187500.02, 0.00, 0.00, 0.00
36, -187500.02, -187500.02, -187500.02, -187500.02, 113060.23, -187500.02, -187500.02, -187500.02, 0.00, 0.00, 0.00
37, -187500.02, -187500.02, -187500.02, -187500.02, 111224.00, -187500.02, -187500.02, -187500.02, 0.00, 0.00, 0.00
38, -187500.02, -187500.02, -187500.02, -187500.02, 110135.67, -187500.02, -187500.02, -187500.02, 0.00, 0.00, 0.00
39, -187500.02, -187500.02, -187500.02, -187500.02, 111470.67, -187500.02, -187500.02, -187500.02, 0.00, 0.00, 0.00
40, -187500.02, -187500.02, -187500.02, -187500.02, 112501.69, -187500.02, -187500.02, -187500.02, 0.00, 0.00, 0.00
41, -187500.02, -187500.02, -187500.02, -187500.02, 110894.40, -187500.02, -187500.02, -187500.02, 0.00, 0.00, 0.00
42, -187500.02, -187500.02, -187500.02, -187500.02, 109873.10, -187500.02, -187500.02, -187500.02, 0.00, 0.00, 0.00
43, -187500.02, -187500.02, -187500.02, -187500.02, 110684.12, -187500.02, -187500.02, -187500.02, 0.00, 0.00, 0.00
44, -187500.02, -187500.02, -187500.02, -187500.02, 111993.68, -187500.02, -187500.02, -187500.02, 0.00, 0.00, 0.00
45, -187500.02, -187500.02, -187500.02, -187500.02, 110630.13, -187500.02, -187500.02, -187500.02, 0.00, 0.00, 0.00
46, -187500.02, -187500.02, -187500.02, -187500.02, 109277.74, -187500.02, -187500.02, -187500.02, 0.00, 0.00, 0.00
47, -187500.02, -187500.02, -187500.02, -187500.02, 109790.22, -187500.02, -187500.02, -187500.02, 0.00, 0.00, 0.00
48, -187500.02, -187500.02, -187500.02, -187500.02, 111604.52, -187500.02, -187500.02, -187500.02, 0.00, 0.00, 0.00
49, -187500.02, -187500.02, -187500.02, -187500.02, 110739.01, -187500.02, -187500.02, -187500.02, 0.00, 0.00, 0.00
50, -187500.02, -187500.02, -187500.02, -187500.02, 109033.84, -187500.02, -187500.02, -187500.02, 0.00, 0.00, 0.00
51, -187500.02, -187500.02, -187500.02, -187500.02, 109205.39, -187500.02, -187500.02, -187500.02, 0.00, 0.00, 0.00
52, -187500.02, -187500.02, -187500.02, -187500.02, 111516.18, -187500.02, -187500.02, -187500.02, 0.00, 0.00, 0.00
53, -187500.02, -187500.02, -187500.02, -187500.02, 111506.13, -187500.02, -187500.02, -187500.02, 0.00, 0.00, 0.00
54, -187500.02, -187500.02, -187500.02, -187500.02, 109996.46, -187500.02, -187500.02, -187500.02, 0.00, 0.00, 0.00
55, -187500.02, -187500.02, -187500.02, -187500.02, 110240.68, -187500.02, -187500.02, -187500.02, 0.00, 0.00, 0.00
56, -187500.02, -187500.02, -187500.02, -187500.02, 112383.31, -187500.02, -187500.02, -187500.02, 0.00, 0.00, 0.00
57, -187500.02, -187500.02, -187500.02, -187500.02, 112661.10, -187500.02, -187500.02, -187500.02, 0.00, 0.00, 0.00
58, -187500.02, -187500.02, -187500.02, -187500.02, 110960.59, -187500.02, -187500.02, -187500.02, 0.00, 0.00, 0.00
59, -187500.02, -187500.02, -187500.02, -187500.02, 110552.46, -187500.02, -187500.02, -187500.02, 0.00, 0.00, 0.00
60, -187500.02, -187500.02, -187500.02, -187500.02, 112013.82, -187500.02, -187500.02, -187500.02, 0.00, 0.00, 0.00
61, -187500.02, -187500.02, -187500.02, -187500.02, 112766.85, -187500.02, -187500.02, -187500.02, 0.00, 0.00, 0.00
62, -187500.02, -187500.02, -187500.02, -187500.02, 111033.23, -187500.02, -187500.02, -187500.02, 0.00, 0.00, 0.00
63, -187500.02, -187500.02, -187500.02, -187500.02, 110077.55, -187500.02, -187500.02, -187500.02, 0.00, 0.00, 0.00
64, -187500.02, -187500.02, -187500.02, -187500.02, 111036.96, -187500.02, -187500.02, -187500.02, 0.00, 0.00, 0.00
65, -187500.02, -187500.02, -187500.02, -187500.02, 112081.01, -187500.02, -187500.02, -187500.02, 0.00, 0.00, 0.00
66, -187500.02, -187500.02, -187500.02, -187500.02, 110536.99, -187500.02, -187500.02, -187500.02, 0.00, 0.00, 0.00
67, -187500.02, -187500.02, -187500.02, -187500.02, 109209.19, -187500.02, -187500.02, -187500.02, 0.00, 0.00, 0.00
68, -187500.02, -187500.02, -187500.02, -187500.02, 110023.51, -187500.02, -187500.02, -187500.02, 0.00, 0.00, 0.00
69, -187500.02, -187500.02, -187500.02, -187500.02, 111544.34, -187500.02, -187500.02, -187500.02, 0.00, 0.00, 0.00
70, -187500.02, -187500.02, -187500.02, -187500.02, 110486.05, -187500.02, -187500.02, -187500.02, 0.00, 0.00, 0.00
71, -187500.02, -187500.02, -187500.02, -187500.02, 109139.98, -187500.02, -187500.02, -187500.02, 0.00, 0.00, 0.00
72, -187500.02, -187500.02, -187500.02, -187500.02, 109421.84, -187500.02, -187500.02, -187500.02, 0.00, 0.00, 0.00
73, -187500.02, -187500.02, -187500.02, -187500.02, 111103.01, -187500.02, -187500.02, -187500.02, 0.00, 0.00, 0.00
74, -187500.02, -187500.02, -187500.02, -187500.02, 110373.94, -187500.02, -187500.02, -187500.02, 0.00, 0.00, 0.00
75, -187500.02, -187500.02, -187500.02, -187500.02, 108803.75, -187500.02, -187500.02, -187500.02, 0.00, 0.00, 0.00
76, -187500.02, -187500.02, -187500.02, -187500.02, 108859.79, -187500.02, -187500.02, -187500.02, 0.00, 0.00, 0.00
77, -187500.02, -187500.02, -187500.02, -187500.02, 110839.13, -187500.02, -187500.02, -187500.02, 0.00, 0.00, 0.00
78, -187500.02, -187500.02, -187500.02, -187500.02, 111105.89, -187500.02, -187500.02, -187500.02, 0.00, 0.00, 0.00
79, -187500.02, -187500.02, -187500.02, -187500.02, 109758.64, -187500.02, -187500.02, -187500.02, 0.00, 0.00, 0.00
80, -187500.02, -187500.02, -187500.02, -187500.02, 109818.01, -187500.02, -187500.02, -187500.02, 0.00, 0.00, 0.00
81, -187500.02, -187500.02, -187500.02, -187500.02, 111558.54, -187500.02, -187500.02, -187500.02, 0.00, 0.00, 0.00
82, -187500.02, -187500.02, -187500.02, -187500.02, 112038.67, -187500.02, -187500.02, -187500.02, 0.00, 0.00, 0.00
83, -187500.02, -187500.02, -187500.02, -187500.02, 110650.07, -187500.02, -187500.02, -187500.02, 0.00, 0.00, 0.00
84, -187500.02, -187500.02, -187500.02, -187500.02, 110029.54, -187500.02, -187500.02, -187500.02, 0.00, 0.00, 0.00
85, -187500.02, -187500.02, -187500.02, -187500.02, 111258.11, -187500.02, -187500.02, -187500.02, 0.00, 0.00, 0.00
86, -187500.02, -187500.02, -187500.02, -187500.02, 112015.74, -187500.02, -187500.02, -187500.02, 0.00, 0.00, 0.00
87, -187500.02, -187500.02, -187500.02, -187500.02, 110583.89, -187500.02, -187500.02, -187500.02, 0.00, 0.00, 0.00
88, -187500.02, -187500.02, -187500.02, -187500.02, 109543.64, -187500.02, -187500.02, -187500.02, 0.00, 0.00, 0.00
89, -187500.02, -187500.02, -187500.02, -187500.02, 110591.13, -187500.02, -187500.02, -187500.02, 0.00, 0.00, 0.00
90, -187500.02, -187500.02, -187500.02, -187500.02, 112137.49, -187500.02, -187500.02, -187500.02, 0.00, 0.00, 0.00
91, -187500.02, -187500.02, -187500.02, -187500.02, 110656.66, -187500.02, -187500.02, -187500.02, 0.00, 0.00, 0.00
92, -187500.02, -187500.02, -187500.02, -187500.02, 109094.13, -187500.02, -187500.02, -187500.02, 0.00, 0.00, 0.00
93, -187500.02, -187500.02, -187500.02, -187500.02, 109528.30, -187500.02, -187500.02, -187500.02, 0.00, 0.00, 0.00
94, -187500.02, -187500.02, -187500.02, -187500.02, 111224.91, -187500.02, -187500.02, -187500.02, 0.00, 0.00, 0.00
95, -187500.02, -187500.02, -187500.02, -187500.02, 110126.08, -187500.02, -187500.02, -187500.02, 0.00, 0.00, 0.00
96, -187500.02, -187500.02, -187500.02, -187500.02, 108931.34, -187500.02, -187500.02, -187500.02, 0.00, 0.00, 0.00
97, -187500.02, -187500.02, -187500.02, -187500.02, 109146.23, -187500.02, -187500.02, -187500.02, 0.00, 0.00, 0.00
98, -187500.02, -187500.02, -187500.02, -187500.02, 110385.72, -187500.02, -187500.02, -187500.02, 0.00, 0.00, 0.00
99, -187500.02, -187500.02, -187500.02, -187500.02, 109774.40, -187500.02, -187500.02, -187500.02, 0.00, 0.00, 0.00
100, -187500.02, -187500.02, -187500.02, -187500.02, 108671.54, -187500.02, -187500.02, -187500.02, 0.00, 0.00, 0.00
101, -187500.02, -187500.02, -187500.02, -187500.02, 108748.81, -187500.02, -187500.02, -187500.02, 0.00, 0.00, 0.00
102, -187500.02, -187500.02, -187500.02, -187500.02, 110023.58, -187500.02, -187500.02, -187500.02, 0.00, 0.00, 0.00
103, -187500.02, -187500.02, -187500.02, -187500.02, 109797.30, -187500.02, -187500.02, -187500.02, 0.00, 0.00, 0.00
104, -187500.02, -187500.02, -187500.02, -187500.02, 108412.17, -187500.02, -187500.02, -187500.02, 0.00, 0.00, 0.00
105, -187500.02, -187500.02, -187500.02, -187500.02, 108307.90, -187500.02, -187500.02, -187500.02, 0.00, 0.00, 0.00
106, -187500.02, -187500.02, -187500.02, -187500.02, 109637.05, -187500.02, -187500.02, -187500.02, 0.00, 0.00, 0.00
107, -187500.02, -187500.02, -187500.02, -187500.02, 110174.96, -187500.02, -187500.02, -187500.02, 0.00, 0.00, 0.00
108, -187500.02, -187500.02, -187500.02, -187500.02, 109136.32, -187500.02, -187500.02, -187500.02, 0.00, 0.00, 0.00
109, -187500.02, -187500.02, -187500.02, -187500.02, 109223.94, -187500.02, -187500.02, -187500.02, 0.00, 0.00, 0.00
110, -187500.02, -187500.02, -187500.02, -187500.02, 110523.88, -187500.02, -187500.02, -187500.02, 0.00, 0.00, 0.00
111, -187500.02, -187500.02, -187500.02, -187500.02, 111337.21, -187500.02, -187500.02, -187500.02, 0.00, 0.00, 0.00
112, -187500.02, -187500.02, -187500.02, -187500.02, 110077.64, -187500.02, -187500.02, -187500.02, 0.00, 0.00, 0.00
113, -187500.02, -187500.02, -187500.02, -187500.02, 109526.20, -187500.02, -187500.02, -187500.02, 0.00, 0.00, 0.00
114, -187500.02, -187500.02, -187500.02, -187500.02, 110299.02, -187500.02, -187500.02, -187500.02, 0.00, 0.00, 0.00
115, -187500.02, -187500.02, -187500.02, -187500.02, 111152.83, -187500.02, -187500.02, -187500.02, 0.00, 0.00, 0.00
116, -187500.02, -187500.02, -187500.02, -187500.02, 109898.63, -187500.02, -187500.02, -187500.02, 0.00, 0.00, 0.00
117, -187500.02, -187500.02, -187500.02, -187500.02, 108995.22, -187500.02, -187500.02, -187500.02, 0.00, 0.00, 0.00
118, -187500.02, -187500.02, -187500.02, -187500.02, 109576.16, -187500.02, -187500.02, -187500.02, 0.00, 0.00, 0.00
119, -187500.02, -187500.02, -187500.02, -187500.02, 110792.16, -187500.02, -187500.02, -187500.02, 0.00, 0.00, 0.00
120, -187500.02, -187500.02, -187500.02, -187500.02, 109907.86, -187500.02, -187500.02, -187500.02, 0.00, 0.00, 0.00
121, -187500.02, -187500.02, -187500.02, -187500.02, 108814.95, -187500.02, -187500.02, -187500.02, 0.00, 0.00, 0.00
122, -187500.02, -187500.02, -187500.02, -187500.02, 108928.83, -187500.02, -187500.02, -187500.02, 0.00, 0.00, 0.00
123, -187500.02, -187500.02, -187500.02, -187500.02, 110111.02, -187500.02, -187500.02, -187500.02, 0.00, 0.00, 0.00
124, -187500.02, -187500.02, -187500.02, -187500.02, 109519.48, -187500.02, -187500.02, -187500.02, 0.00, 0.00, 0.00
125, -187500.02, -187500.02, -187500.02, -187500.02, 108321.22, -187500.02, -187500.02, -187500.02, 0.00, 0.00, 0.00
126, -187500.02, -187500.02, -187500.02, -187500.02, 108403.86, -187500.02, -187500.02, -187500.02, 0.00, 0.00, 0.00
127, -187500.02, -187500.02, -187500.02, -187500.02, 109732.84, -187500.02, -187500.02, -187500.02, 0.00, 0.00, 0.00
128, -187500.02, -187500.02, -187500.02, -187500.02, 109608.10, -187500.02, -187500.02, -187500.02, 0.00, 0.00, 0.00
129, -187500.02, -187500.02, -187500.02, -187500.02, 108472.43, -187500.02, -187500.02, -187500.02, 0.00, 0.00, 0.00
130, -187500.02, -187500.02, -187500.02, -187500.02, 108334.50, -187500.02, -187500.02, -187500.02, 0.00, 0.00, 0.00
131, -187500.02, -187500.02, -187500.02, -187500.02, 109433.11, -187500.02, -187500.02, -187500.02, 0.00, 0.00, 0.00
132, -187500.02, -187500.02, -187500.02, -187500.02, 110009.83, -187500.02, -187500.02, -187500.02, 0.00, 0.00, 0.00
133, -187500.02, -187500.02, -187500.02, -187500.02, 109204.61, -187500.02, -187500.02, -187500.02, 0.00, 0.00, 0.00
134, -187500.02, -187500.02, -187500.02, -187500.02, 109169.63, -187500.02, -187500.02, -187500.02, 0.00, 0.00, 0.00
135, -187500.02, -187500.02, -187500.02, -187500.02, 110547.39, -187500.02, -187500.02, -187500.02, 0.00, 0.00, 0.00
136, -187500.02, -187500.02, -187500.02, -187500.02, 111565.02, -187500.02, -187500.02, -187500.02, 0.00, 0.00, 0.00
137, -187500.02, -187500.02, -187500.02, -187500.02, 110430.16, -187500.02, -187500.02, -187500.02, 0.00, 0.00, 0.00
138, -187500.02, -187500.02, -187500.02, -187500.02, 109925.88, -187500.02, -187500.02, -187500.02, 0.00, 0.00, 0.00
139, -187500.02, -187500.02, -187500.02, -187500.02, 110616.61, -187500.02, -187500.02, -187500.02, 0.00, 0.00, 0.00
140, -187500.02, -187500.02, -187500.02, -187500.02, 111442.46, -187500.02, -187500.02, -187500.02, 0.00, 0.00, 0.00
141, -187500.02, -187500.02, -187500.02, -187500.02, 110283.26, -187500.02, -187500.02, -187500.02, 0.00, 0.00, 0.00
142, -187500.02, -187500.02, -187500.02, -187500.02, 109410.31, -187500.02, -187500.02, -187500.02, 0.00, 0.00, 0.00
143, -187500.02, -187500.02, -187500.02, -187500.02, 109737.83, -187500.02, -187500.02, -187500.02, 0.00, 0.00, 0.00
144, -187500.02, -187500.02, -187500.02, -187500.02, 110789.01, -187500.02, -187500.02, -187500.02, 0.00, 0.00, 0.00
145, -187500.02, -187500.02, -187500.02, -187500.02, 110098.68, -187500.02, -187500.02, -187500.02, 0.00, 0.00, 0.00
146, -187500.02, -187500.02, -187500.02, -187500.02, 109032.43, -187500.02, -187500.02, -187500.02, 0.00, 0.00, 0.00
147, -187500.02, -187500.02, -187500.02, -187500.02, 109096.23, -187500.02, -187500.02, -187500.02, 0.00, 0.00, 0.00
148, -187500.02, -187500.02, -187500.02, -187500.02, 110410.20, -187500.02, -187500.02, -187500.02, 0.00, 0.00, 0.00
149, -187500.02, -187500.02, -187500.02, -187500.02, 110183.45, -187500.02, -187500.02, -187500.02, 0.00, 0.00, 0.00
150, -187500.02, -187500.02, -187500.02, -187500.02, 108874.23, -187500.02, -187500.02, -187500.02, 0.00, 0.00, 0.00
151, -187500.02, -187500.02, -187500.02, -187500.02, 108579.80, -187500.02, -187500.02, -187500.02, 0.00, 0.00, 0.00
152, -187500.02, -187500.02, -187500.02, -187500.02, 109816.71, -187500.02, -187500.02, -187500.02, 0.00, 0.00, 0.00
153, -187500.02, -187500.02, -187500.02, -187500.02, 109909.67, -187500.02, -187500.02, -187500.02, 0.00, 0.00, 0.00
154, -187500.02, -187500.02, -187500.02, -187500.02, 108665.48, -187500.02, -187500.02, -187500.02, 0.00, 0.00, 0.00
155, -187500.02, -187500.02, -187500.02, -187500.02, 108396.23, -187500.02, -187500.02, -187500.02, 0.00, 0.00, 0.00
156, -187500.02, -187500.02, -187500.02, -187500.02, 109602.73, -187500.02, -187500.02, -187500.02, 0.00, 0.00, 0.00
157, -187500.02, -187500.02, -187500.02, -187500.02, 110367.05, -187500.02, -187500.02, -187500.02, 0.00, 0.00, 0.00
158, -187500.02, -187500.02, -187500.02, -187500.02, 109352.40, -187500.02, -187500.02, -187500.02, 0.00, 0.00, 0.00
159, -187500.02, -187500.02, -187500.02, -187500.02, 109186.99, -187500.02, -187500.02, -187500.02, 0.00, 0.00, 0.00
160, -187500.02, -187500.02, -187500.02, -187500.02, 110382.88, -187500.02, -187500.02, -187500.02, 0.00, 0.00, 0.00
161, -187500.02, -187500.02, -187500.02, -187500.02, 111439.83, -187500.02, -187500.02, -187500.02, 0.00, 0.00, 0.00
162, -187500.02, -187500.02, -187500.02, -187500.02, 110179.55, -187500.02, -187500.02, -187500.02, 0.00, 0.00, 0.00
163, -187500.02, -187500.02, -187500.02, -187500.02, 109504.41, -187500.02, -187500.02, -187500.02, 0.00, 0.00, 0.00
164, -187500.02, -187500.02, -187500.02, -187500.02, 110052.86, -187500.02, -187500.02, -187500.02, 0.00, 0.00, 0.00
165, -187500.02, -187500.02, -187500.02, -187500.02, 111176.99, -187500.02, -187500.02, -187500.02, 0.00, 0.00, 0.00
166, -187500.02, -187500.02, -187500.02, -187500.02, 110212.07, -187500.02, -187500.02, -187500.02, 0.00, 0.00, 0.00
167, -187500.02, -187500.02, -187500.02, -187500.02, 109264.20, -187500.02, -187500.02, -187500.02, 0.00, 0.00, 0.00
168, -187500.02, -187500.02, -187500.02, -187500.02, 109479.80, -187500.02, -187500.02, -187500.02, 0.00, 0.00, 0.00
169, -187500.02, -187500.02, -187500.02, -187500.02, 110615.45, -187500.02, -187500.02, -187500.02, 0.00, 0.00, 0.00
170, -187500.02, -187500.02, -187500.02, -187500.02, 110028.78, -187500.02, -187500.02, -187500.02, 0.00, 0.00, 0.00
171, -187500.02, -187500.02, -187500.02, -187500.02, 109084.96, -187500.02, -187500.02, -187500.02, 0.00, 0.00, 0.00
172, -187500.02, -187500.02, -187500.02, -187500.02, 108889.67, -187500.02, -187500.02, -187500.02, 0.00, 0.00, 0.00
173, -187500.02, -187500.02, -187500.02, -187500.02, 110058.17, -187500.02, -187500.02, -187500.02, 0.00, 0.00, 0.00
174, -187500.02, -187500.02, -187500.02, -187500.02, 109884.75, -187500.02, -187500.02, -187500.02, 0.00, 0.00, 0.00
175, -187500.02, -187500.02, -187500.02, -187500.02, 108484.14, -187500.02, -187500.02, -187500.02, 0.00, 0.00, 0.00
176, -187500.02, -187500.02, -187500.02, -187500.02, 107990.57, -187500.02, -187500.02, -187500.02, 0.00, 0.00, 0.00
177, -187500.02, -187500.02, -187500.02, -187500.02, 109521.11, -187500.02, -187500.02, -187500.02, 0.00, 0.00, 0.00
178, -187500.02, -187500.02, -187500.02, -187500.02, 110197.80, -187500.02, -187500.02, -187500.02, 0.00, 0.00, 0.00
179, -187500.02, -187500.02, -187500.02, -187500.02, 108567.05, -187500.02, -187500.02, -187500.02, 0.00, 0.00, 0.00
180, -187500.02, -187500.02, -187500.02, -187500.02, 107428.49, -187500.02, -187500.02, -187500.02, 0.00, 0.00, 0.00
181, -187500.02, -187500.02, -187500.02, -187500.02, 108703.46, -187500.02, -187500.02, -187500.02, 0.00, 0.00, 0.00
182, -187500.02, -187500.02, -187500.02, -187500.02, 110271.08, -187500.02, -187500.02, -187500.02, 0.00, 0.00, 0.00
183, -187500.02, -187500.02, -187500.02, -187500.02, 109185.18, -187500.02, -187500.02, -187500.02, 0.00, 0.00, 0.00
184, -187500.02, -187500.02, -187500.02, -187500.02, 108188.12, -187500.02, -187500.02, -187500.02, 0.00, 0.00, 0.00
185, -187500.02, -187500.02, -187500.02, -187500.02, 109383.24, -187500.02, -187500.02, -187500.02, 0.00, 0.00, 0.00
186, -187500.02, -187500.02, -187500.02, -187500.02, 111410.16, -187500.02, -187500.02, -187500.02, 0.00, 0.00, 0.00
187, -187500.02, -187500.02, -187500.02, -187500.02, 110444.01, -187500.02, -187500.02, -187500.02, 0.00, 0.00, 0.00
188, -187500.02, -187500.02, -187500.02, -187500.02, 108844.50, -187500.02, -187500.02, -187500.02, 0.00, 0.00, 0.00
189, -187500.02, -187500.02, -187500.02, -187500.02, 109234.76, -187500.02, -187500.02, -187500.02, 0.00, 0.00, 0.00
190, -187500.02, -187500.02, -187500.02, -187500.02, 111114.66, -187500.02, -187500.02, -187500.02, 0.00, 0.00, 0.00
191, -187500.02, -187500.02, -187500.02, -187500.02, 110350.70, -187500.02, -187500.02, -187500.02, 0.00, 0.00, 0.00
192, -187500.02, -187500.02, -187500.02, -187500.02, 108578.98, -187500.02, -187500.02, -187500.02, 0.00, 0.00, 0.00
193, -187500.02, -187500.02, -187500.02, -187500.02, 108577.15, -187500.02, -187500.02, -187500.02, 0.00, 0.00, 0.00
194, -187500.02, -187500.02, -187500.02, -187500.02, 110630.83, -187500.02, -187500.02, -187500.02, 0.00, 0.00, 0.00
195, -187500.02, -187500.02, -187500.02, -187500.02, 110449.11, -187500.02, -187500.02, -187500.02, 0.00, 0.00, 0.00
196, -187500.02, -187500.02, -187500.02, -187500.02, 108347.98, -187500.02, -187500.02, -187500.02, 0.00, 0.00, 0.00
197, -187500.02, -187500.02, -187500.02, -187500.02, 107716.30, -187500.02, -187500.02, -187500.02, 0.00, 0.00, 0.00
198, -187500.02, -187500.02, -187500.02, -187500.02, 109583.94, -187500.02, -187500.02, -187500.02, 0.00, 0.00, 0.00
199, -187500.02, -187500.02, -187500.02, -187500.02, 110089.34, -187500.02, -187500.02, -187500.02, 0.00, 0.00, 0.00
200, -187500.02, -187500.02, -187500.02, -187500.02, 108241.78, -187500.02, -187500.02, -187500.02, 0.00, 0.00, 0.00
201, -187500.02, -187500.02, -187500.02, -187500.02, 107373.59, -187500.02, -187500.02, -187500.02, 0.00, 0.00, 0.00
202, -187500.02, -187500.02, -187500.02, -187500.02, 108846.04, -187500.02, -187500.02, -187500.02, 0.00, 0.00, 0.00
203, -187500.02, -187500.02, -187500.02, -187500.02, 109851.13, -187500.02, -187500.02, -187500.02, 0.00, 0.00, 0.00
204, -187500.02, -187500.02, -187500.02, -187500.02, 108138.23, -187500.02, -187500.02, -187500.02, 0.00, 0.00, 0.00
205, -187500.02, -187500.02, -187500.02, -187500.02, 106903.67, -187500.02, -187500.02, -187500.02, 0.00, 0.00, 0.00
206, -187500.02, -187500.02, -187500.02, -187500.02, 108156.02, -187500.02, -187500.02, -187500.02, 0.00, 0.00, 0.00
207, -187500.02, -187500.02, -187500.02, -187500.02, 110092.24, -187500.02, -187500.02, -187500.02, 0.00, 0.00, 0.00
208, -187500.02, -187500.02, -187500.02, -187500.02, 109138.27, -187500.02, -187500.02, -187500.02, 0.00, 0.00, 0.00
209, -187500.02, -187500.02, -187500.02, -187500.02, 107964.64, -187500.02, -187500.02, -187500.02, 0.00, 0.00, 0.00
210, -187500.02, -187500.02, -187500.02, -187500.02, 109040.21, -187500.02, -187500.02, -187500.02, 0.00, 0.00, 0.00
211, -187500.02, -187500.02, -187500.02, -187500.02, 111201.45, -187500.02, -187500.02, -187500.02, 0.00, 0.00, 0.00
212, -187500.02, -187500.02, -187500.02, -187500.02, 110302.37, -187500.02, -187500.02, -187500.02, 0.00, 0.00, 0.00
213, -187500.02, -187500.02, -187500.02, -187500.02, 108751.20, -187500.02, -187500.02, -187500.02, 0.00, 0.00, 0.00
214, -187500.02, -187500.02, -187500.02, -187500.02, 109113.68, -187500.02, -187500.02, -187500.02, 0.00, 0.00, 0.00
215, -187500.02, -187500.02, -187500.02, -187500.02, 111045.56, -187500.02, -187500.02, -187500.02, 0.00, 0.00, 0.00
216, -187500.02, -187500.02, -187500.02, -187500.02, 110541.22, -187500.02, -187500.02, -187500.02, 0.00, 0.00, 0.00
217, -187500.02, -187500.02, -187500.02, -187500.02, 108713.20, -187500.02, -187500.02, -187500.02, 0.00, 0.00, 0.00
218, -187500.02, -187500.02, -187500.02, -187500.02, 108424.64, -187500.02, -187500.02, -187500.02, 0.00, 0.00, 0.00
219, -187500.02, -187500.02, -187500.02, -187500.02, 110306.66, -187500.02, -187500.02, -187500.02, 0.00, 0.00, 0.00
220, -187500.02, -187500.02, -187500.02, -187500.02, 110270.30, -187500.02, -187500.02, -187500.02, 0.00, 0.00, 0.00
221, -187500.02, -187500.02, -187500.02, -187500.02, 108135.05, -187500.02, -187500.02, -187500.02, 0.00, 0.00, 0.00
222, -187500.02, -187500.02, -187500.02, -187500.02, 107433.14, -187500.02, -187500.02, -187500.02, 0.00, 0.00, 0.00
223, -187500.02, -187500.02, -187500.02, -187500.02, 109121.95, -187500.02, -187500.02, -187500.02, 0.00, 0.00, 0.00
224, -187500.02, -187500.02, -187500.02, -187500.02, 109819.68, -187500.02, -187500.02, -187500.02, 0.00, 0.00, 0.00
225, -187500.02, -187500.02, -187500.02, -187500.02, 107881.49, -187500.02, -187500.02, -187500.02, 0.00, 0.00, 0.00
226, -187500.02, -187500.02, -187500.02, -187500.02, 107003.45, -187500.02, -187500.02, -187500.02, 0.00, 0.00, 0.00
227, -187500.02, -187500.02, -187500.02, -187500.02, 108486.00, -187500.02, -187500.02, -187500.02, 0.00, 0.00, 0.00
228, -187500.02, -187500.02, -187500.02, -187500.02, 109774.24, -187500.02, -187500.02, -187500.02, 0.00, 0.00, 0.00
229, -187500.02, -187500.02, -187500.02, -187500.02, 108213.95, -187500.02, -187500.02, -187500.02, 0.00, 0.00, 0.00
230, -187500.02, -187500.02, -187500.02, -187500.02, 106935.08, -187500.02, -187500.02, -187500.02, 0.00, 0.00, 0.00
231, -187500.02, -187500.02, -187500.02, -187500.02, 108078.05, -187500.02, -187500.02, -187500.02, 0.00, 0.00, 0.00
232, -187500.02, -187500.02, -187500.02, -187500.02, 109888.57, -187500.02, -187500.02, -187500.02, 0.00, 0.00, 0.00
233, -187500.02, -187500.02, -187500.02, -187500.02, 108764.16, -187500.02, -187500.02, -187500.02, 0.00, 0.00, 0.00
234, -187500.02, -187500.02, -187500.02, -187500.02, 107693.16, -187500.02, -187500.02, -187500.02, 0.00, 0.00, 0.00
235, -187500.02, -187500.02, -187500.02, -187500.02, 108851.96, -187500.02, -187500.02, -187500.02, 0.00, 0.00, 0.00
236, -187500.02, -187500.02, -187500.02, -187500.02, 111081.57, -187500.02, -187500.02, -187500.02, 0.00, 0.00, 0.00
237, -187500.02, -187500.02, -187500.02, -187500.02, 110396.83, -187500.02, -187500.02, -187500.02, 0.00, 0.00, 0.00
238, -187500.02, -187500.02, -187500.02, -187500.02, 108723.33, -187500.02, -187500.02, -187500.02, 0.00, 0.00, 0.00
239, -187500.02, -187500.02, -187500.02, -187500.02, 108900.16, -187500.02, -187500.02, -187500.02, 0.00, 0.00, 0.00
240, -187500.02, -187500.02, -187500.02, -187500.02, 110749.38, -187500.02, -187500.02, -187500.02, 0.00, 0.00, 0.00
241, -187500.02, -187500.02, -187500.02, -187500.02, 110417.91, -187500.02, -187500.02, -187500.02, 0.00, 0.00, 0.00
242, -187500.02, -187500.02, -187500.02, -187500.02, 108620.22, -187500.02, -187500.02, -187500.02, 0.00, 0.00, 0.00
243, -187500.02, -187500.02, -187500.02, -187500.02, 108211.05, -187500.02, -187500.02, -187500.02, 0.00, 0.00, 0.00
244, -187500.02, -187500.02, -187500.02, -187500.02, 109910.30, -187500.02, -187500.02, -187500.02, 0.00, 0.00, 0.00
245, -187500.02, -187500.02, -187500.02, -187500.02, 110104.24, -187500.02, -187500.02, -187500.02, 0.00, 0.00, 0.00
246, -187500.02, -187500.02, -187500.02, -187500.02, 107973.20, -187500.02, -187500.02, -187500.02, 0.00, 0.00, 0.00
247, -187500.02, -187500.02, -187500.02, -187500.02, 107099.19, -187500.02, -187500.02, -187500.02, 0.00, 0.00, 0.00
248, -187500.02, -187500.02, -187500.02, -187500.02, 108627.75, -187500.02, -187500.02, -187500.02, 0.00, 0.00, 0.00
249, -187500.02, -187500.02, -187500.02, -187500.02, 109503.41, -187500.02, -187500.02, -187500.02, 0.00, 0.00, 0.00
250, -187500.02, -187500.02, -187500.02, -187500.02, 107860.22, -187500.02, -187500.02, -187500.02, 0.00, 0.00, 0.00
251, -187500.02, -187500.02, -187500.02, -187500.02, 106862.86, -187500.02, -187500.02, -187500.02, 0.00, 0.00, 0.00
252, -187500.02, -187500.02, -187500.02, -187500.02, 108171.27, -187500.02, -187500.02, -187500.02, 0.00, 0.00, 0.00
253, -187500.02, -187500.02, -187500.02, -187500.02, 109415.23, -187500.02, -187500.02, -187500.02, 0.00, 0.00, 0.00
254, -187500.02, -187500.02, -187500.02, -187500.02, 107938.31, -187500.02, -187500.02, -187500.02, 0.00, 0.00, 0.00
255, -187500.02, -187500.02, -187500.02, -187500.02, 106610.28, -187500.02, -187500.02, -187500.02, 0.00, 0.00, 0.00
0, -187500.02, -187500.02, -187500.02, -187500.02, 107563.03, -187500.02, -187500.02, -187500.02, 0.00, 0.00, 0.00
1, -187500.02, -187500.02, -187500.02, -187500.02, 109493.03, -187500.02, -187500.02, -187500.02, 0.00, 0.00, 0.00
2, -187500.02, -187500.02, -187500.02, -187500.02, 108668.66, -187500.02, -187500.02, -187500.02, 0.00, 0.00, 0.00
3, -187500.02, -187500.02, -187500.02, -187500.02, 107495.26, -187500.02, -187500.02, -187500.02, 0.00, 0.00, 0.00
4, -187500.02, -187500.02, -187500.02, -187500.02, 108067.13, -187500.02, -187500.02, -187500.02, 0.00, 0.00, 0.00
