%OpenBCI Raw EEG Data
%
%Sample Rate = 250.0 Hz
%First Column = SampleIndex
%Other Columns = EEG data in microvolts followed by Accel Data (in G) interleaved with Aux Data
0, 94255.76, 88808.95, -187500.02, -187500.02, -145922.28, -187500.02, -166210.25, -187500.02, 0.00, 0.00, 0.00
1, 94464.50, 87737.08, -187500.02, -187500.02, -146998.86, -187500.02, -166689.47, -187500.02, 0.00, 0.00, 0.00
2, 96091.13, 87049.36, -187500.02, -187500.02, -149658.25, -187500.02, -167518.88, -187500.02, 0.00, 0.00, 0.00
3, 96077.92, 88050.60, -187500.02, -187500.02, -148887.52, -187500.02, -167162.09, -187500.02, 0.00, 0.00, 0.00
4, 94484.93, 88848.98, -187500.02, -187500.02, -146193.91, -187500.02, -166330.64, -187500.02, 0.00, 0.00, 0.00
5, 94248.50, 87972.06, -187500.02, -187500.02, -146569.81, -187500.02, -166589.13, -187500.02, 0.00, 0.00, 0.00
6, 95825.84, 87052.62, -187500.02, -187500.02, -149360.59, -187500.02, -167487.58, -187500.02, 0.00, 0.00, 0.00
7, 96242.14, 87840.48, -187500.02, -187500.02, -149295.61, -187500.02, -167341.73, -187500.02, 0.00, 0.00, 0.00
8, 94727.49, 88807.66, -187500.02, -187500.02, -146593.36, -187500.02, -166497.53, -187500.02, 0.00, 0.00, 0.00
9, 94095.19, 88172.51, -187500.02, -187500.02, -146254.14, -187500.02, -166540.70, -187500.02, 0.00, 0.00, 0.00
10, 95537.39, 87072.20, -187500.02, -187500.02, -148993.55, -187500.02, -167459.17, -187500.02, 0.00, 0.00, 0.00
11, 96356.31, 87578.78, -187500.02, -187500.02, -149666.14, -187500.02, -167564.63, -187500.02, 0.00, 0.00, 0.00
12, 95050.63, 88728.13, -187500.02, -187500.02, -147059.72, -187500.02, -166686.63, -187500.02, 0.00, 0.00, 0.00
13, 94062.93, 88386.23, -187500.02, -187500.02, -146037.52, -187500.02, -166483.81, -187500.02, 0.00, 0.00, 0.00
14, 95253.70, 87188.48, -187500.02, -187500.02, -148522.69, -187500.02, -167345.69, -187500.02, 0.00, 0.00, 0.00
15, 96365.36, 87346.99, -187500.02, -187500.02, -149905.88, -187500.02, -167717.47, -187500.02, 0.00, 0.00, 0.00
16, 95318.61, 88558.30, -187500.02, -187500.02, -147608.75, -187500.02, -166913.33, -187500.02, 0.00, 0.00, 0.00
17, 94033.14, 88537.70, -187500.02, -187500.02, -145937.58, -187500.02, -166494.92, -187500.02, 0.00, 0.00, 0.00
18, 94924.28, 87336.24, -187500.02, -187500.02, -147991.23, -187500.02, -167232.27, -187500.02, 0.00, 0.00, 0.00
19, 96315.59, 87162.08, -187500.02, -187500.02, -149980.77, -187500.02, -167811.92, -187500.02, 0.00, 0.00, 0.00
20, 95629.95, 88375.89, -187500.02, -187500.02, -148119.95, -187500.02, -167116.86, -187500.02, 0.00, 0.00, 0.00
21, 94159.09, 88689.80, -187500.02, -187500.02, -145904.09, -187500.02, -166475.58, -187500.02, 0.00, 0.00, 0.00
22, 94652.13, 87508.51, -187500.02, -187500.02, -147460.98, -187500.02, -167100.72, -187500.02, 0.00, 0.00, 0.00
23, 96229.04, 87043.57, -187500.02, -187500.02, -149878.25, -187500.02, -167816.88, -187500.02, 0.00, 0.00, 0.00
24, 95898.77, 88128.27, -187500.02, -187500.02, -148646.05, -187500.02, -167333.61, -187500.02, 0.00, 0.00, 0.00
25, 94308.16, 88708.33, -187500.02, -187500.02, -146108.86, -187500.02, -166591.05, -187500.02, 0.00, 0.00, 0.00
26, 94397.31, 87684.02, -187500.02, -187500.02, -146983.08, -187500.02, -166998.61, -187500.02, 0.00, 0.00, 0.00
27, 96012.09, 86925.75, -187500.02, -187500.02, -149691.45, -187500.02, -167843.22, -187500.02, 0.00, 0.00, 0.00
28, 96106.30, 87858.13, -187500.02, -187500.02, -149121.05, -187500.02, -167556.14, -187500.02, 0.00, 0.00, 0.00
29, 94519.40, 88691.36, -187500.02, -187500.02, -146414.58, -187500.02, -166727.22, -187500.02, 0.00, 0.00, 0.00
30, 94188.33, 87886.81, -187500.02, -187500.02, -146573.84, -187500.02, -166913.91, -187500.02, 0.00, 0.00, 0.00
31, 95749.62, 86911.83, -187500.02, -187500.02, -149363.56, -187500.02, -167816.28, -187500.02, 0.00, 0.00, 0.00
32, 96272.23, 87604.38, -187500.02, -187500.02, -149535.09, -187500.02, -167770.42, -187500.02, 0.00, 0.00, 0.00
33, 94851.39, 88676.01, -187500.02, -187500.02, -146788.13, -187500.02, -166851.88, -187500.02, 0.00, 0.00, 0.00
34, 94112.71, 88128.41, -187500.02, -187500.02, -146229.53, -187500.02, -166799.84, -187500.02, 0.00, 0.00, 0.00
35, 95468.79, 86966.45, -187500.02, -187500.02, -148938.61, -187500.02, -167733.47, -187500.02, 0.00, 0.00, 0.00
36, 96383.16, 87383.70, -187500.02, -187500.02, -149814.59, -187500.02, -167905.09, -187500.02, 0.00, 0.00, 0.00
37, 95102.78, 88518.41, -187500.02, -187500.02, -147319.83, -187500.02, -167084.22, -187500.02, 0.00, 0.00, 0.00
38, 94013.53, 88276.11, -187500.02, -187500.02, -146079.73, -187500.02, -166817.03, -187500.02, 0.00, 0.00, 0.00
39, 95130.05, 87075.53, -187500.02, -187500.02, -148456.34, -187500.02, -167643.69, -187500.02, 0.00, 0.00, 0.00
40, 96362.39, 87161.59, -187500.02, -187500.02, -150010.47, -187500.02, -168050.16, -187500.02, 0.00, 0.00, 0.00
41, 95405.42, 88377.92, -187500.02, -187500.02, -147810.61, -187500.02, -167270.81, -187500.02, 0.00, 0.00, 0.00
42, 94038.16, 88450.50, -187500.02, -187500.02, -145943.59, -187500.02, -166782.28, -187500.02, 0.00, 0.00, 0.00
43, 94816.72, 87228.75, -187500.02, -187500.02, -147882.94, -187500.02, -167501.75, -187500.02, 0.00, 0.00, 0.00
44, 96284.74, 86957.42, -187500.02, -187500.02, -150030.98, -187500.02, -168132.67, -187500.02, 0.00, 0.00, 0.00
45, 95692.20, 88129.93, -187500.02, -187500.02, -148357.58, -187500.02, -167506.97, -187500.02, 0.00, 0.00, 0.00
46, 94158.38, 88502.47, -187500.02, -187500.02, -146073.81, -187500.02, -166866.63, -187500.02, 0.00, 0.00, 0.00
47, 94551.20, 87390.34, -187500.02, -187500.02, -147409.25, -187500.02, -167401.02, -187500.02, 0.00, 0.00, 0.00
48, 96145.89, 86826.22, -187500.02, -187500.02, -149938.33, -187500.02, -168168.81, -187500.02, 0.00, 0.00, 0.00
49, 95943.92, 87891.44, -187500.02, -187500.02, -148870.91, -187500.02, -167730.14, -187500.02, 0.00, 0.00, 0.00
50, 94342.15, 88563.94, -187500.02, -187500.02, -146246.36, -187500.02, -166943.47, -187500.02, 0.00, 0.00, 0.00
51, 94303.13, 87582.05, -187500.02, -187500.02, -146938.47, -187500.02, -167301.33, -187500.02, 0.00, 0.00, 0.00
52, 95917.14, 86733.88, -187500.02, -187500.02, -149718.91, -187500.02, -168193.09, -187500.02, 0.00, 0.00, 0.00
53, 96159.80, 87627.66, -187500.02, -187500.02, -149330.13, -187500.02, -167946.59, -187500.02, 0.00, 0.00, 0.00
54, 94609.39, 88547.02, -187500.02, -187500.02, -146573.86, -187500.02, -167072.67, -187500.02, 0.00, 0.00, 0.00
55, 94176.01, 87825.30, -187500.02, -187500.02, -146505.33, -187500.02, -167172.95, -187500.02, 0.00, 0.00, 0.00
56, 95689.42, 86767.13, -187500.02, -187500.02, -149308.91, -187500.02, -168102.09, -187500.02, 0.00, 0.00, 0.00
57, 96327.23, 87377.75, -187500.02, -187500.02, -149694.81, -187500.02, -168120.56, -187500.02, 0.00, 0.00, 0.00
58, 94925.27, 88477.55, -187500.02, -187500.02, -147014.44, -187500.02, -167233.73, -187500.02, 0.00, 0.00, 0.00
59, 94089.42, 88038.20, -187500.02, -187500.02, -146235.61, -187500.02, -167104.70, -187500.02, 0.00, 0.00, 0.00
60, 95388.48, 86847.03, -187500.02, -187500.02, -148875.64, -187500.02, -168019.11, -187500.02, 0.00, 0.00, 0.00
61, 96405.13, 87164.94, -187500.02, -187500.02, -149965.31, -187500.02, -168267.30, -187500.02, 0.00, 0.00, 0.00
62, 95222.70, 88346.83, -187500.02, -187500.02, -147555.02, -187500.02, -167460.47, -187500.02, 0.00, 0.00, 0.00
63, 94045.27, 88187.11, -187500.02, -187500.02, -146164.78, -187500.02, -167152.75, -187500.02, 0.00, 0.00, 0.00
64, 95100.45, 86939.95, -187500.02, -187500.02, -148408.42, -187500.02, -167935.58, -187500.02, 0.00, 0.00, 0.00
65, 96389.95, 86836.75, -187500.02, -187500.02, -150162.86, -187500.02, -168435.50, -187500.02, 0.00, 0.00, 0.00
66, 95516.66, 88042.05, -187500.02, -187500.02, -148125.98, -187500.02, -167723.97, -187500.02, 0.00, 0.00, 0.00
67, 94123.35, 88273.96, -187500.02, -187500.02, -146107.45, -187500.02, -167163.03, -187500.02, 0.00, 0.00, 0.00
68, 94784.55, 87030.58, -187500.02, -187500.02, -147910.70, -187500.02, -167862.16, -187500.02, 0.00, 0.00, 0.00
69, 96318.34, 86630.91, -187500.02, -187500.02, -150158.39, -187500.02, -168517.84, -187500.02, 0.00, 0.00, 0.00
70, 95836.92, 87817.27, -187500.02, -187500.02, -148605.55, -187500.02, -167905.22, -187500.02, 0.00, 0.00, 0.00
71, 94284.59, 88365.67, -187500.02, -187500.02, -146182.69, -187500.02, -167172.80, -187500.02, 0.00, 0.00, 0.00
72, 94541.48, 87264.60, -187500.02, -187500.02, -147368.33, -187500.02, -167676.14, -187500.02, 0.00, 0.00, 0.00
73, 96141.87, 86544.07, -187500.02, -187500.02, -149981.56, -187500.02, -168498.70, -187500.02, 0.00, 0.00, 0.00
74, 96056.06, 87567.07, -187500.02, -187500.02, -149082.83, -187500.02, -168099.06, -187500.02, 0.00, 0.00, 0.00
75, 94430.40, 88354.77, -187500.02, -187500.02, -146438.36, -187500.02, -167307.08, -187500.02, 0.00, 0.00, 0.00
76, 94280.23, 87444.98, -187500.02, -187500.02, -146932.94, -187500.02, -167604.48, -187500.02, 0.00, 0.00, 0.00
77, 95870.67, 86454.22, -187500.02, -187500.02, -149746.64, -187500.02, -168526.92, -187500.02, 0.00, 0.00, 0.00
78, 96234.74, 87279.00, -187500.02, -187500.02, -149546.42, -187500.02, -168329.23, -187500.02, 0.00, 0.00, 0.00
79, 94701.19, 88322.58, -187500.02, -187500.02, -146795.66, -187500.02, -167442.41, -187500.02, 0.00, 0.00, 0.00
80, 94141.03, 87705.25, -187500.02, -187500.02, -146523.41, -187500.02, -167479.14, -187500.02, 0.00, 0.00, 0.00
81, 95605.63, 86555.30, -187500.02, -187500.02, -149258.50, -187500.02, -168388.72, -187500.02, 0.00, 0.00, 0.00
82, 96335.66, 87021.06, -187500.02, -187500.02, -149856.42, -187500.02, -168490.27, -187500.02, 0.00, 0.00, 0.00
83, 94986.39, 88192.90, -187500.02, -187500.02, -147241.23, -187500.02, -167613.69, -187500.02, 0.00, 0.00, 0.00
84, 94048.56, 87862.52, -187500.02, -187500.02, -146303.19, -187500.02, -167426.81, -187500.02, 0.00, 0.00, 0.00
85, 95265.55, 86589.52, -187500.02, -187500.02, -148856.22, -187500.02, -168332.48, -187500.02, 0.00, 0.00, 0.00
86, 96360.00, 86744.63, -187500.02, -187500.02, -150099.53, -187500.02, -168652.20, -187500.02, 0.00, 0.00, 0.00
87, 95261.81, 87960.02, -187500.02, -187500.02, -147767.69, -187500.02, -167861.22, -187500.02, 0.00, 0.00, 0.00
88, 94014.83, 87936.25, -187500.02, -187500.02, -146200.03, -187500.02, -167483.88, -187500.02, 0.00, 0.00, 0.00
89, 94963.80, 86672.30, -187500.02, -187500.02, -148336.88, -187500.02, -168253.98, -187500.02, 0.00, 0.00, 0.00
90, 96340.28, 86471.37, -187500.02, -187500.02, -150233.22, -187500.02, -168795.25, -187500.02, 0.00, 0.00, 0.00
91, 95591.55, 87703.68, -187500.02, -187500.02, -148314.80, -187500.02, -168081.33, -187500.02, 0.00, 0.00, 0.00
92, 94119.08, 88023.31, -187500.02, -187500.02, -146214.05, -187500.02, -167495.41, -187500.02, 0.00, 0.00, 0.00
93, 94676.04, 86820.84, -187500.02, -187500.02, -147835.66, -187500.02, -168138.88, -187500.02, 0.00, 0.00, 0.00
94, 96234.52, 86307.46, -187500.02, -187500.02, -150174.66, -187500.02, -168837.25, -187500.02, 0.00, 0.00, 0.00
95, 95853.35, 87417.42, -187500.02, -187500.02, -148832.77, -187500.02, -168316.28, -187500.02, 0.00, 0.00, 0.00
96, 94290.83, 88054.67, -187500.02, -187500.02, -146323.23, -187500.02, -167550.95, -187500.02, 0.00, 0.00, 0.00
97, 94424.88, 86972.58, -187500.02, -187500.02, -147328.75, -187500.02, -168008.31, -187500.02, 0.00, 0.00, 0.00
98, 96038.13, 86132.16, -187500.02, -187500.02, -150007.92, -187500.02, -168857.75, -187500.02, 0.00, 0.00, 0.00
99, 96072.96, 87043.01, -187500.02, -187500.02, -149357.84, -187500.02, -168550.30, -187500.02, 0.00, 0.00, 0.00
100, 94484.46, 87920.38, -187500.02, -187500.02, -146685.64, -187500.02, -167713.83, -187500.02, 0.00, 0.00, 0.00
101, 94188.73, 87082.33, -187500.02, -187500.02, -146971.09, -187500.02, -167945.28, -187500.02, 0.00, 0.00, 0.00
102, 95759.48, 86038.48, -187500.02, -187500.02, -149734.53, -187500.02, -168845.88, -187500.02, 0.00, 0.00, 0.00
103, 96231.01, 86740.28, -187500.02, -187500.02, -149754.16, -187500.02, -168728.81, -187500.02, 0.00, 0.00, 0.00
104, 94765.83, 87830.87, -187500.02, -187500.02, -147038.42, -187500.02, -167827.06, -187500.02, 0.00, 0.00, 0.00
105, 94072.12, 87271.18, -187500.02, -187500.02, -146612.63, -187500.02, -167830.30, -187500.02, 0.00, 0.00, 0.00
106, 95475.85, 86077.30, -187500.02, -187500.02, -149299.25, -187500.02, -168743.08, -187500.02, 0.00, 0.00, 0.00
107, 96336.22, 86465.69, -187500.02, -187500.02, -150052.47, -187500.02, -168877.28, -187500.02, 0.00, 0.00, 0.00
108, 95050.25, 87634.05, -187500.02, -187500.02, -147530.77, -187500.02, -168027.83, -187500.02, 0.00, 0.00, 0.00
109, 94029.47, 87400.55, -187500.02, -187500.02, -146386.38, -187500.02, -167762.13, -187500.02, 0.00, 0.00, 0.00
110, 95176.09, 86115.23, -187500.02, -187500.02, -148792.78, -187500.02, -168606.53, -187500.02, 0.00, 0.00, 0.00
111, 96369.23, 86145.99, -187500.02, -187500.02, -150217.83, -187500.02, -168969.73, -187500.02, 0.00, 0.00, 0.00
112, 95352.65, 87331.80, -187500.02, -187500.02, -148044.92, -187500.02, -168221.88, -187500.02, 0.00, 0.00, 0.00
113, 94043.91, 87412.82, -187500.02, -187500.02, -146326.58, -187500.02, -167777.19, -187500.02, 0.00, 0.00, 0.00
114, 94883.46, 86154.66, -187500.02, -187500.02, -148297.36, -187500.02, -168496.81, -187500.02, 0.00, 0.00, 0.00
115, 96327.97, 85847.59, -187500.02, -187500.02, -150283.73, -187500.02, -169059.58, -187500.02, 0.00, 0.00, 0.00
116, 95667.01, 87009.48, -187500.02, -187500.02, -148558.34, -187500.02, -168427.41, -187500.02, 0.00, 0.00, 0.00
117, 94192.30, 87461.97, -187500.02, -187500.02, -146294.44, -187500.02, -167743.48, -187500.02, 0.00, 0.00, 0.00
118, 94632.79, 86289.64, -187500.02, -187500.02, -147717.64, -187500.02, -168310.78, -187500.02, 0.00, 0.00, 0.00
119, 96196.18, 85623.25, -187500.02, -187500.02, -150182.95, -187500.02, -169082.42, -187500.02, 0.00, 0.00, 0.00
120, 95933.75, 86668.66, -187500.02, -187500.02, -149049.05, -187500.02, -168626.00, -187500.02, 0.00, 0.00, 0.00
121, 94352.59, 87398.58, -187500.02, -187500.02, -146493.34, -187500.02, -167835.47, -187500.02, 0.00, 0.00, 0.00
122, 94377.24, 86405.38, -187500.02, -187500.02, -147272.91, -187500.02, -168204.19, -187500.02, 0.00, 0.00, 0.00
123, 95975.46, 85482.45, -187500.02, -187500.02, -149969.16, -187500.02, -169073.16, -187500.02, 0.00, 0.00, 0.00
124, 96131.36, 86320.78, -187500.02, -187500.02, -149510.44, -187500.02, -168831.73, -187500.02, 0.00, 0.00, 0.00
125, 94564.84, 87260.31, -187500.02, -187500.02, -146846.98, -187500.02, -167996.64, -187500.02, 0.00, 0.00, 0.00
126, 94171.49, 86513.85, -187500.02, -187500.02, -146921.72, -187500.02, -168156.02, -187500.02, 0.00, 0.00, 0.00
127, 95698.19, 85393.16, -187500.02, -187500.02, -149653.78, -187500.02, -169061.17, -187500.02, 0.00, 0.00, 0.00
128, 96282.44, 85982.93, -187500.02, -187500.02, -149879.44, -187500.02, -169014.52, -187500.02, 0.00, 0.00, 0.00
129, 94844.46, 87101.13, -187500.02, -187500.02, -147234.17, -187500.02, -168140.83, -187500.02, 0.00, 0.00, 0.00
130, 94056.77, 86646.35, -187500.02, -187500.02, -146586.92, -187500.02, -168053.63, -187500.02, 0.00, 0.00, 0.00
131, 95397.40, 85363.68, -187500.02, -187500.02, -149197.53, -187500.02, -168952.88, -187500.02, 0.00, 0.00, 0.00
132, 96361.74, 85593.55, -187500.02, -187500.02, -150163.31, -187500.02, -169174.52, -187500.02, 0.00, 0.00, 0.00
133, 95187.31, 86855.99, -187500.02, -187500.02, -147676.67, -187500.02, -168291.23, -187500.02, 0.00, 0.00, 0.00
134, 94053.43, 86748.99, -187500.02, -187500.02, -146367.69, -187500.02, -167969.83, -187500.02, 0.00, 0.00, 0.00
135, 95097.35, 85442.76, -187500.02, -187500.02, -148677.50, -187500.02, -168798.72, -187500.02, 0.00, 0.00, 0.00
136, 96358.45, 85352.16, -187500.02, -187500.02, -150289.30, -187500.02, -169242.42, -187500.02, 0.00, 0.00, 0.00
137, 95444.72, 86573.18, -187500.02, -187500.02, -148249.19, -187500.02, -168524.33, -187500.02, 0.00, 0.00, 0.00
138, 94049.81, 86775.93, -187500.02, -187500.02, -146409.52, -187500.02, -168044.91, -187500.02, 0.00, 0.00, 0.00
139, 94772.24, 85535.18, -187500.02, -187500.02, -148246.47, -187500.02, -168744.73, -187500.02, 0.00, 0.00, 0.00
140, 96270.34, 85101.98, -187500.02, -187500.02, -150368.31, -187500.02, -169366.19, -187500.02, 0.00, 0.00, 0.00
141, 95736.01, 86241.84, -187500.02, -187500.02, -148791.53, -187500.02, -168764.69, -187500.02, 0.00, 0.00, 0.00
142, 94219.73, 86803.63, -187500.02, -187500.02, -146430.05, -187500.02, -168029.33, -187500.02, 0.00, 0.00, 0.00
143, 94526.24, 85655.97, -187500.02, -187500.02, -147678.64, -187500.02, -168550.39, -187500.02, 0.00, 0.00, 0.00
144, 96108.07, 84857.70, -187500.02, -187500.02, -150210.61, -187500.02, -169358.84, -187500.02, 0.00, 0.00, 0.00
145, 95964.48, 85804.70, -187500.02, -187500.02, -149282.69, -187500.02, -168977.97, -187500.02, 0.00, 0.00, 0.00
146, 94388.58, 86609.72, -187500.02, -187500.02, -146710.16, -187500.02, -168181.06, -187500.02, 0.00, 0.00, 0.00
147, 94294.77, 85696.30, -187500.02, -187500.02, -147285.56, -187500.02, -168488.89, -187500.02, 0.00, 0.00, 0.00
148, 95894.59, 84699.01, -187500.02, -187500.02, -149973.92, -187500.02, -169348.33, -187500.02, 0.00, 0.00, 0.00
149, 96192.45, 85474.21, -187500.02, -187500.02, -149669.16, -187500.02, -169123.84, -187500.02, 0.00, 0.00, 0.00
150, 94654.80, 86499.55, -187500.02, -187500.02, -146981.67, -187500.02, -168249.27, -187500.02, 0.00, 0.00, 0.00
151, 94125.95, 85848.24, -187500.02, -187500.02, -146858.20, -187500.02, -168343.86, -187500.02, 0.00, 0.00, 0.00
152, 95605.59, 84667.98, -187500.02, -187500.02, -149558.84, -187500.02, -169245.44, -187500.02, 0.00, 0.00, 0.00
153, 96307.47, 85138.53, -187500.02, -187500.02, -149986.50, -187500.02, -169266.88, -187500.02, 0.00, 0.00, 0.00
154, 94925.06, 86294.47, -187500.02, -187500.02, -147397.33, -187500.02, -168398.17, -187500.02, 0.00, 0.00, 0.00
155, 94002.56, 85917.33, -187500.02, -187500.02, -146621.97, -187500.02, -168301.08, -187500.02, 0.00, 0.00, 0.00
156, 95269.79, 84607.32, -187500.02, -187500.02, -149197.47, -187500.02, -169222.56, -187500.02, 0.00, 0.00, 0.00
157, 96337.60, 84754.59, -187500.02, -187500.02, -150326.36, -187500.02, -169488.41, -187500.02, 0.00, 0.00, 0.00
158, 95230.14, 86023.75, -187500.02, -187500.02, -147938.64, -187500.02, -168632.00, -187500.02, 0.00, 0.00, 0.00
159, 94013.05, 86034.05, -187500.02, -187500.02, -146462.66, -187500.02, -168249.28, -187500.02, 0.00, 0.00, 0.00
160, 94954.34, 84746.88, -187500.02, -187500.02, -148663.81, -187500.02, -169062.48, -187500.02, 0.00, 0.00, 0.00
161, 96269.32, 84592.14, -187500.02, -187500.02, -150452.69, -187500.02, -169583.27, -187500.02, 0.00, 0.00, 0.00
162, 95461.59, 85874.53, -187500.02, -187500.02, -148499.70, -187500.02, -168868.98, -187500.02, 0.00, 0.00, 0.00
163, 94032.80, 86246.82, -187500.02, -187500.02, -146467.09, -187500.02, -168283.80, -187500.02, 0.00, 0.00, 0.00
164, 94616.63, 85069.40, -187500.02, -187500.02, -148173.53, -187500.02, -168952.50, -187500.02, 0.00, 0.00, 0.00
165, 96155.10, 84619.74, -187500.02, -187500.02, -150414.73, -187500.02, -169611.33, -187500.02, 0.00, 0.00, 0.00
166, 95727.49, 85775.78, -187500.02, -187500.02, -148981.03, -187500.02, -169041.86, -187500.02, 0.00, 0.00, 0.00
167, 94122.37, 86378.29, -187500.02, -187500.02, -146581.39, -187500.02, -168354.08, -187500.02, 0.00, 0.00, 0.00
168, 94329.79, 85324.65, -187500.02, -187500.02, -147649.30, -187500.02, -168817.47, -187500.02, 0.00, 0.00, 0.00
169, 95972.38, 84503.65, -187500.02, -187500.02, -150322.66, -187500.02, -169645.13, -187500.02, 0.00, 0.00, 0.00
170, 95948.39, 85453.02, -187500.02, -187500.02, -149548.61, -187500.02, -169299.38, -187500.02, 0.00, 0.00, 0.00
171, 94360.32, 86317.77, -187500.02, -187500.02, -146918.81, -187500.02, -168488.94, -187500.02, 0.00, 0.00, 0.00
172, 94117.59, 85445.53, -187500.02, -187500.02, -147316.16, -187500.02, -168765.70, -187500.02, 0.00, 0.00, 0.00
173, 95675.27, 84414.45, -187500.02, -187500.02, -150010.08, -187500.02, -169639.70, -187500.02, 0.00, 0.00, 0.00
174, 96050.20, 85153.23, -187500.02, -187500.02, -149890.92, -187500.02, -169495.48, -187500.02, 0.00, 0.00, 0.00
175, 94592.78, 86257.59, -187500.02, -187500.02, -147184.98, -187500.02, -168584.97, -187500.02, 0.00, 0.00, 0.00
176, 93970.38, 85706.98, -187500.02, -187500.02, -146824.22, -187500.02, -168578.22, -187500.02, 0.00, 0.00, 0.00
177, 95366.58, 84459.38, -187500.02, -187500.02, -149521.25, -187500.02, -169502.80, -187500.02, 0.00, 0.00, 0.00
178, 96151.93, 84808.57, -187500.02, -187500.02, -150148.33, -187500.02, -169612.16, -187500.02, 0.00, 0.00, 0.00
179, 94831.41, 85959.87, -187500.02, -187500.02, -147611.08, -187500.02, -168773.64, -187500.02, 0.00, 0.00, 0.00
180, 93858.88, 85706.38, -187500.02, -187500.02, -146581.89, -187500.02, -168557.58, -187500.02, 0.00, 0.00, 0.00
181, 95071.64, 84414.47, -187500.02, -187500.02, -149024.66, -187500.02, -169391.97, -187500.02, 0.00, 0.00, 0.00
182, 96209.93, 84452.40, -187500.02, -187500.02, -150324.66, -187500.02, -169715.20, -187500.02, 0.00, 0.00, 0.00
183, 95178.71, 85672.34, -187500.02, -187500.02, -148075.55, -187500.02, -168919.02, -187500.02, 0.00, 0.00, 0.00
184, 93934.30, 85705.21, -187500.02, -187500.02, -146573.77, -187500.02, -168545.53, -187500.02, 0.00, 0.00, 0.00
185, 94796.65, 84416.27, -187500.02, -187500.02, -148682.23, -187500.02, -169328.52, -187500.02, 0.00, 0.00, 0.00
186, 96174.10, 84137.13, -187500.02, -187500.02, -150561.13, -187500.02, -169862.95, -187500.02, 0.00, 0.00, 0.00
187, 95475.34, 85345.41, -187500.02, -187500.02, -148726.20, -187500.02, -169178.50, -187500.02, 0.00, 0.00, 0.00
188, 93992.79, 85765.95, -187500.02, -187500.02, -146578.52, -187500.02, -168569.52, -187500.02, 0.00, 0.00, 0.00
189, 94466.27, 84571.42, -187500.02, -187500.02, -148113.42, -187500.02, -169186.16, -187500.02, 0.00, 0.00, 0.00
190, 96035.30, 83939.31, -187500.02, -187500.02, -150515.45, -187500.02, -169911.52, -187500.02, 0.00, 0.00, 0.00
191, 95711.51, 85008.66, -187500.02, -187500.02, -149283.63, -187500.02, -169425.38, -187500.02, 0.00, 0.00, 0.00
192, 94127.48, 85742.20, -187500.02, -187500.02, -146767.56, -187500.02, -168660.05, -187500.02, 0.00, 0.00, 0.00
193, 94195.12, 84747.40, -187500.02, -187500.02, -147647.14, -187500.02, -169064.97, -187500.02, 0.00, 0.00, 0.00
194, 95815.58, 83847.85, -187500.02, -187500.02, -150321.83, -187500.02, -169899.09, -187500.02, 0.00, 0.00, 0.00
195, 95919.13, 84728.20, -187500.02, -187500.02, -149729.44, -187500.02, -169598.70, -187500.02, 0.00, 0.00, 0.00
196, 94319.75, 85699.20, -187500.02, -187500.02, -146992.94, -187500.02, -168745.36, -187500.02, 0.00, 0.00, 0.00
197, 93967.78, 84968.61, -187500.02, -187500.02, -147101.55, -187500.02, -168898.06, -187500.02, 0.00, 0.00, 0.00
198, 95510.99, 83828.85, -187500.02, -187500.02, -149905.19, -187500.02, -169815.89, -187500.02, 0.00, 0.00, 0.00
199, 96018.64, 84424.01, -187500.02, -187500.02, -150090.33, -187500.02, -169781.88, -187500.02, 0.00, 0.00, 0.00
200, 94552.44, 85636.93, -187500.02, -187500.02, -147342.89, -187500.02, -168864.61, -187500.02, 0.00, 0.00, 0.00
201, 93773.70, 85174.96, -187500.02, -187500.02, -146845.23, -187500.02, -168857.86, -187500.02, 0.00, 0.00, 0.00
202, 95230.90, 83936.36, -187500.02, -187500.02, -149741.63, -187500.02, -169822.11, -187500.02, 0.00, 0.00, 0.00
203, 96134.27, 84322.29, -187500.02, -187500.02, -150609.48, -187500.02, -170000.64, -187500.02, 0.00, 0.00, 0.00
204, 94755.77, 85629.51, -187500.02, -187500.02, -147868.88, -187500.02, -169119.22, -187500.02, 0.00, 0.00, 0.00
205, 93657.52, 85503.96, -187500.02, -187500.02, -146585.42, -187500.02, -168817.11, -187500.02, 0.00, 0.00, 0.00
206, 94861.18, 84192.09, -187500.02, -187500.02, -149192.48, -187500.02, -169701.77, -187500.02, 0.00, 0.00, 0.00
207, 96097.92, 84182.70, -187500.02, -187500.02, -150825.81, -187500.02, -170147.03, -187500.02, 0.00, 0.00, 0.00
208, 95020.03, 85504.77, -187500.02, -187500.02, -148448.19, -187500.02, -169349.58, -187500.02, 0.00, 0.00, 0.00
209, 93638.25, 85717.35, -187500.02, -187500.02, -146506.27, -187500.02, -168820.58, -187500.02, 0.00, 0.00, 0.00
210, 94499.48, 84408.43, -187500.02, -187500.02, -148667.58, -187500.02, -169598.30, -187500.02, 0.00, 0.00, 0.00
211, 96030.65, 84065.06, -187500.02, -187500.02, -150875.97, -187500.02, -170219.02, -187500.02, 0.00, 0.00, 0.00
212, 95350.39, 85356.37, -187500.02, -187500.02, -148949.63, -187500.02, -169512.27, -187500.02, 0.00, 0.00, 0.00
213, 93728.53, 85851.73, -187500.02, -187500.02, -146529.03, -187500.02, -168842.30, -187500.02, 0.00, 0.00, 0.00
214, 94170.47, 84649.14, -187500.02, -187500.02, -148087.64, -187500.02, -169451.19, -187500.02, 0.00, 0.00, 0.00
215, 95860.41, 83989.94, -187500.02, -187500.02, -150737.95, -187500.02, -170218.75, -187500.02, 0.00, 0.00, 0.00
216, 95604.04, 85141.19, -187500.02, -187500.02, -149455.78, -187500.02, -169694.34, -187500.02, 0.00, 0.00, 0.00
217, 93908.52, 85946.92, -187500.02, -187500.02, -146662.22, -187500.02, -168868.73, -187500.02, 0.00, 0.00, 0.00
218, 93898.38, 84928.78, -187500.02, -187500.02, -147502.91, -187500.02, -169266.45, -187500.02, 0.00, 0.00, 0.00
219, 95577.53, 83927.40, -187500.02, -187500.02, -150488.28, -187500.02, -170216.80, -187500.02, 0.00, 0.00, 0.00
220, 95756.97, 84820.35, -187500.02, -187500.02, -150000.63, -187500.02, -169957.55, -187500.02, 0.00, 0.00, 0.00
221, 94110.52, 85880.00, -187500.02, -187500.02, -147040.88, -187500.02, -169035.67, -187500.02, 0.00, 0.00, 0.00
222, 93682.26, 85144.95, -187500.02, -187500.02, -147104.63, -187500.02, -169189.48, -187500.02, 0.00, 0.00, 0.00
223, 95293.84, 83992.66, -187500.02, -187500.02, -150085.28, -187500.02, -170134.97, -187500.02, 0.00, 0.00, 0.00
224, 95917.34, 84613.66, -187500.02, -187500.02, -150357.00, -187500.02, -170101.33, -187500.02, 0.00, 0.00, 0.00
225, 94398.32, 85827.14, -187500.02, -187500.02, -147450.19, -187500.02, -169176.03, -187500.02, 0.00, 0.00, 0.00
226, 93569.38, 85414.53, -187500.02, -187500.02, -146718.95, -187500.02, -169062.64, -187500.02, 0.00, 0.00, 0.00
227, 94963.71, 84101.16, -187500.02, -187500.02, -149584.55, -187500.02, -170025.41, -187500.02, 0.00, 0.00, 0.00
228, 95993.05, 84371.46, -187500.02, -187500.02, -150660.66, -187500.02, -170257.02, -187500.02, 0.00, 0.00, 0.00
229, 94707.65, 85675.15, -187500.02, -187500.02, -147992.38, -187500.02, -169375.41, -187500.02, 0.00, 0.00, 0.00
230, 93511.20, 85607.65, -187500.02, -187500.02, -146528.08, -187500.02, -169019.89, -187500.02, 0.00, 0.00, 0.00
231, 94601.25, 84246.94, -187500.02, -187500.02, -149065.08, -187500.02, -169918.41, -187500.02, 0.00, 0.00, 0.00
232, 95934.55, 84142.58, -187500.02, -187500.02, -150867.11, -187500.02, -170413.45, -187500.02, 0.00, 0.00, 0.00
233, 94990.71, 85489.27, -187500.02, -187500.02, -148540.84, -187500.02, -169590.22, -187500.02, 0.00, 0.00, 0.00
234, 93525.04, 85756.27, -187500.02, -187500.02, -146463.91, -187500.02, -169035.03, -187500.02, 0.00, 0.00, 0.00
235, 94257.77, 84459.08, -187500.02, -187500.02, -148480.08, -187500.02, -169781.86, -187500.02, 0.00, 0.00, 0.00
236, 95842.71, 84021.14, -187500.02, -187500.02, -150840.70, -187500.02, -170450.75, -187500.02, 0.00, 0.00, 0.00
237, 95258.28, 85247.70, -187500.02, -187500.02, -149137.25, -187500.02, -169830.63, -187500.02, 0.00, 0.00, 0.00
238, 93613.66, 85847.23, -187500.02, -187500.02, -146588.92, -187500.02, -169107.39, -187500.02, 0.00, 0.00, 0.00
239, 93947.13, 84725.76, -187500.02, -187500.02, -147908.33, -187500.02, -169627.25, -187500.02, 0.00, 0.00, 0.00
240, 95630.86, 83948.81, -187500.02, -187500.02, -150687.36, -187500.02, -170471.09, -187500.02, 0.00, 0.00, 0.00
241, 95488.39, 85006.61, -187500.02, -187500.02, -149658.38, -187500.02, -170050.64, -187500.02, 0.00, 0.00, 0.00
242, 93831.91, 85930.90, -187500.02, -187500.02, -146754.69, -187500.02, -169141.83, -187500.02, 0.00, 0.00, 0.00
243, 93705.13, 85002.63, -187500.02, -187500.02, -147369.16, -187500.02, -169458.05, -187500.02, 0.00, 0.00, 0.00
244, 95352.13, 83948.81, -187500.02, -187500.02, -150379.64, -187500.02, -170423.19, -187500.02, 0.00, 0.00, 0.00
245, 95656.39, 84747.06, -187500.02, -187500.02, -150139.20, -187500.02, -170255.44, -187500.02, 0.00, 0.00, 0.00
246, 94040.36, 85835.91, -187500.02, -187500.02, -147211.95, -187500.02, -169355.97, -187500.02, 0.00, 0.00, 0.00
247, 93505.59, 85211.46, -187500.02, -187500.02, -147027.41, -187500.02, -169417.77, -187500.02, 0.00, 0.00, 0.00
248, 95042.16, 83995.41, -187500.02, -187500.02, -150007.47, -187500.02, -170394.14, -187500.02, 0.00, 0.00, 0.00
249, 95777.20, 84503.41, -187500.02, -187500.02, -150531.47, -187500.02, -170461.81, -187500.02, 0.00, 0.00, 0.00
250, 94372.19, 85809.46, -187500.02, -187500.02, -147597.27, -187500.02, -169464.39, -187500.02, 0.00, 0.00, 0.00
251, 93405.26, 85468.40, -187500.02, -187500.02, -146681.34, -187500.02, -169307.33, -187500.02, 0.00, 0.00, 0.00
252, 94688.40, 84126.91, -187500.02, -187500.02, -149495.14, -187500.02, -170285.81, -187500.02, 0.00, 0.00, 0.00
253, 95800.65, 84302.38, -187500.02, -187500.02, -150776.56, -187500.02, -170592.13, -187500.02, 0.00, 0.00, 0.00
254, 94630.11, 85645.71, -187500.02, -187500.02, -148160.70, -187500.02, -169696.25, -187500.02, 0.00, 0.00, 0.00
255, 93348.03, 85671.46, -187500.02, -187500.02, -146517.27, -187500.02, -169286.78, -187500.02, 0.00, 0.00, 0.00
0, 94328.98, 84332.03, -187500.02, -187500.02, -148918.63, -187500.02, -170149.45, -187500.02, 0.00, 0.00, 0.00
1, 95722.55, 84112.27, -187500.02, -187500.02, -150928.11, -187500.02, -170727.31, -187500.02, 0.00, 0.00, 0.00
2, 94861.34, 85390.43, -187500.02, -187500.02, -148835.80, -187500.02, -170009.28, -187500.02, 0.00, 0.00, 0.00
3, 93343.99, 85754.56, -187500.02, -187500.02, -146624.44, -187500.02, -169410.70, -187500.02, 0.00, 0.00, 0.00
4, 93983.45, 84532.08, -187500.02, -187500.02, -148437.58, -187500.02, -170081.28, -187500.02, 0.00, 0.00, 0.00
5, 95600.71, 84020.27, -187500.02, -187500.02, -150905.77, -187500.02, -170788.75, -187500.02, 0.00, 0.00, 0.00
6, 95157.01, 85221.41, -187500.02, -187500.02, -149354.03, -187500.02, -170199.92, -187500.02, 0.00, 0.00, 0.00
7, 93506.80, 85900.57, -187500.02, -187500.02, -146697.75, -187500.02, -169427.42, -187500.02, 0.00, 0.00, 0.00
8, 93710.60, 84838.01, -187500.02, -187500.02, -147818.92, -187500.02, -169888.03, -187500.02, 0.00, 0.00, 0.00
9, 95391.05, 84003.71, -187500.02, -187500.02, -150663.94, -187500.02, -170757.44, -187500.02, 0.00, 0.00, 0.00
10, 95368.70, 84989.02, -187500.02, -187500.02, -149865.30, -187500.02, -170413.66, -187500.02, 0.00, 0.00, 0.00
11, 93694.17, 85919.61, -187500.02, -187500.02, -146994.98, -187500.02, -169551.81, -187500.02, 0.00, 0.00, 0.00
12, 93450.90, 85073.66, -187500.02, -187500.02, -147400.19, -187500.02, -169808.59, -187500.02, 0.00, 0.00, 0.00
13, 95082.17, 84008.07, -187500.02, -187500.02, -150386.67, -187500.02, -170754.58, -187500.02, 0.00, 0.00, 0.00
14, 95518.01, 84765.03, -187500.02, -187500.02, -150320.58, -187500.02, -170619.48, -187500.02, 0.00, 0.00, 0.00
15, 93951.48, 85915.70, -187500.02, -187500.02, -147374.84, -187500.02, -169684.94, -187500.02, 0.00, 0.00, 0.00
16, 93288.40, 85363.19, -187500.02, -187500.02, -146986.27, -187500.02, -169690.22, -187500.02, 0.00, 0.00, 0.00
17, 94774.26, 84140.44, -187500.02, -187500.02, -149895.36, -187500.02, -170637.70, -187500.02, 0.00, 0.00, 0.00
18, 95619.89, 84565.34, -187500.02, -187500.02, -150630.56, -187500.02, -170762.89, -187500.02, 0.00, 0.00, 0.00
19, 94240.96, 85834.52, -187500.02, -187500.02, -147839.27, -187500.02, -169844.13, -187500.02, 0.00, 0.00, 0.00
20, 93213.23, 85619.34, -187500.02, -187500.02, -146684.88, -187500.02, -169582.09, -187500.02, 0.00, 0.00, 0.00
21, 94426.62, 84289.74, -187500.02, -187500.02, -149365.75, -187500.02, -170505.98, -187500.02, 0.00, 0.00, 0.00
22, 95624.63, 84352.89, -187500.02, -187500.02, -150851.19, -187500.02, -170888.94, -187500.02, 0.00, 0.00, 0.00
23, 94541.62, 85678.10, -187500.02, -187500.02, -148360.61, -187500.02, -170034.83, -187500.02, 0.00, 0.00, 0.00
24, 93220.30, 85833.24, -187500.02, -187500.02, -146487.63, -187500.02, -169509.75, -187500.02, 0.00, 0.00, 0.00
25, 94091.85, 84512.41, -187500.02, -187500.02, -148731.23, -187500.02, -170322.50, -187500.02, 0.00, 0.00, 0.00
26, 95548.81, 84207.49, -187500.02, -187500.02, -150884.86, -187500.02, -170949.11, -187500.02, 0.00, 0.00, 0.00
27, 94815.38, 85468.17, -187500.02, -187500.02, -148924.34, -187500.02, -170247.78, -187500.02, 0.00, 0.00, 0.00
28, 93264.93, 85926.63, -187500.02, -187500.02, -146552.06, -187500.02, -169569.72, -187500.02, 0.00, 0.00, 0.00
29, 93769.92, 84729.88, -187500.02, -187500.02, -148198.16, -187500.02, -170203.47, -187500.02, 0.00, 0.00, 0.00
30, 95409.40, 84118.02, -187500.02, -187500.02, -150808.02, -187500.02, -170983.08, -187500.02, 0.00, 0.00, 0.00
31, 95091.83, 85257.55, -187500.02, -187500.02, -149453.33, -187500.02, -170453.55, -187500.02, 0.00, 0.00, 0.00
32, 93417.13, 85979.27, -187500.02, -187500.02, -146733.55, -187500.02, -169659.92, -187500.02, 0.00, 0.00, 0.00
33, 93497.61, 84964.45, -187500.02, -187500.02, -147673.91, -187500.02, -170080.59, -187500.02, 0.00, 0.00, 0.00
34, 95184.99, 84073.13, -187500.02, -187500.02, -150573.69, -187500.02, -170975.55, -187500.02, 0.00, 0.00, 0.00
35, 95279.59, 84966.33, -187500.02, -187500.02, -150011.78, -187500.02, -170722.69, -187500.02, 0.00, 0.00, 0.00
36, 93631.72, 85960.31, -187500.02, -187500.02, -147093.30, -187500.02, -169825.63, -187500.02, 0.00, 0.00, 0.00
37, 93290.99, 85229.57, -187500.02, -187500.02, -147219.67, -187500.02, -169963.98, -187500.02, 0.00, 0.00, 0.00
38, 94880.91, 84103.55, -187500.02, -187500.02, -150216.95, -187500.02, -170933.66, -187500.02, 0.00, 0.00, 0.00
39, 95432.73, 84760.83, -187500.02, -187500.02, -150374.63, -187500.02, -170874.59, -187500.02, 0.00, 0.00, 0.00
40, 93896.68, 85922.98, -187500.02, -187500.02, -147455.09, -187500.02, -169948.56, -187500.02, 0.00, 0.00, 0.00
41, 93110.63, 85433.80, -187500.02, -187500.02, -146865.55, -187500.02, -169899.05, -187500.02, 0.00, 0.00, 0.00
42, 94529.39, 84166.85, -187500.02, -187500.02, -149753.48, -187500.02, -170873.06, -187500.02, 0.00, 0.00, 0.00
43, 95479.72, 84477.32, -187500.02, -187500.02, -150733.28, -187500.02, -171098.95, -187500.02, 0.00, 0.00, 0.00
44, 94203.01, 85778.08, -187500.02, -187500.02, -147989.53, -187500.02, -170174.48, -187500.02, 0.00, 0.00, 0.00
45, 93068.34, 85654.52, -187500.02, -187500.02, -146624.23, -187500.02, -169854.47, -187500.02, 0.00, 0.00, 0.00
46, 94199.05, 84334.85, -187500.02, -187500.02, -149187.52, -187500.02, -170766.45, -187500.02, 0.00, 0.00, 0.00
47, 95488.15, 84290.86, -187500.02, -187500.02, -150893.81, -187500.02, -171241.20, -187500.02, 0.00, 0.00, 0.00
48, 94490.41, 85583.46, -187500.02, -187500.02, -148569.09, -187500.02, -170446.08, -187500.02, 0.00, 0.00, 0.00
49, 93051.56, 85777.37, -187500.02, -187500.02, -146609.33, -187500.02, -169947.11, -187500.02, 0.00, 0.00, 0.00
50, 93847.71, 84524.02, -187500.02, -187500.02, -148668.58, -187500.02, -170693.47, -187500.02, 0.00, 0.00, 0.00
51, 95386.42, 84152.86, -187500.02, -187500.02, -150944.47, -187500.02, -171353.58, -187500.02, 0.00, 0.00, 0.00
52, 94775.70, 85414.35, -187500.02, -187500.02, -149101.27, -187500.02, -170666.88, -187500.02, 0.00, 0.00, 0.00
53, 93168.66, 85951.02, -187500.02, -187500.02, -146604.33, -187500.02, -169947.61, -187500.02, 0.00, 0.00, 0.00
54, 93545.20, 84781.48, -187500.02, -187500.02, -148077.73, -187500.02, -170545.75, -187500.02, 0.00, 0.00, 0.00
55, 95219.88, 84087.46, -187500.02, -187500.02, -150798.20, -187500.02, -171371.91, -187500.02, 0.00, 0.00, 0.00
56, 95025.48, 85185.85, -187500.02, -187500.02, -149648.03, -187500.02, -170896.45, -187500.02, 0.00, 0.00, 0.00
57, 93334.42, 85995.16, -187500.02, -187500.02, -146863.86, -187500.02, -170072.39, -187500.02, 0.00, 0.00, 0.00
58, 93282.77, 85051.47, -187500.02, -187500.02, -147603.31, -187500.02, -170439.33, -187500.02, 0.00, 0.00, 0.00
59, 94965.63, 84116.12, -187500.02, -187500.02, -150534.84, -187500.02, -171348.48, -187500.02, 0.00, 0.00, 0.00
60, 95216.93, 84997.67, -187500.02, -187500.02, -150124.34, -187500.02, -171104.66, -187500.02, 0.00, 0.00, 0.00
61, 93579.77, 86045.90, -187500.02, -187500.02, -147193.09, -187500.02, -170203.23, -187500.02, 0.00, 0.00, 0.00
62, 93092.95, 85375.88, -187500.02, -187500.02, -147135.92, -187500.02, -170314.77, -187500.02, 0.00, 0.00, 0.00
63, 94654.00, 84222.66, -187500.02, -187500.02, -150118.05, -187500.02, -171290.36, -187500.02, 0.00, 0.00, 0.00
64, 95307.43, 84769.97, -187500.02, -187500.02, -150545.56, -187500.02, -171339.03, -187500.02, 0.00, 0.00, 0.00
65, 93831.62, 85990.42, -187500.02, -187500.02, -147663.02, -187500.02, -170407.09, -187500.02, 0.00, 0.00, 0.00
66, 92958.91, 85657.00, -187500.02, -187500.02, -146791.50, -187500.02, -170226.36, -187500.02, 0.00, 0.00, 0.00
67, 94327.27, 84395.49, -187500.02, -187500.02, -149580.50, -187500.02, -171157.83, -187500.02, 0.00, 0.00, 0.00
68, 95385.98, 84617.47, -187500.02, -187500.02, -150764.80, -187500.02, -171438.92, -187500.02, 0.00, 0.00, 0.00
69, 94148.61, 85897.66, -187500.02, -187500.02, -148154.20, -187500.02, -170570.77, -187500.02, 0.00, 0.00, 0.00
70, 92923.17, 85870.80, -187500.02, -187500.02, -146606.03, -187500.02, -170188.66, -187500.02, 0.00, 0.00, 0.00
71, 93982.96, 84582.04, -187500.02, -187500.02, -149026.77, -187500.02, -171031.20, -187500.02, 0.00, 0.00, 0.00
72, 95337.18, 84430.98, -187500.02, -187500.02, -150928.06, -187500.02, -171573.91, -187500.02, 0.00, 0.00, 0.00
73, 94444.68, 85727.16, -187500.02, -187500.02, -148718.59, -187500.02, -170792.52, -187500.02, 0.00, 0.00, 0.00
74, 92959.16, 86035.77, -187500.02, -187500.02, -146562.95, -187500.02, -170197.27, -187500.02, 0.00, 0.00, 0.00
75, 93642.27, 84789.64, -187500.02, -187500.02, -148480.98, -187500.02, -170913.66, -187500.02, 0.00, 0.00, 0.00
76, 95230.59, 84310.15, -187500.02, -187500.02, -150921.59, -187500.02, -171635.52, -187500.02, 0.00, 0.00, 0.00
77, 94728.79, 85506.46, -187500.02, -187500.02, -149287.36, -187500.02, -171022.48, -187500.02, 0.00, 0.00, 0.00
78, 93093.96, 86131.73, -187500.02, -187500.02, -146659.48, -187500.02, -170244.09, -187500.02, 0.00, 0.00, 0.00
79, 93367.97, 85033.79, -187500.02, -187500.02, -147902.30, -187500.02, -170755.41, -187500.02, 0.00, 0.00, 0.00
80, 95047.77, 84241.66, -187500.02, -187500.02, -150722.70, -187500.02, -171631.34, -187500.02, 0.00, 0.00, 0.00
81, 94973.30, 85258.89, -187500.02, -187500.02, -149790.45, -187500.02, -171237.16, -187500.02, 0.00, 0.00, 0.00
82, 93310.08, 86155.38, -187500.02, -187500.02, -146899.38, -187500.02, -170336.36, -187500.02, 0.00, 0.00, 0.00
83, 93122.98, 85250.78, -187500.02, -187500.02, -147436.06, -187500.02, -170646.11, -187500.02, 0.00, 0.00, 0.00
84, 94786.01, 84226.76, -187500.02, -187500.02, -150425.00, -187500.02, -171598.72, -187500.02, 0.00, 0.00, 0.00
85, 95150.10, 84996.87, -187500.02, -187500.02, -150270.22, -187500.02, -171454.22, -187500.02, 0.00, 0.00, 0.00
86, 93550.18, 86101.66, -187500.02, -187500.02, -147310.22, -187500.02, -170519.28, -187500.02, 0.00, 0.00, 0.00
87, 92942.75, 85506.84, -187500.02, -187500.02, -147022.84, -187500.02, -170555.69, -187500.02, 0.00, 0.00, 0.00
88, 94456.21, 84299.47, -187500.02, -187500.02, -149989.34, -187500.02, -171540.30, -187500.02, 0.00, 0.00, 0.00
89, 95243.53, 84761.34, -187500.02, -187500.02, -150640.22, -187500.02, -171651.52, -187500.02, 0.00, 0.00, 0.00
90, 93818.60, 85998.73, -187500.02, -187500.02, -147817.47, -187500.02, -170729.88, -187500.02, 0.00, 0.00, 0.00
91, 92837.25, 85749.09, -187500.02, -187500.02, -146746.95, -187500.02, -170488.13, -187500.02, 0.00, 0.00, 0.00
92, 94112.77, 84448.30, -187500.02, -187500.02, -149489.16, -187500.02, -171431.86, -187500.02, 0.00, 0.00, 0.00
93, 95275.63, 84577.55, -187500.02, -187500.02, -150876.92, -187500.02, -171780.66, -187500.02, 0.00, 0.00, 0.00
94, 94147.29, 85921.20, -187500.02, -187500.02, -148298.17, -187500.02, -170878.50, -187500.02, 0.00, 0.00, 0.00
95, 92825.47, 86010.20, -187500.02, -187500.02, -146535.02, -187500.02, -170410.08, -187500.02, 0.00, 0.00, 0.00
96, 93767.53, 84700.46, -187500.02, -187500.02, -148868.77, -187500.02, -171253.22, -187500.02, 0.00, 0.00, 0.00
97, 95207.74, 84448.64, -187500.02, -187500.02, -150955.61, -187500.02, -171865.06, -187500.02, 0.00, 0.00, 0.00
98, 94436.59, 85759.93, -187500.02, -187500.02, -148853.94, -187500.02, -171095.80, -187500.02, 0.00, 0.00, 0.00
99, 92884.19, 86176.68, -187500.02, -187500.02, -146534.14, -187500.02, -170435.89, -187500.02, 0.00, 0.00, 0.00
100, 93458.14, 84956.59, -187500.02, -187500.02, -148295.86, -187500.02, -171117.89, -187500.02, 0.00, 0.00, 0.00
101, 95102.40, 84391.20, -187500.02, -187500.02, -150864.23, -187500.02, -171884.22, -187500.02, 0.00, 0.00, 0.00
102, 94698.93, 85540.66, -187500.02, -187500.02, -149424.41, -187500.02, -171335.64, -187500.02, 0.00, 0.00, 0.00
103, 93020.31, 86247.73, -187500.02, -187500.02, -146718.61, -187500.02, -170537.14, -187500.02, 0.00, 0.00, 0.00
104, 93165.95, 85220.00, -187500.02, -187500.02, -147758.08, -187500.02, -170981.27, -187500.02, 0.00, 0.00, 0.00
105, 94853.55, 84343.92, -187500.02, -187500.02, -150671.70, -187500.02, -171900.36, -187500.02, 0.00, 0.00, 0.00
106, 94890.62, 85290.86, -187500.02, -187500.02, -149951.08, -187500.02, -171576.77, -187500.02, 0.00, 0.00, 0.00
107, 93205.27, 86245.84, -187500.02, -187500.02, -147017.91, -187500.02, -170674.81, -187500.02, 0.00, 0.00, 0.00
108, 92901.20, 85437.77, -187500.02, -187500.02, -147300.92, -187500.02, -170890.77, -187500.02, 0.00, 0.00, 0.00
109, 94526.35, 84314.84, -187500.02, -187500.02, -150354.41, -187500.02, -171899.61, -187500.02, 0.00, 0.00, 0.00
110, 95040.46, 85013.34, -187500.02, -187500.02, -150399.61, -187500.02, -171801.67, -187500.02, 0.00, 0.00, 0.00
111, 93508.84, 86182.87, -187500.02, -187500.02, -147407.48, -187500.02, -170819.95, -187500.02, 0.00, 0.00, 0.00
112, 92794.00, 85683.78, -187500.02, -187500.02, -146865.38, -187500.02, -170751.00, -187500.02, 0.00, 0.00, 0.00
113, 94249.95, 84419.72, -187500.02, -187500.02, -149802.22, -187500.02, -171743.00, -187500.02, 0.00, 0.00, 0.00
114, 95149.31, 84772.05, -187500.02, -187500.02, -150671.94, -187500.02, -171925.92, -187500.02, 0.00, 0.00, 0.00
115, 93763.40, 85996.34, -187500.02, -187500.02, -147930.33, -187500.02, -171037.23, -187500.02, 0.00, 0.00, 0.00
116, 92660.77, 85791.63, -187500.02, -187500.02, -146696.89, -187500.02, -170776.36, -187500.02, 0.00, 0.00, 0.00
117, 93887.60, 84489.88, -187500.02, -187500.02, -149325.00, -187500.02, -171681.38, -187500.02, 0.00, 0.00, 0.00
118, 95147.75, 84497.28, -187500.02, -187500.02, -150927.67, -187500.02, -172110.02, -187500.02, 0.00, 0.00, 0.00
119, 94080.45, 85777.63, -187500.02, -187500.02, -148508.83, -187500.02, -171286.75, -187500.02, 0.00, 0.00, 0.00
120, 92684.39, 85919.19, -187500.02, -187500.02, -146606.81, -187500.02, -170794.25, -187500.02, 0.00, 0.00, 0.00
121, 93570.97, 84652.11, -187500.02, -187500.02, -148759.70, -187500.02, -171564.55, -187500.02, 0.00, 0.00, 0.00
122, 95100.81, 84325.77, -187500.02, -187500.02, -150970.42, -187500.02, -172193.25, -187500.02, 0.00, 0.00, 0.00
123, 94401.63, 85560.20, -187500.02, -187500.02, -149064.22, -187500.02, -171504.75, -187500.02, 0.00, 0.00, 0.00
124, 92808.02, 86047.42, -187500.02, -187500.02, -146606.78, -187500.02, -170795.58, -187500.02, 0.00, 0.00, 0.00
125, 93265.83, 84884.86, -187500.02, -187500.02, -148148.41, -187500.02, -171390.84, -187500.02, 0.00, 0.00, 0.00
126, 94927.52, 84207.58, -187500.02, -187500.02, -150857.13, -187500.02, -172225.03, -187500.02, 0.00, 0.00, 0.00
127, 94650.23, 85302.93, -187500.02, -187500.02, -149596.28, -187500.02, -171734.42, -187500.02, 0.00, 0.00, 0.00
128, 92984.57, 86121.23, -187500.02, -187500.02, -146727.59, -187500.02, -170835.03, -187500.02, 0.00, 0.00, 0.00
129, 92979.34, 85102.59, -187500.02, -187500.02, -147599.94, -187500.02, -171250.09, -187500.02, 0.00, 0.00, 0.00
130, 94695.30, 84181.38, -187500.02, -187500.02, -150553.55, -187500.02, -172171.92, -187500.02, 0.00, 0.00, 0.00
131, 94867.44, 85068.14, -187500.02, -187500.02, -150047.52, -187500.02, -171903.53, -187500.02, 0.00, 0.00, 0.00
132, 93203.42, 86075.89, -187500.02, -187500.02, -147084.58, -187500.02, -170977.06, -187500.02, 0.00, 0.00, 0.00
133, 92767.80, 85332.85, -187500.02, -187500.02, -147162.36, -187500.02, -171140.13, -187500.02, 0.00, 0.00, 0.00
134, 94389.76, 84216.77, -187500.02, -187500.02, -150156.94, -187500.02, -172105.47, -187500.02, 0.00, 0.00, 0.00
135, 95024.02, 84842.62, -187500.02, -187500.02, -150405.63, -187500.02, -172059.75, -187500.02, 0.00, 0.00, 0.00
136, 93472.17, 85976.67, -187500.02, -187500.02, -147523.34, -187500.02, -171160.16, -187500.02, 0.00, 0.00, 0.00
137, 92619.10, 85528.99, -187500.02, -187500.02, -146831.64, -187500.02, -171078.14, -187500.02, 0.00, 0.00, 0.00
138, 94026.77, 84268.55, -187500.02, -187500.02, -149705.92, -187500.02, -172049.94, -187500.02, 0.00, 0.00, 0.00
139, 95058.93, 84573.48, -187500.02, -187500.02, -150748.91, -187500.02, -172265.42, -187500.02, 0.00, 0.00, 0.00
140, 93748.31, 85819.14, -187500.02, -187500.02, -148081.13, -187500.02, -171394.31, -187500.02, 0.00, 0.00, 0.00
141, 92560.70, 85737.42, -187500.02, -187500.02, -146612.31, -187500.02, -171035.97, -187500.02, 0.00, 0.00, 0.00
142, 93681.43, 84432.62, -187500.02, -187500.02, -149141.09, -187500.02, -171923.63, -187500.02, 0.00, 0.00, 0.00
143, 95031.57, 84354.68, -187500.02, -187500.02, -150930.91, -187500.02, -172417.06, -187500.02, 0.00, 0.00, 0.00
144, 94053.32, 85643.57, -187500.02, -187500.02, -148614.52, -187500.02, -171612.98, -187500.02, 0.00, 0.00, 0.00
145, 92564.25, 85878.38, -187500.02, -187500.02, -146534.55, -187500.02, -171055.69, -187500.02, 0.00, 0.00, 0.00
146, 93317.28, 84616.82, -187500.02, -187500.02, -148570.86, -187500.02, -171814.23, -187500.02, 0.00, 0.00, 0.00
147, 94881.30, 84181.25, -187500.02, -187500.02, -150974.36, -187500.02, -172537.17, -187500.02, 0.00, 0.00, 0.00
148, 94314.70, 85413.23, -187500.02, -187500.02, -149208.89, -187500.02, -171877.58, -187500.02, 0.00, 0.00, 0.00
149, 92705.51, 86002.76, -187500.02, -187500.02, -146598.73, -187500.02, -171095.25, -187500.02, 0.00, 0.00, 0.00
150, 93043.20, 84871.00, -187500.02, -187500.02, -147964.05, -187500.02, -171638.02, -187500.02, 0.00, 0.00, 0.00
151, 94713.41, 84128.19, -187500.02, -187500.02, -150769.08, -187500.02, -172501.53, -187500.02, 0.00, 0.00, 0.00
152, 94536.39, 85162.58, -187500.02, -187500.02, -149733.48, -187500.02, -172083.55, -187500.02, 0.00, 0.00, 0.00
153, 92831.80, 86000.41, -187500.02, -187500.02, -146865.39, -187500.02, -171220.22, -187500.02, 0.00, 0.00, 0.00
154, 92728.20, 85080.93, -187500.02, -187500.02, -147494.39, -187500.02, -171547.08, -187500.02, 0.00, 0.00, 0.00
155, 94408.47, 84074.30, -187500.02, -187500.02, -150523.81, -187500.02, -172527.91, -187500.02, 0.00, 0.00, 0.00
156, 94714.24, 84906.70, -187500.02, -187500.02, -150216.97, -187500.02, -172319.25, -187500.02, 0.00, 0.00, 0.00
157, 93066.47, 85972.83, -187500.02, -187500.02, -147221.23, -187500.02, -171375.67, -187500.02, 0.00, 0.00, 0.00
158, 92533.34, 85333.80, -187500.02, -187500.02, -147040.83, -187500.02, -171435.55, -187500.02, 0.00, 0.00, 0.00
159, 94104.59, 84156.28, -187500.02, -187500.02, -150043.61, -187500.02, -172417.03, -187500.02, 0.00, 0.00, 0.00
160, 94815.18, 84658.81, -187500.02, -187500.02, -150578.83, -187500.02, -172498.84, -187500.02, 0.00, 0.00, 0.00
161, 93315.27, 85851.59, -187500.02, -187500.02, -147713.75, -187500.02, -171588.09, -187500.02, 0.00, 0.00, 0.00
162, 92372.47, 85511.83, -187500.02, -187500.02, -146786.05, -187500.02, -171419.41, -187500.02, 0.00, 0.00, 0.00
163, 93730.09, 84216.37, -187500.02, -187500.02, -149615.63, -187500.02, -172388.98, -187500.02, 0.00, 0.00, 0.00
164, 94854.34, 84396.02, -187500.02, -187500.02, -150919.64, -187500.02, -172723.09, -187500.02, 0.00, 0.00, 0.00
165, 93645.45, 85709.98, -187500.02, -187500.02, -148266.73, -187500.02, -171825.08, -187500.02, 0.00, 0.00, 0.00
166, 92353.16, 85712.21, -187500.02, -187500.02, -146602.63, -187500.02, -171403.98, -187500.02, 0.00, 0.00, 0.00
167, 93394.70, 84394.55, -187500.02, -187500.02, -149044.91, -187500.02, -172271.97, -187500.02, 0.00, 0.00, 0.00
168, 94841.16, 84238.16, -187500.02, -187500.02, -151013.72, -187500.02, -172813.09, -187500.02, 0.00, 0.00, 0.00
169, 93965.45, 85537.84, -187500.02, -187500.02, -148804.92, -187500.02, -172032.34, -187500.02, 0.00, 0.00, 0.00
170, 92404.39, 85866.73, -187500.02, -187500.02, -146543.22, -187500.02, -171412.89, -187500.02, 0.00, 0.00, 0.00
171, 93067.81, 84619.30, -187500.02, -187500.02, -148425.44, -187500.02, -172114.48, -187500.02, 0.00, 0.00, 0.00
172, 94720.41, 84116.85, -187500.02, -187500.02, -150954.38, -187500.02, -172852.92, -187500.02, 0.00, 0.00, 0.00
173, 94217.52, 85289.94, -187500.02, -187500.02, -149385.83, -187500.02, -172280.36, -187500.02, 0.00, 0.00, 0.00
174, 92520.55, 85956.45, -187500.02, -187500.02, -146651.47, -187500.02, -171469.69, -187500.02, 0.00, 0.00, 0.00
175, 92746.34, 84846.50, -187500.02, -187500.02, -147865.80, -187500.02, -171984.28, -187500.02, 0.00, 0.00, 0.00
176, 94498.23, 84021.63, -187500.02, -187500.02, -150787.97, -187500.02, -172893.91, -187500.02, 0.00, 0.00, 0.00
177, 94497.07, 85065.02, -187500.02, -187500.02, -149870.08, -187500.02, -172479.72, -187500.02, 0.00, 0.00, 0.00
178, 92768.30, 85988.74, -187500.02, -187500.02, -146886.83, -187500.02, -171563.52, -187500.02, 0.00, 0.00, 0.00
179, 92513.51, 85080.03, -187500.02, -187500.02, -147369.09, -187500.02, -171874.98, -187500.02, 0.00, 0.00, 0.00
180, 94228.72, 84042.76, -187500.02, -187500.02, -150424.17, -187500.02, -172831.14, -187500.02, 0.00, 0.00, 0.00
181, 94646.52, 84804.55, -187500.02, -187500.02, -150341.63, -187500.02, -172694.59, -187500.02, 0.00, 0.00, 0.00
182, 92972.93, 85891.83, -187500.02, -187500.02, -147367.64, -187500.02, -171791.67, -187500.02, 0.00, 0.00, 0.00
183, 92313.28, 85303.89, -187500.02, -187500.02, -147008.58, -187500.02, -171816.58, -187500.02, 0.00, 0.00, 0.00
184, 93883.83, 84087.30, -187500.02, -187500.02, -150013.42, -187500.02, -172798.14, -187500.02, 0.00, 0.00, 0.00
185, 94747.79, 84553.30, -187500.02, -187500.02, -150714.34, -187500.02, -172903.02, -187500.02, 0.00, 0.00, 0.00
186, 93280.40, 85806.76, -187500.02, -187500.02, -147823.50, -187500.02, -171964.73, -187500.02, 0.00, 0.00, 0.00
187, 92195.66, 85531.20, -187500.02, -187500.02, -146687.83, -187500.02, -171736.53, -187500.02, 0.00, 0.00, 0.00
188, 93482.08, 84204.27, -187500.02, -187500.02, -149463.42, -187500.02, -172694.56, -187500.02, 0.00, 0.00, 0.00
189, 94720.05, 84303.42, -187500.02, -187500.02, -150958.45, -187500.02, -173077.44, -187500.02, 0.00, 0.00, 0.00
190, 93580.56, 85633.45, -187500.02, -187500.02, -148375.59, -187500.02, -172193.25, -187500.02, 0.00, 0.00, 0.00
191, 92184.49, 85719.79, -187500.02, -187500.02, -146516.80, -187500.02, -171719.66, -187500.02, 0.00, 0.00, 0.00
192, 93154.58, 84418.16, -187500.02, -187500.02, -148817.31, -187500.02, -172531.67, -187500.02, 0.00, 0.00, 0.00
193, 94644.52, 84107.82, -187500.02, -187500.02, -151044.36, -187500.02, -173200.55, -187500.02, 0.00, 0.00, 0.00
194, 93871.42, 85393.25, -187500.02, -187500.02, -148981.19, -187500.02, -172462.28, -187500.02, 0.00, 0.00, 0.00
195, 92266.75, 85827.66, -187500.02, -187500.02, -146544.53, -187500.02, -171764.13, -187500.02, 0.00, 0.00, 0.00
196, 92805.20, 84583.22, -187500.02, -187500.02, -148286.75, -187500.02, -172444.23, -187500.02, 0.00, 0.00, 0.00
197, 94499.73, 83959.36, -187500.02, -187500.02, -150993.77, -187500.02, -173279.81, -187500.02, 0.00, 0.00, 0.00
198, 94147.38, 85125.41, -187500.02, -187500.02, -149561.58, -187500.02, -172724.38, -187500.02, 0.00, 0.00, 0.00
199, 92441.02, 85882.57, -187500.02, -187500.02, -146698.25, -187500.02, -171846.83, -187500.02, 0.00, 0.00, 0.00
200, 92553.54, 84829.31, -187500.02, -187500.02, -147700.25, -187500.02, -172281.72, -187500.02, 0.00, 0.00, 0.00
201, 94306.23, 83946.84, -187500.02, -187500.02, -150672.25, -187500.02, -173195.25, -187500.02, 0.00, 0.00, 0.00
202, 94375.59, 84878.84, -187500.02, -187500.02, -150028.84, -187500.02, -172902.42, -187500.02, 0.00, 0.00, 0.00
203, 92633.59, 85850.43, -187500.02, -187500.02, -147022.94, -187500.02, -171988.91, -187500.02, 0.00, 0.00, 0.00
204, 92271.10, 85027.24, -187500.02, -187500.02, -147258.23, -187500.02, -172212.16, -187500.02, 0.00, 0.00, 0.00
205, 93973.08, 83923.00, -187500.02, -187500.02, -150332.48, -187500.02, -173190.05, -187500.02, 0.00, 0.00, 0.00
206, 94542.31, 84608.68, -187500.02, -187500.02, -150471.94, -187500.02, -173128.31, -187500.02, 0.00, 0.00, 0.00
207, 92968.08, 85811.70, -187500.02, -187500.02, -147409.95, -187500.02, -172130.28, -187500.02, 0.00, 0.00, 0.00
208, 92160.87, 85279.23, -187500.02, -187500.02, -146837.44, -187500.02, -172091.66, -187500.02, 0.00, 0.00, 0.00
209, 93629.91, 83965.06, -187500.02, -187500.02, -149875.66, -187500.02, -173138.48, -187500.02, 0.00, 0.00, 0.00
210, 94598.34, 84313.21, -187500.02, -187500.02, -150845.53, -187500.02, -173353.86, -187500.02, 0.00, 0.00, 0.00
211, 93224.27, 85612.32, -187500.02, -187500.02, -148006.11, -187500.02, -172417.44, -187500.02, 0.00, 0.00, 0.00
212, 92059.01, 85458.59, -187500.02, -187500.02, -146626.72, -187500.02, -172096.36, -187500.02, 0.00, 0.00, 0.00
213, 93296.98, 84144.03, -187500.02, -187500.02, -149281.17, -187500.02, -173001.72, -187500.02, 0.00, 0.00, 0.00
214, 94621.23, 84143.85, -187500.02, -187500.02, -150988.58, -187500.02, -173456.75, -187500.02, 0.00, 0.00, 0.00
215, 93556.91, 85475.33, -187500.02, -187500.02, -148531.52, -187500.02, -172611.11, -187500.02, 0.00, 0.00, 0.00
216, 92067.34, 85651.39, -187500.02, -187500.02, -146506.30, -187500.02, -172086.67, -187500.02, 0.00, 0.00, 0.00
217, 92914.61, 84339.70, -187500.02, -187500.02, -148695.78, -187500.02, -172889.11, -187500.02, 0.00, 0.00, 0.00
218, 94515.53, 83994.59, -187500.02, -187500.02, -151019.20, -187500.02, -173550.03, -187500.02, 0.00, 0.00, 0.00
219, 93863.55, 85296.35, -187500.02, -187500.02, -149059.38, -187500.02, -172814.45, -187500.02, 0.00, 0.00, 0.00
220, 92198.87, 85827.32, -187500.02, -187500.02, -146468.83, -187500.02, -172060.73, -187500.02, 0.00, 0.00, 0.00
221, 92596.32, 84599.27, -187500.02, -187500.02, -148056.98, -187500.02, -172706.94, -187500.02, 0.00, 0.00, 0.00
222, 94305.05, 83885.49, -187500.02, -187500.02, -150900.67, -187500.02, -173602.27, -187500.02, 0.00, 0.00, 0.00
223, 94089.17, 85043.78, -187500.02, -187500.02, -149637.02, -187500.02, -173080.64, -187500.02, 0.00, 0.00, 0.00
224, 92348.77, 85868.36, -187500.02, -187500.02, -146715.14, -187500.02, -172200.41, -187500.02, 0.00, 0.00, 0.00
225, 92316.26, 84864.61, -187500.02, -187500.02, -147530.11, -187500.02, -172602.42, -187500.02, 0.00, 0.00, 0.00
226, 94052.96, 83911.62, -187500.02, -187500.02, -150605.78, -187500.02, -173582.84, -187500.02, 0.00, 0.00, 0.00
227, 94291.73, 84867.91, -187500.02, -187500.02, -150133.67, -187500.02, -173314.02, -187500.02, 0.00, 0.00, 0.00
228, 92602.88, 85968.49, -187500.02, -187500.02, -147041.23, -187500.02, -172334.36, -187500.02, 0.00, 0.00, 0.00
229, 92108.14, 85250.98, -187500.02, -187500.02, -147041.69, -187500.02, -172477.94, -187500.02, 0.00, 0.00, 0.00
230, 93736.55, 84121.23, -187500.02, -187500.02, -150139.13, -187500.02, -173485.67, -187500.02, 0.00, 0.00, 0.00
231, 94380.70, 84724.04, -187500.02, -187500.02, -150549.55, -187500.02, -173540.14, -187500.02, 0.00, 0.00, 0.00
232, 92852.12, 85977.13, -187500.02, -187500.02, -147515.45, -187500.02, -172546.83, -187500.02, 0.00, 0.00, 0.00
233, 91941.30, 85555.91, -187500.02, -187500.02, -146720.78, -187500.02, -172432.28, -187500.02, 0.00, 0.00, 0.00
234, 93367.13, 84279.80, -187500.02, -187500.02, -149680.33, -187500.02, -173444.14, -187500.02, 0.00, 0.00, 0.00
235, 94462.76, 84600.77, -187500.02, -187500.02, -150832.34, -187500.02, -173699.63, -187500.02, 0.00, 0.00, 0.00
236, 93177.00, 85930.23, -187500.02, -187500.02, -148056.78, -187500.02, -172765.77, -187500.02, 0.00, 0.00, 0.00
237, 91912.56, 85842.01, -187500.02, -187500.02, -146501.84, -187500.02, -172405.19, -187500.02, 0.00, 0.00, 0.00
238, 93051.27, 84549.25, -187500.02, -187500.02, -149039.58, -187500.02, -173283.30, -187500.02, 0.00, 0.00, 0.00
239, 94452.79, 84474.26, -187500.02, -187500.02, -150952.09, -187500.02, -173814.17, -187500.02, 0.00, 0.00, 0.00
240, 93490.03, 85774.46, -187500.02, -187500.02, -148662.28, -187500.02, -173034.06, -187500.02, 0.00, 0.00, 0.00
241, 91943.52, 86024.91, -187500.02, -187500.02, -146481.13, -187500.02, -172460.83, -187500.02, 0.00, 0.00, 0.00
242, 92695.32, 84758.35, -187500.02, -187500.02, -148512.30, -187500.02, -173212.88, -187500.02, 0.00, 0.00, 0.00
243, 94323.04, 84322.20, -187500.02, -187500.02, -151030.84, -187500.02, -173966.73, -187500.02, 0.00, 0.00, 0.00
244, 93779.45, 85596.90, -187500.02, -187500.02, -149250.02, -187500.02, -173288.33, -187500.02, 0.00, 0.00, 0.00
245, 92064.28, 86177.95, -187500.02, -187500.02, -146553.70, -187500.02, -172511.20, -187500.02, 0.00, 0.00, 0.00
246, 92365.54, 85034.03, -187500.02, -187500.02, -147901.28, -187500.02, -173063.00, -187500.02, 0.00, 0.00, 0.00
247, 94133.07, 84308.05, -187500.02, -187500.02, -150780.06, -187500.02, -173925.98, -187500.02, 0.00, 0.00, 0.00
248, 94054.95, 85415.09, -187500.02, -187500.02, -149704.98, -187500.02, -173454.98, -187500.02, 0.00, 0.00, 0.00
249, 92303.78, 86284.28, -187500.02, -187500.02, -146694.03, -187500.02, -172530.41, -187500.02, 0.00, 0.00, 0.00
250, 92100.88, 85293.65, -187500.02, -187500.02, -147332.22, -187500.02, -172901.44, -187500.02, 0.00, 0.00, 0.00
251, 93818.47, 84263.10, -187500.02, -187500.02, -150477.09, -187500.02, -173924.95, -187500.02, 0.00, 0.00, 0.00
252, 94203.48, 85142.44, -187500.02, -187500.02, -150204.19, -187500.02, -173701.91, -187500.02, 0.00, 0.00, 0.00
253, 92543.91, 86254.59, -187500.02, -187500.02, -147089.89, -187500.02, -172705.91, -187500.02, 0.00, 0.00, 0.00
254, 91919.40, 85558.27, -187500.02, -187500.02, -146885.80, -187500.02, -172800.34, -187500.02, 0.00, 0.00, 0.00
255, 93537.94, 84373.74, -187500.02, -187500.02, -149960.63, -187500.02, -173798.86, -187500.02, 0.00, 0.00, 0.00
0, 94337.63, 84894.38, -187500.02, -187500.02, -150583.56, -187500.02, -173896.41, -187500.02, 0.00, 0.00, 0.00
1, 92827.75, 86111.27, -187500.02, -187500.02, -147651.53, -187500.02, -172966.16, -187500.02, 0.00, 0.00, 0.00
2, 91811.30, 85765.07, -187500.02, -187500.02, -146627.33, -187500.02, -172782.53, -187500.02, 0.00, 0.00, 0.00
3, 93178.70, 84466.88, -187500.02, -187500.02, -149491.84, -187500.02, -173755.97, -187500.02, 0.00, 0.00, 0.00
4, 94371.01, 84657.32, -187500.02, -187500.02, -150894.78, -187500.02, -174108.38, -187500.02, 0.00, 0.00, 0.00
5, 93190.41, 86017.22, -187500.02, -187500.02, -148175.09, -187500.02, -173160.91, -187500.02, 0.00, 0.00, 0.00
6, 91821.39, 86009.27, -187500.02, -187500.02, -146407.08, -187500.02, -172720.66, -187500.02, 0.00, 0.00, 0.00
7, 92851.58, 84683.29, -187500.02, -187500.02, -148854.48, -187500.02, -173593.39, -187500.02, 0.00, 0.00, 0.00
8, 94368.81, 84518.49, -187500.02, -187500.02, -150947.36, -187500.02, -174175.89, -187500.02, 0.00, 0.00, 0.00
9, 93519.88, 85813.80, -187500.02, -187500.02, -148763.39, -187500.02, -173412.42, -187500.02, 0.00, 0.00, 0.00
10, 91900.71, 86128.84, -187500.02, -187500.02, -146425.98, -187500.02, -172792.03, -187500.02, 0.00, 0.00, 0.00
11, 92532.06, 84867.76, -187500.02, -187500.02, -148301.45, -187500.02, -173509.64, -187500.02, 0.00, 0.00, 0.00
12, 94240.34, 84366.63, -187500.02, -187500.02, -150930.34, -187500.02, -174277.86, -187500.02, 0.00, 0.00, 0.00
13, 93815.99, 85570.70, -187500.02, -187500.02, -149378.56, -187500.02, -173685.50, -187500.02, 0.00, 0.00, 0.00
14, 92108.77, 86253.28, -187500.02, -187500.02, -146554.84, -187500.02, -172839.78, -187500.02, 0.00, 0.00, 0.00
15, 92276.47, 85142.24, -187500.02, -187500.02, -147715.95, -187500.02, -173337.44, -187500.02, 0.00, 0.00, 0.00
16, 94022.88, 84305.46, -187500.02, -187500.02, -150728.11, -187500.02, -174283.56, -187500.02, 0.00, 0.00, 0.00
17, 94063.05, 85336.81, -187500.02, -187500.02, -149903.69, -187500.02, -173907.42, -187500.02, 0.00, 0.00, 0.00
18, 92335.52, 86271.02, -187500.02, -187500.02, -146854.67, -187500.02, -172970.94, -187500.02, 0.00, 0.00, 0.00
19, 92031.07, 85361.45, -187500.02, -187500.02, -147246.94, -187500.02, -173255.11, -187500.02, 0.00, 0.00, 0.00
20, 93735.34, 84273.88, -187500.02, -187500.02, -150403.98, -187500.02, -174284.33, -187500.02, 0.00, 0.00, 0.00
21, 94265.66, 85085.66, -187500.02, -187500.02, -150342.14, -187500.02, -174113.67, -187500.02, 0.00, 0.00, 0.00
22, 92617.49, 86197.51, -187500.02, -187500.02, -147287.16, -187500.02, -173166.41, -187500.02, 0.00, 0.00, 0.00
23, 91885.31, 85597.43, -187500.02, -187500.02, -146844.58, -187500.02, -173178.00, -187500.02, 0.00, 0.00, 0.00
24, 93455.32, 84389.26, -187500.02, -187500.02, -149864.39, -187500.02, -174156.09, -187500.02, 0.00, 0.00, 0.00
25, 94363.41, 84808.95, -187500.02, -187500.02, -150733.19, -187500.02, -174343.36, -187500.02, 0.00, 0.00, 0.00
26, 92921.65, 86057.72, -187500.02, -187500.02, -147871.92, -187500.02, -173427.88, -187500.02, 0.00, 0.00, 0.00
27, 91812.18, 85825.80, -187500.02, -187500.02, -146609.83, -187500.02, -173145.17, -187500.02, 0.00, 0.00, 0.00
28, 93074.85, 84504.79, -187500.02, -187500.02, -149388.77, -187500.02, -174112.58, -187500.02, 0.00, 0.00, 0.00
29, 94358.40, 84592.27, -187500.02, -187500.02, -151009.98, -187500.02, -174549.17, -187500.02, 0.00, 0.00, 0.00
30, 93276.51, 85946.19, -187500.02, -187500.02, -148428.31, -187500.02, -173646.98, -187500.02, 0.00, 0.00, 0.00
31, 91852.99, 86041.77, -187500.02, -187500.02, -146472.25, -187500.02, -173128.36, -187500.02, 0.00, 0.00, 0.00
32, 92733.96, 84701.30, -187500.02, -187500.02, -148791.11, -187500.02, -173982.95, -187500.02, 0.00, 0.00, 0.00
33, 94297.36, 84450.66, -187500.02, -187500.02, -151032.50, -187500.02, -174614.13, -187500.02, 0.00, 0.00, 0.00
34, 93572.24, 85760.73, -187500.02, -187500.02, -148973.33, -187500.02, -173859.38, -187500.02, 0.00, 0.00, 0.00
35, 91907.20, 86175.78, -187500.02, -187500.02, -146485.28, -187500.02, -173172.22, -187500.02, 0.00, 0.00, 0.00
36, 92396.72, 84951.20, -187500.02, -187500.02, -148159.52, -187500.02, -173830.45, -187500.02, 0.00, 0.00, 0.00
37, 94111.66, 84347.10, -187500.02, -187500.02, -150908.77, -187500.02, -174659.52, -187500.02, 0.00, 0.00, 0.00
38, 93809.20, 85503.09, -187500.02, -187500.02, -149562.77, -187500.02, -174137.94, -187500.02, 0.00, 0.00, 0.00
39, 92076.76, 86243.89, -187500.02, -187500.02, -146677.81, -187500.02, -173279.23, -187500.02, 0.00, 0.00, 0.00
40, 92147.57, 85206.01, -187500.02, -187500.02, -147606.78, -187500.02, -173697.09, -187500.02, 0.00, 0.00, 0.00
41, 93901.64, 84303.96, -187500.02, -187500.02, -150665.22, -187500.02, -174660.80, -187500.02, 0.00, 0.00, 0.00
42, 94054.55, 85265.06, -187500.02, -187500.02, -150065.03, -187500.02, -174357.89, -187500.02, 0.00, 0.00, 0.00
43, 92339.21, 86251.04, -187500.02, -187500.02, -146998.44, -187500.02, -173404.66, -187500.02, 0.00, 0.00, 0.00
44, 91913.70, 85412.07, -187500.02, -187500.02, -147186.77, -187500.02, -173628.92, -187500.02, 0.00, 0.00, 0.00
45, 93599.45, 84304.02, -187500.02, -187500.02, -150313.63, -187500.02, -174645.84, -187500.02, 0.00, 0.00, 0.00
46, 94227.64, 85013.45, -187500.02, -187500.02, -150507.91, -187500.02, -174581.56, -187500.02, 0.00, 0.00, 0.00
47, 92623.30, 86188.48, -187500.02, -187500.02, -147459.53, -187500.02, -173603.44, -187500.02, 0.00, 0.00, 0.00
48, 91773.27, 85680.91, -187500.02, -187500.02, -146790.66, -187500.02, -173535.61, -187500.02, 0.00, 0.00, 0.00
49, 93258.27, 84421.71, -187500.02, -187500.02, -149781.09, -187500.02, -174542.44, -187500.02, 0.00, 0.00, 0.00
50, 94295.95, 84795.72, -187500.02, -187500.02, -150801.72, -187500.02, -174748.23, -187500.02, 0.00, 0.00, 0.00
51, 92916.18, 86051.58, -187500.02, -187500.02, -148005.72, -187500.02, -173843.13, -187500.02, 0.00, 0.00, 0.00
52, 91679.95, 85853.36, -187500.02, -187500.02, -146600.69, -187500.02, -173551.55, -187500.02, 0.00, 0.00, 0.00
53, 92874.58, 84545.42, -187500.02, -187500.02, -149238.81, -187500.02, -174462.33, -187500.02, 0.00, 0.00, 0.00
54, 94249.34, 84545.88, -187500.02, -187500.02, -151024.30, -187500.02, -174944.02, -187500.02, 0.00, 0.00, 0.00
55, 93246.80, 85865.84, -187500.02, -187500.02, -148594.86, -187500.02, -174103.78, -187500.02, 0.00, 0.00, 0.00
56, 91735.42, 86026.77, -187500.02, -187500.02, -146513.27, -187500.02, -173565.38, -187500.02, 0.00, 0.00, 0.00
57, 92558.81, 84739.46, -187500.02, -187500.02, -148651.08, -187500.02, -174346.58, -187500.02, 0.00, 0.00, 0.00
58, 94176.73, 84391.11, -187500.02, -187500.02, -151055.52, -187500.02, -175042.56, -187500.02, 0.00, 0.00, 0.00
59, 93555.21, 85638.80, -187500.02, -187500.02, -149216.34, -187500.02, -174371.86, -187500.02, 0.00, 0.00, 0.00
60, 91885.29, 86164.45, -187500.02, -187500.02, -146581.19, -187500.02, -173598.64, -187500.02, 0.00, 0.00, 0.00
61, 92274.50, 84976.32, -187500.02, -187500.02, -148077.47, -187500.02, -174192.97, -187500.02, 0.00, 0.00, 0.00
62, 94012.20, 84278.03, -187500.02, -187500.02, -150957.91, -187500.02, -175090.97, -187500.02, 0.00, 0.00, 0.00
63, 93822.56, 85405.41, -187500.02, -187500.02, -149779.53, -187500.02, -174617.19, -187500.02, 0.00, 0.00, 0.00
64, 92074.30, 86212.93, -187500.02, -187500.02, -146820.83, -187500.02, -173730.81, -187500.02, 0.00, 0.00, 0.00
65, 92011.63, 85219.30, -187500.02, -187500.02, -147551.92, -187500.02, -174105.20, -187500.02, 0.00, 0.00, 0.00
66, 93772.05, 84266.27, -187500.02, -187500.02, -150640.16, -187500.02, -175086.27, -187500.02, 0.00, 0.00, 0.00
67, 94061.37, 85166.60, -187500.02, -187500.02, -150261.19, -187500.02, -174853.44, -187500.02, 0.00, 0.00, 0.00
68, 92367.33, 86204.10, -187500.02, -187500.02, -147196.58, -187500.02, -173901.08, -187500.02, 0.00, 0.00, 0.00
69, 91862.16, 85486.59, -187500.02, -187500.02, -147113.97, -187500.02, -174011.00, -187500.02, 0.00, 0.00, 0.00
70, 93502.13, 84330.18, -187500.02, -187500.02, -150225.89, -187500.02, -175031.36, -187500.02, 0.00, 0.00, 0.00
71, 94235.89, 84931.69, -187500.02, -187500.02, -150676.38, -187500.02, -175070.50, -187500.02, 0.00, 0.00, 0.00
72, 92726.92, 86157.55, -187500.02, -187500.02, -147659.95, -187500.02, -174083.66, -187500.02, 0.00, 0.00, 0.00
73, 91788.64, 85761.63, -187500.02, -187500.02, -146746.89, -187500.02, -173900.80, -187500.02, 0.00, 0.00, 0.00
74, 93199.10, 84475.73, -187500.02, -187500.02, -149677.02, -187500.02, -174893.77, -187500.02, 0.00, 0.00, 0.00
75, 94322.81, 84737.05, -187500.02, -187500.02, -150944.61, -187500.02, -175207.55, -187500.02, 0.00, 0.00, 0.00
76, 93047.34, 86039.75, -187500.02, -187500.02, -148209.97, -187500.02, -174293.08, -187500.02, 0.00, 0.00, 0.00
77, 91727.20, 85942.09, -187500.02, -187500.02, -146599.59, -187500.02, -173924.14, -187500.02, 0.00, 0.00, 0.00
78, 92836.78, 84629.11, -187500.02, -187500.02, -149129.06, -187500.02, -174812.34, -187500.02, 0.00, 0.00, 0.00
79, 94267.38, 84510.87, -187500.02, -187500.02, -151138.47, -187500.02, -175395.16, -187500.02, 0.00, 0.00, 0.00
80, 93353.33, 85830.25, -187500.02, -187500.02, -148853.16, -187500.02, -174592.13, -187500.02, 0.00, 0.00, 0.00
81, 91781.49, 86103.70, -187500.02, -187500.02, -146580.55, -187500.02, -173966.08, -187500.02, 0.00, 0.00, 0.00
82, 92486.17, 84817.52, -187500.02, -187500.02, -148579.59, -187500.02, -174720.30, -187500.02, 0.00, 0.00, 0.00
83, 94149.16, 84348.95, -187500.02, -187500.02, -151168.70, -187500.02, -175507.91, -187500.02, 0.00, 0.00, 0.00
84, 93651.28, 85601.26, -187500.02, -187500.02, -149459.03, -187500.02, -174860.11, -187500.02, 0.00, 0.00, 0.00
85, 91931.58, 86208.24, -187500.02, -187500.02, -146697.78, -187500.02, -174045.94, -187500.02, 0.00, 0.00, 0.00
86, 92207.40, 85072.88, -187500.02, -187500.02, -147982.27, -187500.02, -174570.78, -187500.02, 0.00, 0.00, 0.00
87, 93978.71, 84296.59, -187500.02, -187500.02, -150950.27, -187500.02, -175496.13, -187500.02, 0.00, 0.00, 0.00
88, 93923.77, 85364.35, -187500.02, -187500.02, -149993.00, -187500.02, -175087.09, -187500.02, 0.00, 0.00, 0.00
89, 92150.79, 86229.77, -187500.02, -187500.02, -146984.48, -187500.02, -174179.31, -187500.02, 0.00, 0.00, 0.00
90, 91954.00, 85305.12, -187500.02, -187500.02, -147489.88, -187500.02, -174473.67, -187500.02, 0.00, 0.00, 0.00
91, 93701.26, 84289.66, -187500.02, -187500.02, -150614.13, -187500.02, -175468.11, -187500.02, 0.00, 0.00, 0.00
92, 94102.85, 85096.28, -187500.02, -187500.02, -150484.64, -187500.02, -175326.67, -187500.02, 0.00, 0.00, 0.00
93, 92414.02, 86166.73, -187500.02, -187500.02, -147427.09, -187500.02, -174387.34, -187500.02, 0.00, 0.00, 0.00
94, 91758.20, 85510.46, -187500.02, -187500.02, -147123.45, -187500.02, -174438.08, -187500.02, 0.00, 0.00, 0.00
95, 93381.85, 84331.19, -187500.02, -187500.02, -150191.47, -187500.02, -175433.61, -187500.02, 0.00, 0.00, 0.00
96, 94236.36, 84845.59, -187500.02, -187500.02, -150873.91, -187500.02, -175545.66, -187500.02, 0.00, 0.00, 0.00
97, 92750.08, 86091.95, -187500.02, -187500.02, -147908.66, -187500.02, -174576.64, -187500.02, 0.00, 0.00, 0.00
98, 91653.46, 85731.97, -187500.02, -187500.02, -146829.52, -187500.02, -174384.70, -187500.02, 0.00, 0.00, 0.00
99, 92992.15, 84420.28, -187500.02, -187500.02, -149686.97, -187500.02, -175371.48, -187500.02, 0.00, 0.00, 0.00
100, 94247.13, 84619.41, -187500.02, -187500.02, -151122.59, -187500.02, -175714.75, -187500.02, 0.00, 0.00, 0.00
101, 93060.03, 85936.71, -187500.02, -187500.02, -148475.34, -187500.02, -174816.09, -187500.02, 0.00, 0.00, 0.00
102, 91643.00, 85930.34, -187500.02, -187500.02, -146661.95, -187500.02, -174374.64, -187500.02, 0.00, 0.00, 0.00
103, 92646.66, 84589.13, -187500.02, -187500.02, -149097.84, -187500.02, -175260.89, -187500.02, 0.00, 0.00, 0.00
104, 94188.99, 84396.92, -187500.02, -187500.02, -151258.63, -187500.02, -175875.13, -187500.02, 0.00, 0.00, 0.00
105, 93392.80, 85723.14, -187500.02, -187500.02, -149080.61, -187500.02, -175079.23, -187500.02, 0.00, 0.00, 0.00
106, 91733.63, 86067.67, -187500.02, -187500.02, -146666.39, -187500.02, -174417.72, -187500.02, 0.00, 0.00, 0.00
107, 92311.54, 84819.23, -187500.02, -187500.02, -148467.80, -187500.02, -175103.83, -187500.02, 0.00, 0.00, 0.00
108, 94009.42, 84263.95, -187500.02, -187500.02, -151182.30, -187500.02, -175927.83, -187500.02, 0.00, 0.00, 0.00
109, 93599.02, 85434.87, -187500.02, -187500.02, -149714.89, -187500.02, -175382.48, -187500.02, 0.00, 0.00, 0.00
110, 91840.99, 86100.57, -187500.02, -187500.02, -146882.61, -187500.02, -174559.88, -187500.02, 0.00, 0.00, 0.00
111, 91991.66, 85022.75, -187500.02, -187500.02, -147947.69, -187500.02, -175017.11, -187500.02, 0.00, 0.00, 0.00
112, 93776.02, 84191.89, -187500.02, -187500.02, -150965.16, -187500.02, -175950.13, -187500.02, 0.00, 0.00, 0.00
113, 93840.55, 85195.98, -187500.02, -187500.02, -150219.28, -187500.02, -175607.39, -187500.02, 0.00, 0.00, 0.00
114, 92075.13, 86120.89, -187500.02, -187500.02, -147166.92, -187500.02, -174681.52, -187500.02, 0.00, 0.00, 0.00
115, 91725.99, 85222.33, -187500.02, -187500.02, -147498.11, -187500.02, -174951.48, -187500.02, 0.00, 0.00, 0.00
116, 93444.23, 84149.76, -187500.02, -187500.02, -150636.48, -187500.02, -175956.03, -187500.02, 0.00, 0.00, 0.00
117, 93984.79, 84900.53, -187500.02, -187500.02, -150700.23, -187500.02, -175857.17, -187500.02, 0.00, 0.00, 0.00
118, 92343.41, 86049.84, -187500.02, -187500.02, -147598.06, -187500.02, -174858.27, -187500.02, 0.00, 0.00, 0.00
119, 91564.79, 85491.35, -187500.02, -187500.02, -147031.06, -187500.02, -174799.98, -187500.02, 0.00, 0.00, 0.00
120, 93072.62, 84208.05, -187500.02, -187500.02, -150112.83, -187500.02, -175850.94, -187500.02, 0.00, 0.00, 0.00
121, 94023.68, 84602.60, -187500.02, -187500.02, -151051.75, -187500.02, -176062.98, -187500.02, 0.00, 0.00, 0.00
122, 92590.02, 85858.61, -187500.02, -187500.02, -148174.98, -187500.02, -175127.05, -187500.02, 0.00, 0.00, 0.00
123, 91437.83, 85655.93, -187500.02, -187500.02, -146797.36, -187500.02, -174791.59, -187500.02, 0.00, 0.00, 0.00
124, 92688.81, 84318.80, -187500.02, -187500.02, -149538.44, -187500.02, -175746.33, -187500.02, 0.00, 0.00, 0.00
125, 94026.05, 84389.74, -187500.02, -187500.02, -151194.48, -187500.02, -176179.81, -187500.02, 0.00, 0.00, 0.00
126, 92936.18, 85727.34, -187500.02, -187500.02, -148624.98, -187500.02, -175279.89, -187500.02, 0.00, 0.00, 0.00
127, 91433.23, 85822.49, -187500.02, -187500.02, -146605.47, -187500.02, -174751.56, -187500.02, 0.00, 0.00, 0.00
128, 92314.40, 84502.76, -187500.02, -187500.02, -148852.75, -187500.02, -175562.86, -187500.02, 0.00, 0.00, 0.00
129, 93899.77, 84192.00, -187500.02, -187500.02, -151192.36, -187500.02, -176243.92, -187500.02, 0.00, 0.00, 0.00
130, 93165.63, 85438.42, -187500.02, -187500.02, -149244.92, -187500.02, -175560.58, -187500.02, 0.00, 0.00, 0.00
131, 91460.61, 85867.46, -187500.02, -187500.02, -146692.97, -187500.02, -174854.30, -187500.02, 0.00, 0.00, 0.00
132, 91946.05, 84674.51, -187500.02, -187500.02, -148263.70, -187500.02, -175453.05, -187500.02, 0.00, 0.00, 0.00
133, 93700.99, 84037.75, -187500.02, -187500.02, -151067.52, -187500.02, -176301.19, -187500.02, 0.00, 0.00, 0.00
134, 93433.93, 85172.52, -187500.02, -187500.02, -149780.17, -187500.02, -175805.69, -187500.02, 0.00, 0.00, 0.00
135, 91661.44, 85933.70, -187500.02, -187500.02, -146824.83, -187500.02, -174919.11, -187500.02, 0.00, 0.00, 0.00
136, 91676.19, 84899.08, -187500.02, -187500.02, -147670.30, -187500.02, -175314.31, -187500.02, 0.00, 0.00, 0.00
137, 93448.28, 83973.24, -187500.02, -187500.02, -150749.50, -187500.02, -176284.88, -187500.02, 0.00, 0.00, 0.00
138, 93639.68, 84892.99, -187500.02, -187500.02, -150245.61, -187500.02, -176030.27, -187500.02, 0.00, 0.00, 0.00
139, 91908.94, 85896.70, -187500.02, -187500.02, -147142.58, -187500.02, -175065.88, -187500.02, 0.00, 0.00, 0.00
140, 91446.64, 85097.63, -187500.02, -187500.02, -147199.67, -187500.02, -175229.52, -187500.02, 0.00, 0.00, 0.00
141, 93135.55, 83961.82, -187500.02, -187500.02, -150338.55, -187500.02, -176250.25, -187500.02, 0.00, 0.00, 0.00
142, 93806.38, 84630.66, -187500.02, -187500.02, -150638.84, -187500.02, -176222.73, -187500.02, 0.00, 0.00, 0.00
143, 92202.13, 85797.03, -187500.02, -187500.02, -147618.77, -187500.02, -175267.16, -187500.02, 0.00, 0.00, 0.00
144, 91297.15, 85303.22, -187500.02, -187500.02, -146871.41, -187500.02, -175181.77, -187500.02, 0.00, 0.00, 0.00
145, 92785.04, 84041.35, -187500.02, -187500.02, -149841.80, -187500.02, -176173.25, -187500.02, 0.00, 0.00, 0.00
146, 93875.80, 84365.05, -187500.02, -187500.02, -150983.17, -187500.02, -176441.58, -187500.02, 0.00, 0.00, 0.00
147, 92550.55, 85664.42, -187500.02, -187500.02, -148174.53, -187500.02, -175508.16, -187500.02, 0.00, 0.00, 0.00
148, 91304.73, 85544.98, -187500.02, -187500.02, -146625.03, -187500.02, -175133.64, -187500.02, 0.00, 0.00, 0.00
149, 92496.92, 84247.41, -187500.02, -187500.02, -149210.47, -187500.02, -176014.28, -187500.02, 0.00, 0.00, 0.00
150, 93915.05, 84202.05, -187500.02, -187500.02, -151098.09, -187500.02, -176533.72, -187500.02, 0.00, 0.00, 0.00
151, 92898.54, 85494.93, -187500.02, -187500.02, -148741.83, -187500.02, -175738.58, -187500.02, 0.00, 0.00, 0.00
152, 91338.75, 85707.11, -187500.02, -187500.02, -146556.36, -187500.02, -175152.47, -187500.02, 0.00, 0.00, 0.00
153, 92130.52, 84427.54, -187500.02, -187500.02, -148635.66, -187500.02, -175911.44, -187500.02, 0.00, 0.00, 0.00
154, 93793.05, 84034.45, -187500.02, -187500.02, -151129.81, -187500.02, -176648.33, -187500.02, 0.00, 0.00, 0.00
155, 93193.45, 85273.83, -187500.02, -187500.02, -149336.53, -187500.02, -176003.16, -187500.02, 0.00, 0.00, 0.00
156, 91484.63, 85844.29, -187500.02, -187500.02, -146601.28, -187500.02, -175194.11, -187500.02, 0.00, 0.00, 0.00
157, 91814.81, 84669.23, -187500.02, -187500.02, -148011.06, -187500.02, -175763.97, -187500.02, 0.00, 0.00, 0.00
158, 93592.23, 83952.16, -187500.02, -187500.02, -150926.50, -187500.02, -176657.77, -187500.02, 0.00, 0.00, 0.00
159, 93449.27, 85042.71, -187500.02, -187500.02, -149853.73, -187500.02, -176220.41, -187500.02, 0.00, 0.00, 0.00
160, 91666.09, 85852.04, -187500.02, -187500.02, -146885.95, -187500.02, -175344.64, -187500.02, 0.00, 0.00, 0.00
161, 91556.85, 84882.34, -187500.02, -187500.02, -147535.03, -187500.02, -175691.41, -187500.02, 0.00, 0.00, 0.00
162, 93329.33, 83915.33, -187500.02, -187500.02, -150641.83, -187500.02, -176675.41, -187500.02, 0.00, 0.00, 0.00
163, 93673.68, 84798.41, -187500.02, -187500.02, -150327.66, -187500.02, -176456.58, -187500.02, 0.00, 0.00, 0.00
164, 91952.52, 85829.45, -187500.02, -187500.02, -147257.42, -187500.02, -175516.08, -187500.02, 0.00, 0.00, 0.00
165, 91370.33, 85125.59, -187500.02, -187500.02, -147086.81, -187500.02, -175606.27, -187500.02, 0.00, 0.00, 0.00
166, 93004.51, 83948.14, -187500.02, -187500.02, -150207.98, -187500.02, -176636.86, -187500.02, 0.00, 0.00, 0.00
167, 93795.13, 84514.22, -187500.02, -187500.02, -150761.33, -187500.02, -176714.61, -187500.02, 0.00, 0.00, 0.00
168, 92261.72, 85736.53, -187500.02, -187500.02, -147759.58, -187500.02, -175745.28, -187500.02, 0.00, 0.00, 0.00
169, 91258.68, 85352.81, -187500.02, -187500.02, -146774.92, -187500.02, -175570.42, -187500.02, 0.00, 0.00, 0.00
170, 92683.98, 84087.22, -187500.02, -187500.02, -149645.06, -187500.02, -176528.48, -187500.02, 0.00, 0.00, 0.00
171, 93863.60, 84301.48, -187500.02, -187500.02, -151009.56, -187500.02, -176874.95, -187500.02, 0.00, 0.00, 0.00
172, 92618.41, 85598.48, -187500.02, -187500.02, -148310.86, -187500.02, -175972.84, -187500.02, 0.00, 0.00, 0.00
173, 91255.35, 85548.77, -187500.02, -187500.02, -146590.27, -187500.02, -175546.66, -187500.02, 0.00, 0.00, 0.00
174, 92310.04, 84215.42, -187500.02, -187500.02, -149102.33, -187500.02, -176447.64, -187500.02, 0.00, 0.00, 0.00
175, 93822.30, 84092.67, -187500.02, -187500.02, -151161.31, -187500.02, -177020.36, -187500.02, 0.00, 0.00, 0.00
176, 92937.39, 85388.16, -187500.02, -187500.02, -148934.83, -187500.02, -176242.36, -187500.02, 0.00, 0.00, 0.00
177, 91330.48, 85691.73, -187500.02, -187500.02, -146582.02, -187500.02, -175590.09, -187500.02, 0.00, 0.00, 0.00
178, 92001.95, 84440.04, -187500.02, -187500.02, -148477.45, -187500.02, -176295.41, -187500.02, 0.00, 0.00, 0.00
179, 93699.91, 83936.88, -187500.02, -187500.02, -151138.16, -187500.02, -177110.33, -187500.02, 0.00, 0.00, 0.00
180, 93254.11, 85175.39, -187500.02, -187500.02, -149498.77, -187500.02, -176477.64, -187500.02, 0.00, 0.00, 0.00
181, 91506.07, 85798.82, -187500.02, -187500.02, -146699.20, -187500.02, -175654.91, -187500.02, 0.00, 0.00, 0.00
182, 91707.57, 84656.47, -187500.02, -187500.02, -147933.58, -187500.02, -176195.28, -187500.02, 0.00, 0.00, 0.00
183, 93494.30, 83857.53, -187500.02, -187500.02, -150949.11, -187500.02, -177147.05, -187500.02, 0.00, 0.00, 0.00
184, 93496.59, 84909.36, -187500.02, -187500.02, -150074.69, -187500.02, -176761.56, -187500.02, 0.00, 0.00, 0.00
185, 91714.30, 85805.44, -187500.02, -187500.02, -147031.42, -187500.02, -175841.22, -187500.02, 0.00, 0.00, 0.00
186, 91467.25, 84927.59, -187500.02, -187500.02, -147409.77, -187500.02, -176084.22, -187500.02, 0.00, 0.00, 0.00
187, 93223.85, 83878.07, -187500.02, -187500.02, -150559.83, -187500.02, -177101.00, -187500.02, 0.00, 0.00, 0.00
188, 93708.75, 84675.18, -187500.02, -187500.02, -150502.03, -187500.02, -176966.91, -187500.02, 0.00, 0.00, 0.00
189, 92036.41, 85787.36, -187500.02, -187500.02, -147405.45, -187500.02, -175980.89, -187500.02, 0.00, 0.00, 0.00
190, 91321.67, 85155.65, -187500.02, -187500.02, -147008.45, -187500.02, -175989.61, -187500.02, 0.00, 0.00, 0.00
191, 92915.73, 83945.04, -187500.02, -187500.02, -150086.17, -187500.02, -177003.44, -187500.02, 0.00, 0.00, 0.00
192, 93822.05, 84400.36, -187500.02, -187500.02, -150909.81, -187500.02, -177180.89, -187500.02, 0.00, 0.00, 0.00
193, 92360.78, 85643.14, -187500.02, -187500.02, -147991.59, -187500.02, -176232.75, -187500.02, 0.00, 0.00, 0.00
194, 91240.29, 85349.55, -187500.02, -187500.02, -146788.39, -187500.02, -175985.09, -187500.02, 0.00, 0.00, 0.00
195, 92555.13, 84060.20, -187500.02, -187500.02, -149571.86, -187500.02, -176933.16, -187500.02, 0.00, 0.00, 0.00
196, 93840.78, 84202.86, -187500.02, -187500.02, -151123.98, -187500.02, -177328.77, -187500.02, 0.00, 0.00, 0.00
197, 92659.51, 85500.45, -187500.02, -187500.02, -148544.59, -187500.02, -176467.31, -187500.02, 0.00, 0.00, 0.00
198, 91202.78, 85543.68, -187500.02, -187500.02, -146635.17, -187500.02, -175985.66, -187500.02, 0.00, 0.00, 0.00
199, 92163.52, 84214.58, -187500.02, -187500.02, -149001.89, -187500.02, -176853.50, -187500.02, 0.00, 0.00, 0.00
200, 93765.85, 84002.26, -187500.02, -187500.02, -151231.09, -187500.02, -177481.05, -187500.02, 0.00, 0.00, 0.00
201, 92958.31, 85250.11, -187500.02, -187500.02, -149211.56, -187500.02, -176789.97, -187500.02, 0.00, 0.00, 0.00
202, 91264.72, 85614.87, -187500.02, -187500.02, -146766.13, -187500.02, -176133.73, -187500.02, 0.00, 0.00, 0.00
203, 91835.36, 84410.71, -187500.02, -187500.02, -148473.94, -187500.02, -176782.52, -187500.02, 0.00, 0.00, 0.00
204, 93625.62, 83883.66, -187500.02, -187500.02, -151184.00, -187500.02, -177572.52, -187500.02, 0.00, 0.00, 0.00
205, 93306.13, 85101.72, -187500.02, -187500.02, -149718.06, -187500.02, -176975.92, -187500.02, 0.00, 0.00, 0.00
206, 91501.35, 85796.07, -187500.02, -187500.02, -146828.00, -187500.02, -176116.92, -187500.02, 0.00, 0.00, 0.00
207, 91567.70, 84706.36, -187500.02, -187500.02, -147848.33, -187500.02, -176586.47, -187500.02, 0.00, 0.00, 0.00
208, 93359.27, 83815.35, -187500.02, -187500.02, -150950.28, -187500.02, -177589.95, -187500.02, 0.00, 0.00, 0.00
209, 93493.73, 84785.20, -187500.02, -187500.02, -150331.03, -187500.02, -177304.00, -187500.02, 0.00, 0.00, 0.00
210, 91745.88, 85761.36, -187500.02, -187500.02, -147235.42, -187500.02, -176337.63, -187500.02, 0.00, 0.00, 0.00
211, 91365.13, 84950.08, -187500.02, -187500.02, -147404.27, -187500.02, -176523.98, -187500.02, 0.00, 0.00, 0.00
212, 93124.12, 83906.77, -187500.02, -187500.02, -150499.39, -187500.02, -177496.30, -187500.02, 0.00, 0.00, 0.00
213, 93718.52, 84619.43, -187500.02, -187500.02, -150680.72, -187500.02, -177445.27, -187500.02, 0.00, 0.00, 0.00
214, 92054.25, 85745.16, -187500.02, -187500.02, -147645.16, -187500.02, -176500.64, -187500.02, 0.00, 0.00, 0.00
215, 91201.17, 85187.23, -187500.02, -187500.02, -147047.89, -187500.02, -176478.97, -187500.02, 0.00, 0.00, 0.00
216, 92755.80, 83973.60, -187500.02, -187500.02, -150042.94, -187500.02, -177468.73, -187500.02, 0.00, 0.00, 0.00
217, 93799.07, 84378.19, -187500.02, -187500.02, -151037.92, -187500.02, -177670.17, -187500.02, 0.00, 0.00, 0.00
218, 92384.92, 85619.38, -187500.02, -187500.02, -148227.20, -187500.02, -176767.67, -187500.02, 0.00, 0.00, 0.00
219, 91174.41, 85429.57, -187500.02, -187500.02, -146812.89, -187500.02, -176449.83, -187500.02, 0.00, 0.00, 0.00
220, 92428.33, 84143.27, -187500.02, -187500.02, -149477.94, -187500.02, -177364.14, -187500.02, 0.00, 0.00, 0.00
221, 93814.31, 84172.09, -187500.02, -187500.02, -151256.13, -187500.02, -177848.17, -187500.02, 0.00, 0.00, 0.00
222, 92731.10, 85482.43, -187500.02, -187500.02, -148795.83, -187500.02, -177003.55, -187500.02, 0.00, 0.00, 0.00
223, 91188.90, 85617.66, -187500.02, -187500.02, -146707.61, -187500.02, -176451.86, -187500.02, 0.00, 0.00, 0.00
224, 92032.52, 84296.02, -187500.02, -187500.02, -148921.13, -187500.02, -177282.50, -187500.02, 0.00, 0.00, 0.00
225, 93682.33, 83978.52, -187500.02, -187500.02, -151316.81, -187500.02, -177977.69, -187500.02, 0.00, 0.00, 0.00
226, 93019.11, 85253.57, -187500.02, -187500.02, -149390.77, -187500.02, -177264.66, -187500.02, 0.00, 0.00, 0.00
227, 91301.84, 85750.92, -187500.02, -187500.02, -146725.83, -187500.02, -176471.64, -187500.02, 0.00, 0.00, 0.00
228, 91708.73, 84537.05, -187500.02, -187500.02, -148261.28, -187500.02, -177092.19, -187500.02, 0.00, 0.00, 0.00
229, 93477.83, 83855.20, -187500.02, -187500.02, -151141.89, -187500.02, -177993.80, -187500.02, 0.00, 0.00, 0.00
230, 93231.31, 84940.47, -187500.02, -187500.02, -149991.64, -187500.02, -177560.55, -187500.02, 0.00, 0.00, 0.00
231, 91430.12, 85704.66, -187500.02, -187500.02, -147049.55, -187500.02, -176687.00, -187500.02, 0.00, 0.00, 0.00
232, 91385.73, 84712.30, -187500.02, -187500.02, -147796.69, -187500.02, -177047.14, -187500.02, 0.00, 0.00, 0.00
233, 93200.36, 83816.09, -187500.02, -187500.02, -150856.83, -187500.02, -177989.39, -187500.02, 0.00, 0.00, 0.00
234, 93454.79, 84718.98, -187500.02, -187500.02, -150437.58, -187500.02, -177750.39, -187500.02, 0.00, 0.00, 0.00
235, 91687.16, 85709.28, -187500.02, -187500.02, -147354.92, -187500.02, -176805.72, -187500.02, 0.00, 0.00, 0.00
236, 91180.83, 84981.84, -187500.02, -187500.02, -147262.78, -187500.02, -176890.27, -187500.02, 0.00, 0.00, 0.00
237, 92849.01, 83829.12, -187500.02, -187500.02, -150401.39, -187500.02, -177920.08, -187500.02, 0.00, 0.00, 0.00
238, 93558.77, 84435.48, -187500.02, -187500.02, -150836.73, -187500.02, -177963.64, -187500.02, 0.00, 0.00, 0.00
239, 91970.25, 85633.45, -187500.02, -187500.02, -147784.75, -187500.02, -176970.20, -187500.02, 0.00, 0.00, 0.00
240, 91011.45, 85188.71, -187500.02, -187500.02, -146902.97, -187500.02, -176817.17, -187500.02, 0.00, 0.00, 0.00
241, 92462.99, 83903.02, -187500.02, -187500.02, -149857.59, -187500.02, -177824.92, -187500.02, 0.00, 0.00, 0.00
242, 93612.70, 84202.95, -187500.02, -187500.02, -151069.56, -187500.02, -178097.84, -187500.02, 0.00, 0.00, 0.00
243, 92258.03, 85450.27, -187500.02, -187500.02, -148337.28, -187500.02, -177211.69, -187500.02, 0.00, 0.00, 0.00
244, 90947.91, 85356.75, -187500.02, -187500.02, -146690.06, -187500.02, -176795.91, -187500.02, 0.00, 0.00, 0.00
245, 92070.25, 84017.84, -187500.02, -187500.02, -149277.55, -187500.02, -177717.59, -187500.02, 0.00, 0.00, 0.00
246, 93547.12, 83943.13, -187500.02, -187500.02, -151246.84, -187500.02, -178266.38, -187500.02, 0.00, 0.00, 0.00
247, 92604.81, 85267.23, -187500.02, -187500.02, -148885.14, -187500.02, -177420.03, -187500.02, 0.00, 0.00, 0.00
248, 90983.17, 85476.51, -187500.02, -187500.02, -146643.44, -187500.02, -176826.20, -187500.02, 0.00, 0.00, 0.00
249, 91714.75, 84181.65, -187500.02, -187500.02, -148687.05, -187500.02, -177602.91, -187500.02, 0.00, 0.00, 0.00
250, 93413.05, 83759.67, -187500.02, -187500.02, -151254.72, -187500.02, -178367.55, -187500.02, 0.00, 0.00, 0.00
251, 92861.17, 84990.65, -187500.02, -187500.02, -149531.53, -187500.02, -177726.31, -187500.02, 0.00, 0.00, 0.00
252, 91094.48, 85540.08, -187500.02, -187500.02, -146801.98, -187500.02, -176945.41, -187500.02, 0.00, 0.00, 0.00
253, 91411.77, 84414.06, -187500.02, -187500.02, -148102.78, -187500.02, -177470.09, -187500.02, 0.00, 0.00, 0.00
254, 93233.93, 83699.66, -187500.02, -187500.02, -151033.73, -187500.02, -178355.61, -187500.02, 0.00, 0.00, 0.00
255, 93136.30, 84760.88, -187500.02, -187500.02, -150049.98, -187500.02, -177939.22, -187500.02, 0.00, 0.00, 0.00
0, 91327.98, 85590.19, -187500.02, -187500.02, -147039.38, -187500.02, -177030.13, -187500.02, 0.00, 0.00, 0.00
1, 91128.87, 84609.71, -187500.02, -187500.02, -147631.86, -187500.02, -177383.13, -187500.02, 0.00, 0.00, 0.00
2, 92932.90, 83631.15, -187500.02, -187500.02, -150763.94, -187500.02, -178377.17, -187500.02, 0.00, 0.00, 0.00
3, 93339.83, 84475.91, -187500.02, -187500.02, -150573.95, -187500.02, -178203.86, -187500.02, 0.00, 0.00, 0.00
4, 91629.09, 85550.34, -187500.02, -187500.02, -147458.39, -187500.02, -177220.42, -187500.02, 0.00, 0.00, 0.00
5, 90983.96, 84875.80, -187500.02, -187500.02, -147176.27, -187500.02, -177274.67, -187500.02, 0.00, 0.00, 0.00
6, 92636.02, 83705.67, -187500.02, -187500.02, -150269.30, -187500.02, -178286.66, -187500.02, 0.00, 0.00, 0.00
7, 93491.73, 84244.08, -187500.02, -187500.02, -150920.69, -187500.02, -178386.98, -187500.02, 0.00, 0.00, 0.00
8, 91981.91, 85478.37, -187500.02, -187500.02, -147922.92, -187500.02, -177399.83, -187500.02, 0.00, 0.00, 0.00
9, 90902.26, 85109.43, -187500.02, -187500.02, -146858.58, -187500.02, -177204.25, -187500.02, 0.00, 0.00, 0.00
10, 92314.02, 83840.43, -187500.02, -187500.02, -149710.53, -187500.02, -178168.09, -187500.02, 0.00, 0.00, 0.00
11, 93578.05, 84059.45, -187500.02, -187500.02, -151139.47, -187500.02, -178513.81, -187500.02, 0.00, 0.00, 0.00
12, 92343.32, 85359.74, -187500.02, -187500.02, -148471.72, -187500.02, -177614.80, -187500.02, 0.00, 0.00, 0.00
13, 90926.54, 85329.32, -187500.02, -187500.02, -146684.14, -187500.02, -177175.95, -187500.02, 0.00, 0.00, 0.00
14, 91968.69, 84007.73, -187500.02, -187500.02, -149139.66, -187500.02, -178062.59, -187500.02, 0.00, 0.00, 0.00
15, 93528.93, 83836.79, -187500.02, -187500.02, -151307.48, -187500.02, -178688.84, -187500.02, 0.00, 0.00, 0.00
16, 92674.71, 85117.36, -187500.02, -187500.02, -149167.45, -187500.02, -177948.13, -187500.02, 0.00, 0.00, 0.00
17, 91021.38, 85440.52, -187500.02, -187500.02, -146785.05, -187500.02, -177300.98, -187500.02, 0.00, 0.00, 0.00
18, 91673.48, 84235.92, -187500.02, -187500.02, -148587.70, -187500.02, -177966.17, -187500.02, 0.00, 0.00, 0.00
19, 93422.38, 83734.39, -187500.02, -187500.02, -151271.30, -187500.02, -178774.78, -187500.02, 0.00, 0.00, 0.00
20, 93011.71, 84947.16, -187500.02, -187500.02, -149720.14, -187500.02, -178179.30, -187500.02, 0.00, 0.00, 0.00
21, 91221.34, 85570.59, -187500.02, -187500.02, -146910.44, -187500.02, -177373.30, -187500.02, 0.00, 0.00, 0.00
22, 91391.30, 84451.28, -187500.02, -187500.02, -148069.59, -187500.02, -177905.00, -187500.02, 0.00, 0.00, 0.00
23, 93247.95, 83667.34, -187500.02, -187500.02, -151074.86, -187500.02, -178836.77, -187500.02, 0.00, 0.00, 0.00
24, 93326.33, 84711.84, -187500.02, -187500.02, -150268.52, -187500.02, -178458.31, -187500.02, 0.00, 0.00, 0.00
25, 91537.19, 85607.58, -187500.02, -187500.02, -147238.67, -187500.02, -177541.11, -187500.02, 0.00, 0.00, 0.00
26, 91213.30, 84711.12, -187500.02, -187500.02, -147603.22, -187500.02, -177811.78, -187500.02, 0.00, 0.00, 0.00
27, 92959.96, 83635.80, -187500.02, -187500.02, -150790.72, -187500.02, -178869.89, -187500.02, 0.00, 0.00, 0.00
28, 93519.43, 84432.15, -187500.02, -187500.02, -150803.06, -187500.02, -178750.00, -187500.02, 0.00, 0.00, 0.00
29, 91846.53, 85560.44, -187500.02, -187500.02, -147723.05, -187500.02, -177766.86, -187500.02, 0.00, 0.00, 0.00
30, 91059.64, 84972.79, -187500.02, -187500.02, -147200.27, -187500.02, -177760.31, -187500.02, 0.00, 0.00, 0.00
31, 92604.59, 83780.17, -187500.02, -187500.02, -150126.02, -187500.02, -178751.34, -187500.02, 0.00, 0.00, 0.00
32, 93610.24, 84191.77, -187500.02, -187500.02, -151076.98, -187500.02, -178936.81, -187500.02, 0.00, 0.00, 0.00
33, 92244.33, 85395.41, -187500.02, -187500.02, -148399.48, -187500.02, -178034.77, -187500.02, 0.00, 0.00, 0.00
34, 91051.66, 85147.34, -187500.02, -187500.02, -147124.47, -187500.02, -177785.64, -187500.02, 0.00, 0.00, 0.00
35, 92223.25, 83918.15, -187500.02, -187500.02, -149597.45, -187500.02, -178685.34, -187500.02, 0.00, 0.00, 0.00
36, 93515.59, 84006.99, -187500.02, -187500.02, -151125.66, -187500.02, -179085.64, -187500.02, 0.00, 0.00, 0.00
37, 92497.23, 85233.28, -187500.02, -187500.02, -148831.41, -187500.02, -178265.44, -187500.02, 0.00, 0.00, 0.00
38, 91032.98, 85299.10, -187500.02, -187500.02, -146953.48, -187500.02, -177792.52, -187500.02, 0.00, 0.00, 0.00
39, 91885.60, 84070.36, -187500.02, -187500.02, -148999.77, -187500.02, -178567.66, -187500.02, 0.00, 0.00, 0.00
40, 93502.17, 83817.18, -187500.02, -187500.02, -151221.66, -187500.02, -179194.75, -187500.02, 0.00, 0.00, 0.00
41, 92840.83, 84987.50, -187500.02, -187500.02, -149501.97, -187500.02, -178566.67, -187500.02, 0.00, 0.00, 0.00
42, 91157.14, 85408.25, -187500.02, -187500.02, -147041.64, -187500.02, -177882.81, -187500.02, 0.00, 0.00, 0.00
43, 91623.04, 84265.16, -187500.02, -187500.02, -148516.78, -187500.02, -178471.03, -187500.02, 0.00, 0.00, 0.00
44, 93395.33, 83670.24, -187500.02, -187500.02, -151261.02, -187500.02, -179302.92, -187500.02, 0.00, 0.00, 0.00
45, 93261.24, 84705.33, -187500.02, -187500.02, -150329.95, -187500.02, -178868.83, -187500.02, 0.00, 0.00, 0.00
46, 92020.70, 85175.43, -187500.02, -187500.02, -148706.86, -187500.02, -178281.11, -187500.02, 0.00, 0.00, 0.00
47, 92127.14, 84391.34, -187500.02, -187500.02, -149659.70, -187500.02, -178672.59, -187500.02, 0.00, 0.00, 0.00
48, 93252.19, 83978.66, -187500.02, -187500.02, -151223.94, -187500.02, -179281.48, -187500.02, 0.00, 0.00, 0.00
49, 93185.34, 84781.48, -187500.02, -187500.02, -150405.73, -187500.02, -178978.03, -187500.02, 0.00, 0.00, 0.00
50, 92010.13, 85280.40, -187500.02, -187500.02, -148804.09, -187500.02, -178397.77, -187500.02, 0.00, 0.00, 0.00
51, 91843.05, 84584.77, -187500.02, -187500.02, -149352.09, -187500.02, -178645.97, -187500.02, 0.00, 0.00, 0.00
52, 92950.46, 83980.15, -187500.02, -187500.02, -151040.14, -187500.02, -179304.44, -187500.02, 0.00, 0.00, 0.00
53, 93197.95, 84630.25, -187500.02, -187500.02, -150643.59, -187500.02, -179152.69, -187500.02, 0.00, 0.00, 0.00
54, 92054.27, 85257.20, -187500.02, -187500.02, -148969.44, -187500.02, -178556.97, -187500.02, 0.00, 0.00, 0.00
55, 91587.86, 84710.85, -187500.02, -187500.02, -149083.77, -187500.02, -178645.78, -187500.02, 0.00, 0.00, 0.00
56, 92601.66, 83952.86, -187500.02, -187500.02, -150812.94, -187500.02, -179331.80, -187500.02, 0.00, 0.00, 0.00
57, 93177.73, 84420.70, -187500.02, -187500.02, -150862.69, -187500.02, -179340.95, -187500.02, 0.00, 0.00, 0.00
58, 92220.41, 85230.71, -187500.02, -187500.02, -149098.56, -187500.02, -178660.50, -187500.02, 0.00, 0.00, 0.00
59, 91511.46, 84875.90, -187500.02, -187500.02, -148753.25, -187500.02, -178567.77, -187500.02, 0.00, 0.00, 0.00
60, 92357.96, 84016.36, -187500.02, -187500.02, -150407.47, -187500.02, -179225.83, -187500.02, 0.00, 0.00, 0.00
61, 93140.12, 84212.59, -187500.02, -187500.02, -150971.91, -187500.02, -179454.11, -187500.02, 0.00, 0.00, 0.00
62, 92343.84, 85060.81, -187500.02, -187500.02, -149370.67, -187500.02, -178858.63, -187500.02, 0.00, 0.00, 0.00
63, 91402.52, 84912.69, -187500.02, -187500.02, -148631.14, -187500.02, -178632.47, -187500.02, 0.00, 0.00, 0.00
64, 92061.55, 84050.31, -187500.02, -187500.02, -150068.36, -187500.02, -179191.52, -187500.02, 0.00, 0.00, 0.00
65, 93068.34, 84032.95, -187500.02, -187500.02, -151024.89, -187500.02, -179551.17, -187500.02, 0.00, 0.00, 0.00
66, 92513.29, 84893.95, -187500.02, -187500.02, -149636.72, -187500.02, -179040.17, -187500.02, 0.00, 0.00, 0.00
67, 91448.83, 85016.27, -187500.02, -187500.02, -148465.78, -187500.02, -178619.11, -187500.02, 0.00, 0.00, 0.00
68, 91814.34, 84148.10, -187500.02, -187500.02, -149644.86, -187500.02, -179099.92, -187500.02, 0.00, 0.00, 0.00
69, 92930.68, 83877.53, -187500.02, -187500.02, -150974.83, -187500.02, -179613.27, -187500.02, 0.00, 0.00, 0.00
70, 92667.94, 84718.05, -187500.02, -187500.02, -149882.61, -187500.02, -179193.02, -187500.02, 0.00, 0.00, 0.00
71, 91501.69, 85032.76, -187500.02, -187500.02, -148447.58, -187500.02, -178679.48, -187500.02, 0.00, 0.00, 0.00
72, 91564.72, 84223.13, -187500.02, -187500.02, -149281.02, -187500.02, -179043.88, -187500.02, 0.00, 0.00, 0.00
73, 92723.02, 83721.54, -187500.02, -187500.02, -150882.78, -187500.02, -179681.67, -187500.02, 0.00, 0.00, 0.00
74, 92795.86, 84483.65, -187500.02, -187500.02, -150164.61, -187500.02, -179389.11, -187500.02, 0.00, 0.00, 0.00
75, 91652.74, 85039.73, -187500.02, -187500.02, -148475.34, -187500.02, -178746.52, -187500.02, 0.00, 0.00, 0.00
76, 91404.30, 84376.29, -187500.02, -187500.02, -148861.03, -187500.02, -178935.47, -187500.02, 0.00, 0.00, 0.00
77, 92495.18, 83685.42, -187500.02, -187500.02, -150598.47, -187500.02, -179637.41, -187500.02, 0.00, 0.00, 0.00
78, 92857.84, 84254.65, -187500.02, -187500.02, -150378.89, -187500.02, -179551.52, -187500.02, 0.00, 0.00, 0.00
79, 91772.41, 84933.81, -187500.02, -187500.02, -148656.22, -187500.02, -178911.78, -187500.02, 0.00, 0.00, 0.00
80, 91237.27, 84445.20, -187500.02, -187500.02, -148592.31, -187500.02, -178930.72, -187500.02, 0.00, 0.00, 0.00
81, 92215.65, 83617.07, -187500.02, -187500.02, -150346.30, -187500.02, -179654.63, -187500.02, 0.00, 0.00, 0.00
82, 92874.00, 84000.53, -187500.02, -187500.02, -150582.52, -187500.02, -179738.80, -187500.02, 0.00, 0.00, 0.00
83, 91941.41, 84816.28, -187500.02, -187500.02, -148857.73, -187500.02, -179080.19, -187500.02, 0.00, 0.00, 0.00
84, 91165.90, 84564.94, -187500.02, -187500.02, -148307.55, -187500.02, -178889.19, -187500.02, 0.00, 0.00, 0.00
85, 91919.40, 83651.11, -187500.02, -187500.02, -149954.42, -187500.02, -179579.94, -187500.02, 0.00, 0.00, 0.00
86, 92800.73, 83789.27, -187500.02, -187500.02, -150662.17, -187500.02, -179848.05, -187500.02, 0.00, 0.00, 0.00
87, 92080.87, 84676.81, -187500.02, -187500.02, -149071.13, -187500.02, -179221.13, -187500.02, 0.00, 0.00, 0.00
88, 91087.45, 84622.78, -187500.02, -187500.02, -148134.95, -187500.02, -178899.72, -187500.02, 0.00, 0.00, 0.00
89, 91635.87, 83741.26, -187500.02, -187500.02, -149484.27, -187500.02, -179442.25, -187500.02, 0.00, 0.00, 0.00
90, 92650.08, 83601.58, -187500.02, -187500.02, -150616.78, -187500.02, -179897.81, -187500.02, 0.00, 0.00, 0.00
91, 92189.39, 84476.88, -187500.02, -187500.02, -149281.11, -187500.02, -179374.89, -187500.02, 0.00, 0.00, 0.00
92, 91055.23, 84634.34, -187500.02, -187500.02, -148011.72, -187500.02, -178927.61, -187500.02, 0.00, 0.00, 0.00
93, 91329.90, 83795.19, -187500.02, -187500.02, -149036.27, -187500.02, -179343.06, -187500.02, 0.00, 0.00, 0.00
94, 92452.02, 83449.36, -187500.02, -187500.02, -150434.44, -187500.02, -179878.94, -187500.02, 0.00, 0.00, 0.00
95, 92261.47, 84226.49, -187500.02, -187500.02, -149487.55, -187500.02, -179517.84, -187500.02, 0.00, 0.00, 0.00
96, 91085.16, 84583.87, -187500.02, -187500.02, -147999.44, -187500.02, -178987.83, -187500.02, 0.00, 0.00, 0.00
97, 91065.45, 83832.65, -187500.02, -187500.02, -148678.14, -187500.02, -179290.98, -187500.02, 0.00, 0.00, 0.00
98, 92217.88, 83326.97, -187500.02, -187500.02, -150247.50, -187500.02, -179885.58, -187500.02, 0.00, 0.00, 0.00
99, 92360.73, 84022.44, -187500.02, -187500.02, -149679.84, -187500.02, -179650.34, -187500.02, 0.00, 0.00, 0.00
100, 91219.34, 84575.55, -187500.02, -187500.02, -148034.33, -187500.02, -179041.80, -187500.02, 0.00, 0.00, 0.00
101, 90899.98, 83960.77, -187500.02, -187500.02, -148293.66, -187500.02, -179178.22, -187500.02, 0.00, 0.00, 0.00
102, 91975.59, 83261.95, -187500.02, -187500.02, -150002.53, -187500.02, -179862.81, -187500.02, 0.00, 0.00, 0.00
103, 92432.62, 83800.84, -187500.02, -187500.02, -149888.88, -187500.02, -179806.64, -187500.02, 0.00, 0.00, 0.00
104, 91392.46, 84507.31, -187500.02, -187500.02, -148199.53, -187500.02, -179182.44, -187500.02, 0.00, 0.00, 0.00
105, 90789.92, 84077.09, -187500.02, -187500.02, -148040.45, -187500.02, -179173.72, -187500.02, 0.00, 0.00, 0.00
106, 91738.13, 83297.93, -187500.02, -187500.02, -149686.45, -187500.02, -179821.75, -187500.02, 0.00, 0.00, 0.00
107, 92450.12, 83616.71, -187500.02, -187500.02, -150050.63, -187500.02, -179956.55, -187500.02, 0.00, 0.00, 0.00
108, 91583.84, 84445.36, -187500.02, -187500.02, -148406.08, -187500.02, -179323.81, -187500.02, 0.00, 0.00, 0.00
109, 90753.00, 84244.52, -187500.02, -187500.02, -147796.64, -187500.02, -179117.83, -187500.02, 0.00, 0.00, 0.00
110, 91478.71, 83377.52, -187500.02, -187500.02, -149336.00, -187500.02, -179746.73, -187500.02, 0.00, 0.00, 0.00
111, 92395.80, 83463.29, -187500.02, -187500.02, -150126.20, -187500.02, -180048.44, -187500.02, 0.00, 0.00, 0.00
112, 91737.26, 84345.83, -187500.02, -187500.02, -148624.66, -187500.02, -179460.05, -187500.02, 0.00, 0.00, 0.00
113, 90713.77, 84365.83, -187500.02, -187500.02, -147628.59, -187500.02, -179102.53, -187500.02, 0.00, 0.00, 0.00
114, 91190.40, 83503.41, -187500.02, -187500.02, -148914.78, -187500.02, -179628.69, -187500.02, 0.00, 0.00, 0.00
115, 92248.40, 83323.30, -187500.02, -187500.02, -150123.50, -187500.02, -180118.22, -187500.02, 0.00, 0.00, 0.00
116, 91878.59, 84196.80, -187500.02, -187500.02, -148910.47, -187500.02, -179637.30, -187500.02, 0.00, 0.00, 0.00
117, 90765.16, 84438.61, -187500.02, -187500.02, -147613.06, -187500.02, -179157.73, -187500.02, 0.00, 0.00, 0.00
118, 90968.53, 83622.26, -187500.02, -187500.02, -148590.45, -187500.02, -179573.94, -187500.02, 0.00, 0.00, 0.00
119, 92099.78, 83219.12, -187500.02, -187500.02, -150084.11, -187500.02, -180189.08, -187500.02, 0.00, 0.00, 0.00
120, 92021.01, 84010.84, -187500.02, -187500.02, -149237.23, -187500.02, -179864.14, -187500.02, 0.00, 0.00, 0.00
121, 90906.76, 84501.17, -187500.02, -187500.02, -147665.98, -187500.02, -179247.53, -187500.02, 0.00, 0.00, 0.00
122, 90816.43, 83796.58, -187500.02, -187500.02, -148253.73, -187500.02, -179514.03, -187500.02, 0.00, 0.00, 0.00
123, 91957.71, 83225.45, -187500.02, -187500.02, -149890.77, -187500.02, -180176.05, -187500.02, 0.00, 0.00, 0.00
124, 92177.54, 83875.77, -187500.02, -187500.02, -149470.56, -187500.02, -180015.83, -187500.02, 0.00, 0.00, 0.00
125, 91064.40, 84488.98, -187500.02, -187500.02, -147840.98, -187500.02, -179403.75, -187500.02, 0.00, 0.00, 0.00
126, 90689.61, 83956.63, -187500.02, -187500.02, -147985.16, -187500.02, -179489.83, -187500.02, 0.00, 0.00, 0.00
127, 91740.66, 83253.67, -187500.02, -187500.02, -149644.08, -187500.02, -180153.36, -187500.02, 0.00, 0.00, 0.00
128, 92244.59, 83705.23, -187500.02, -187500.02, -149680.89, -187500.02, -180187.59, -187500.02, 0.00, 0.00, 0.00
129, 91262.02, 84457.38, -187500.02, -187500.02, -148015.61, -187500.02, -179552.55, -187500.02, 0.00, 0.00, 0.00
130, 90631.13, 84113.88, -187500.02, -187500.02, -147723.72, -187500.02, -179464.47, -187500.02, 0.00, 0.00, 0.00
131, 91527.84, 83301.59, -187500.02, -187500.02, -149340.16, -187500.02, -180125.45, -187500.02, 0.00, 0.00, 0.00
132, 92291.80, 83563.13, -187500.02, -187500.02, -149792.16, -187500.02, -180300.94, -187500.02, 0.00, 0.00, 0.00
133, 91472.19, 84402.27, -187500.02, -187500.02, -148206.30, -187500.02, -179678.09, -187500.02, 0.00, 0.00, 0.00
134, 90597.90, 84247.77, -187500.02, -187500.02, -147539.53, -187500.02, -179457.41, -187500.02, 0.00, 0.00, 0.00
135, 91293.55, 83408.41, -187500.02, -187500.02, -148972.31, -187500.02, -180044.75, -187500.02, 0.00, 0.00, 0.00
136, 92250.81, 83435.44, -187500.02, -187500.02, -149825.34, -187500.02, -180385.50, -187500.02, 0.00, 0.00, 0.00
137, 91700.73, 84328.28, -187500.02, -187500.02, -148387.59, -187500.02, -179798.98, -187500.02, 0.00, 0.00, 0.00
138, 90678.41, 84394.33, -187500.02, -187500.02, -147355.53, -187500.02, -179421.11, -187500.02, 0.00, 0.00, 0.00
139, 91091.11, 83541.36, -187500.02, -187500.02, -148556.42, -187500.02, -179930.22, -187500.02, 0.00, 0.00, 0.00
140, 92170.30, 83327.95, -187500.02, -187500.02, -149766.67, -187500.02, -180425.36, -187500.02, 0.00, 0.00, 0.00
141, 91858.24, 84145.89, -187500.02, -187500.02, -148679.23, -187500.02, -180005.95, -187500.02, 0.00, 0.00, 0.00
142, 90767.08, 84430.72, -187500.02, -187500.02, -147369.22, -187500.02, -179510.00, -187500.02, 0.00, 0.00, 0.00
143, 90916.63, 83664.99, -187500.02, -187500.02, -148215.91, -187500.02, -179869.44, -187500.02, 0.00, 0.00, 0.00
144, 92043.03, 83257.30, -187500.02, -187500.02, -149645.34, -187500.02, -180446.13, -187500.02, 0.00, 0.00, 0.00
145, 92033.38, 84007.73, -187500.02, -187500.02, -148878.55, -187500.02, -180141.42, -187500.02, 0.00, 0.00, 0.00
146, 90925.35, 84473.12, -187500.02, -187500.02, -147383.36, -187500.02, -179573.06, -187500.02, 0.00, 0.00, 0.00
147, 90768.73, 83800.53, -187500.02, -187500.02, -147886.16, -187500.02, -179816.41, -187500.02, 0.00, 0.00, 0.00
148, 91845.20, 83200.74, -187500.02, -187500.02, -149479.36, -187500.02, -180474.48, -187500.02, 0.00, 0.00, 0.00
149, 92121.75, 83778.56, -187500.02, -187500.02, -149181.73, -187500.02, -180378.23, -187500.02, 0.00, 0.00, 0.00
150, 91103.31, 84429.15, -187500.02, -187500.02, -147586.53, -187500.02, -179745.80, -187500.02, 0.00, 0.00, 0.00
151, 90689.54, 83934.24, -187500.02, -187500.02, -147658.03, -187500.02, -179798.05, -187500.02, 0.00, 0.00, 0.00
152, 91685.47, 83215.19, -187500.02, -187500.02, -149256.88, -187500.02, -180448.33, -187500.02, 0.00, 0.00, 0.00
153, 92233.82, 83632.29, -187500.02, -187500.02, -149336.11, -187500.02, -180476.81, -187500.02, 0.00, 0.00, 0.00
154, 91307.66, 84356.80, -187500.02, -187500.02, -147779.25, -187500.02, -179875.41, -187500.02, 0.00, 0.00, 0.00
155, 90666.83, 84062.67, -187500.02, -187500.02, -147454.16, -187500.02, -179757.13, -187500.02, 0.00, 0.00, 0.00
156, 91502.41, 83270.39, -187500.02, -187500.02, -148995.06, -187500.02, -180384.70, -187500.02, 0.00, 0.00, 0.00
157, 92285.41, 83465.28, -187500.02, -187500.02, -149532.88, -187500.02, -180611.03, -187500.02, 0.00, 0.00, 0.00
158, 91568.14, 84278.57, -187500.02, -187500.02, -148077.16, -187500.02, -180041.22, -187500.02, 0.00, 0.00, 0.00
159, 90724.37, 84168.15, -187500.02, -187500.02, -147426.92, -187500.02, -179813.36, -187500.02, 0.00, 0.00, 0.00
160, 91358.69, 83355.42, -187500.02, -187500.02, -148812.25, -187500.02, -180376.20, -187500.02, 0.00, 0.00, 0.00
161, 92323.56, 83353.01, -187500.02, -187500.02, -149716.47, -187500.02, -180727.75, -187500.02, 0.00, 0.00, 0.00
162, 91817.25, 84180.94, -187500.02, -187500.02, -148469.42, -187500.02, -180232.03, -187500.02, 0.00, 0.00, 0.00
163, 90850.41, 84305.97, -187500.02, -187500.02, -147488.00, -187500.02, -179844.67, -187500.02, 0.00, 0.00, 0.00
164, 91210.38, 83491.95, -187500.02, -187500.02, -148683.19, -187500.02, -180347.09, -187500.02, 0.00, 0.00, 0.00
165, 92271.46, 83256.29, -187500.02, -187500.02, -149936.75, -187500.02, -180855.72, -187500.02, 0.00, 0.00, 0.00
166, 92064.87, 84068.10, -187500.02, -187500.02, -148940.47, -187500.02, -180449.81, -187500.02, 0.00, 0.00, 0.00
167, 91048.13, 84386.35, -187500.02, -187500.02, -147704.81, -187500.02, -179958.66, -187500.02, 0.00, 0.00, 0.00
168, 91154.99, 83654.62, -187500.02, -187500.02, -148563.02, -187500.02, -180316.83, -187500.02, 0.00, 0.00, 0.00
169, 92221.75, 83242.48, -187500.02, -187500.02, -149995.13, -187500.02, -180892.48, -187500.02, 0.00, 0.00, 0.00
170, 92258.66, 83955.95, -187500.02, -187500.02, -149340.22, -187500.02, -180630.78, -187500.02, 0.00, 0.00, 0.00
171, 91243.80, 84425.09, -187500.02, -187500.02, -147991.16, -187500.02, -180110.42, -187500.02, 0.00, 0.00, 0.00
172, 91130.16, 83826.77, -187500.02, -187500.02, -148526.94, -187500.02, -180325.80, -187500.02, 0.00, 0.00, 0.00
173, 92165.85, 83268.83, -187500.02, -187500.02, -150093.64, -187500.02, -180956.34, -187500.02, 0.00, 0.00, 0.00
174, 92446.01, 83848.45, -187500.02, -187500.02, -149802.70, -187500.02, -180841.16, -187500.02, 0.00, 0.00, 0.00
175, 91478.29, 84475.04, -187500.02, -187500.02, -148328.56, -187500.02, -180253.20, -187500.02, 0.00, 0.00, 0.00
176, 91089.19, 84019.71, -187500.02, -187500.02, -148491.28, -187500.02, -180328.41, -187500.02, 0.00, 0.00, 0.00
177, 92016.49, 83369.61, -187500.02, -187500.02, -150027.52, -187500.02, -180941.88, -187500.02, 0.00, 0.00, 0.00
178, 92520.08, 83781.91, -187500.02, -187500.02, -150077.83, -187500.02, -180956.28, -187500.02, 0.00, 0.00, 0.00
179, 91639.27, 84492.59, -187500.02, -187500.02, -148568.84, -187500.02, -180363.58, -187500.02, 0.00, 0.00, 0.00
180, 90995.80, 84169.58, -187500.02, -187500.02, -148364.95, -187500.02, -180320.08, -187500.02, 0.00, 0.00, 0.00
181, 91728.96, 83398.06, -187500.02, -187500.02, -149850.84, -187500.02, -180935.89, -187500.02, 0.00, 0.00, 0.00
182, 92426.56, 83574.76, -187500.02, -187500.02, -150291.36, -187500.02, -181126.59, -187500.02, 0.00, 0.00, 0.00
183, 91722.08, 84343.88, -187500.02, -187500.02, -148806.16, -187500.02, -180545.41, -187500.02, 0.00, 0.00, 0.00
184, 90904.85, 84229.06, -187500.02, -187500.02, -148140.89, -187500.02, -180296.03, -187500.02, 0.00, 0.00, 0.00
185, 91444.74, 83414.77, -187500.02, -187500.02, -149444.66, -187500.02, -180836.42, -187500.02, 0.00, 0.00, 0.00
186, 92309.70, 83374.38, -187500.02, -187500.02, -150237.73, -187500.02, -181164.06, -187500.02, 0.00, 0.00, 0.00
187, 91819.13, 84165.45, -187500.02, -187500.02, -148894.91, -187500.02, -180629.73, -187500.02, 0.00, 0.00, 0.00
188, 90867.17, 84236.32, -187500.02, -187500.02, -147883.19, -187500.02, -180239.64, -187500.02, 0.00, 0.00, 0.00
189, 91172.41, 83413.31, -187500.02, -187500.02, -148961.88, -187500.02, -180699.94, -187500.02, 0.00, 0.00, 0.00
190, 92137.42, 83150.99, -187500.02, -187500.02, -150067.73, -187500.02, -181152.41, -187500.02, 0.00, 0.00, 0.00
191, 91862.63, 83853.20, -187500.02, -187500.02, -149057.78, -187500.02, -180769.53, -187500.02, 0.00, 0.00, 0.00
192, 90832.10, 84103.15, -187500.02, -187500.02, -147828.33, -187500.02, -180304.31, -187500.02, 0.00, 0.00, 0.00
193, 90935.84, 83386.06, -187500.02, -187500.02, -148594.48, -187500.02, -180619.97, -187500.02, 0.00, 0.00, 0.00
194, 91980.20, 82964.80, -187500.02, -187500.02, -149919.02, -187500.02, -181138.80, -187500.02, 0.00, 0.00, 0.00
195, 92031.54, 83620.98, -187500.02, -187500.02, -149233.27, -187500.02, -180859.16, -187500.02, 0.00, 0.00, 0.00
196, 91031.39, 84072.59, -187500.02, -187500.02, -147818.47, -187500.02, -180309.66, -187500.02, 0.00, 0.00, 0.00
197, 90865.11, 83477.80, -187500.02, -187500.02, -148244.23, -187500.02, -180490.83, -187500.02, 0.00, 0.00, 0.00
198, 91898.70, 82900.25, -187500.02, -187500.02, -149719.27, -187500.02, -181078.98, -187500.02, 0.00, 0.00, 0.00
199, 92225.82, 83405.22, -187500.02, -187500.02, -149454.75, -187500.02, -180980.33, -187500.02, 0.00, 0.00, 0.00
200, 91263.58, 84003.53, -187500.02, -187500.02, -147945.23, -187500.02, -180398.22, -187500.02, 0.00, 0.00, 0.00
201, 90859.37, 83593.42, -187500.02, -187500.02, -147946.66, -187500.02, -180397.92, -187500.02, 0.00, 0.00, 0.00
202, 91819.94, 82922.82, -187500.02, -187500.02, -149417.92, -187500.02, -180968.45, -187500.02, 0.00, 0.00, 0.00
203, 92413.33, 83222.16, -187500.02, -187500.02, -149613.09, -187500.02, -181062.78, -187500.02, 0.00, 0.00, 0.00
204, 91573.40, 83915.95, -187500.02, -187500.02, -148137.05, -187500.02, -180496.83, -187500.02, 0.00, 0.00, 0.00
205, 90926.22, 83671.00, -187500.02, -187500.02, -147772.61, -187500.02, -180359.06, -187500.02, 0.00, 0.00, 0.00
206, 91693.65, 82897.39, -187500.02, -187500.02, -149218.55, -187500.02, -180950.58, -187500.02, 0.00, 0.00, 0.00
207, 92485.44, 83020.05, -187500.02, -187500.02, -149801.97, -187500.02, -181189.84, -187500.02, 0.00, 0.00, 0.00
208, 91788.69, 83777.62, -187500.02, -187500.02, -148422.58, -187500.02, -180661.81, -187500.02, 0.00, 0.00, 0.00
209, 90918.76, 83745.93, -187500.02, -187500.02, -147666.38, -187500.02, -180374.84, -187500.02, 0.00, 0.00, 0.00
210, 91462.75, 82971.66, -187500.02, -187500.02, -148907.16, -187500.02, -180879.91, -187500.02, 0.00, 0.00, 0.00
211, 92427.74, 82889.77, -187500.02, -187500.02, -149831.20, -187500.02, -181240.98, -187500.02, 0.00, 0.00, 0.00
212, 92003.53, 83691.59, -187500.02, -187500.02, -148624.30, -187500.02, -180751.52, -187500.02, 0.00, 0.00, 0.00
213, 90989.95, 83831.00, -187500.02, -187500.02, -147595.25, -187500.02, -180374.97, -187500.02, 0.00, 0.00, 0.00
214, 91265.30, 83060.31, -187500.02, -187500.02, -148607.28, -187500.02, -180808.75, -187500.02, 0.00, 0.00, 0.00
215, 92314.02, 82758.18, -187500.02, -187500.02, -149847.75, -187500.02, -181311.41, -187500.02, 0.00, 0.00, 0.00
216, 92153.09, 83486.20, -187500.02, -187500.02, -148977.52, -187500.02, -180965.84, -187500.02, 0.00, 0.00, 0.00
217, 91080.36, 83820.63, -187500.02, -187500.02, -147712.75, -187500.02, -180495.03, -187500.02, 0.00, 0.00, 0.00
218, 91091.09, 83159.64, -187500.02, -187500.02, -148371.02, -187500.02, -180780.41, -187500.02, 0.00, 0.00, 0.00
219, 92183.30, 82703.93, -187500.02, -187500.02, -149786.33, -187500.02, -181340.84, -187500.02, 0.00, 0.00, 0.00
220, 92311.72, 83326.02, -187500.02, -187500.02, -149314.13, -187500.02, -181145.64, -187500.02, 0.00, 0.00, 0.00
221, 91216.30, 83817.88, -187500.02, -187500.02, -147937.19, -187500.02, -180629.72, -187500.02, 0.00, 0.00, 0.00
222, 90926.29, 83303.90, -187500.02, -187500.02, -148232.39, -187500.02, -180761.28, -187500.02, 0.00, 0.00, 0.00
223, 91953.84, 82703.55, -187500.02, -187500.02, -149787.14, -187500.02, -181379.95, -187500.02, 0.00, 0.00, 0.00
224, 92383.02, 83164.73, -187500.02, -187500.02, -149788.52, -187500.02, -181369.52, -187500.02, 0.00, 0.00, 0.00
225, 91416.27, 83824.76, -187500.02, -187500.02, -148355.05, -187500.02, -180798.09, -187500.02, 0.00, 0.00, 0.00
226, 90906.82, 83495.34, -187500.02, -187500.02, -148252.05, -187500.02, -180762.08, -187500.02, 0.00, 0.00, 0.00
227, 91851.63, 82832.27, -187500.02, -187500.02, -149746.11, -187500.02, -181337.38, -187500.02, 0.00, 0.00, 0.00
228, 92539.08, 83084.05, -187500.02, -187500.02, -150188.61, -187500.02, -181522.11, -187500.02, 0.00, 0.00, 0.00
229, 91745.19, 83873.06, -187500.02, -187500.02, -148748.42, -187500.02, -180924.52, -187500.02, 0.00, 0.00, 0.00
230, 90973.81, 83730.44, -187500.02, -187500.02, -148239.36, -187500.02, -180720.64, -187500.02, 0.00, 0.00, 0.00
231, 91656.48, 82929.06, -187500.02, -187500.02, -149714.08, -187500.02, -181357.00, -187500.02, 0.00, 0.00, 0.00
232, 92584.07, 82999.98, -187500.02, -187500.02, -150516.34, -187500.02, -181678.81, -187500.02, 0.00, 0.00, 0.00
233, 92008.12, 83818.84, -187500.02, -187500.02, -149228.67, -187500.02, -181148.64, -187500.02, 0.00, 0.00, 0.00
234, 91102.55, 83900.45, -187500.02, -187500.02, -148335.53, -187500.02, -180775.22, -187500.02, 0.00, 0.00, 0.00
235, 91590.05, 83133.42, -187500.02, -187500.02, -149532.16, -187500.02, -181267.75, -187500.02, 0.00, 0.00, 0.00
236, 92656.65, 82997.66, -187500.02, -187500.02, -150649.17, -187500.02, -181712.97, -187500.02, 0.00, 0.00, 0.00
237, 92323.19, 83777.46, -187500.02, -187500.02, -149628.83, -187500.02, -181305.36, -187500.02, 0.00, 0.00, 0.00
238, 91265.21, 83993.65, -187500.02, -187500.02, -148522.80, -187500.02, -180882.53, -187500.02, 0.00, 0.00, 0.00
239, 91513.80, 83315.34, -187500.02, -187500.02, -149385.83, -187500.02, -181222.17, -187500.02, 0.00, 0.00, 0.00
240, 92660.00, 83005.66, -187500.02, -187500.02, -150723.50, -187500.02, -181751.34, -187500.02, 0.00, 0.00, 0.00
241, 92597.66, 83705.23, -187500.02, -187500.02, -150037.52, -187500.02, -181483.44, -187500.02, 0.00, 0.00, 0.00
242, 91489.29, 84078.61, -187500.02, -187500.02, -148747.44, -187500.02, -180993.17, -187500.02, 0.00, 0.00, 0.00
243, 91424.35, 83456.38, -187500.02, -187500.02, -149304.64, -187500.02, -181232.23, -187500.02, 0.00, 0.00, 0.00
244, 92562.02, 82968.98, -187500.02, -187500.02, -150813.39, -187500.02, -181846.67, -187500.02, 0.00, 0.00, 0.00
245, 92824.49, 83558.80, -187500.02, -187500.02, -150507.88, -187500.02, -181719.59, -187500.02, 0.00, 0.00, 0.00
246, 91797.34, 84125.84, -187500.02, -187500.02, -149052.80, -187500.02, -181127.28, -187500.02, 0.00, 0.00, 0.00
247, 91460.36, 83661.55, -187500.02, -187500.02, -149193.17, -187500.02, -181183.72, -187500.02, 0.00, 0.00, 0.00
248, 92494.64, 83034.00, -187500.02, -187500.02, -150751.73, -187500.02, -181830.61, -187500.02, 0.00, 0.00, 0.00
249, 93047.20, 83480.27, -187500.02, -187500.02, -150832.61, -187500.02, -181849.50, -187500.02, 0.00, 0.00, 0.00
250, 92107.91, 84154.00, -187500.02, -187500.02, -149363.11, -187500.02, -181256.97, -187500.02, 0.00, 0.00, 0.00
251, 91468.59, 83799.86, -187500.02, -187500.02, -149182.89, -187500.02, -181227.83, -187500.02, 0.00, 0.00, 0.00
252, 92414.49, 83158.70, -187500.02, -187500.02, -150594.00, -187500.02, -181770.91, -187500.02, 0.00, 0.00, 0.00
253, 93193.07, 83383.65, -187500.02, -187500.02, -151093.92, -187500.02, -181974.02, -187500.02, 0.00, 0.00, 0.00
254, 92404.88, 84094.10, -187500.02, -187500.02, -149753.17, -187500.02, -181458.03, -187500.02, 0.00, 0.00, 0.00
255, 91592.51, 83990.30, -187500.02, -187500.02, -149114.66, -187500.02, -181186.94, -187500.02, 0.00, 0.00, 0.00
0, 92261.54, 83239.05, -187500.02, -187500.02, -150438.50, -187500.02, -181734.47, -187500.02, 0.00, 0.00, 0.00
1, 93223.16, 83254.23, -187500.02, -187500.02, -151311.45, -187500.02, -182104.89, -187500.02, 0.00, 0.00, 0.00
2, 92646.63, 84010.13, -187500.02, -187500.02, -150100.67, -187500.02, -181626.52, -187500.02, 0.00, 0.00, 0.00
3, 91643.87, 84063.99, -187500.02, -187500.02, -149155.36, -187500.02, -181253.89, -187500.02, 0.00, 0.00, 0.00
4, 92067.93, 83312.30, -187500.02, -187500.02, -150241.14, -187500.02, -181716.08, -187500.02, 0.00, 0.00, 0.00
5, 93169.17, 83136.17, -187500.02, -187500.02, -151393.28, -187500.02, -182194.63, -187500.02, 0.00, 0.00, 0.00
6, 92876.91, 83868.16, -187500.02, -187500.02, -150445.20, -187500.02, -181815.14, -187500.02, 0.00, 0.00, 0.00
7, 91753.82, 84087.44, -187500.02, -187500.02, -149264.14, -187500.02, -181357.48, -187500.02, 0.00, 0.00, 0.00
8, 91885.20, 83383.16, -187500.02, -187500.02, -150048.28, -187500.02, -181703.19, -187500.02, 0.00, 0.00, 0.00
9, 93018.03, 83010.66, -187500.02, -187500.02, -151412.20, -187500.02, -182278.98, -187500.02, 0.00, 0.00, 0.00
10, 93020.98, 83669.86, -187500.02, -187500.02, -150785.17, -187500.02, -182032.11, -187500.02, 0.00, 0.00, 0.00
11, 91908.91, 84093.07, -187500.02, -187500.02, -149373.39, -187500.02, -181456.31, -187500.02, 0.00, 0.00, 0.00
12, 91761.53, 83514.34, -187500.02, -187500.02, -149751.16, -187500.02, -181611.20, -187500.02, 0.00, 0.00, 0.00
13, 92873.48, 83008.90, -187500.02, -187500.02, -151192.38, -187500.02, -182195.08, -187500.02, 0.00, 0.00, 0.00
14, 93186.16, 83544.70, -187500.02, -187500.02, -150946.20, -187500.02, -182093.42, -187500.02, 0.00, 0.00, 0.00
15, 92131.49, 84110.66, -187500.02, -187500.02, -149434.06, -187500.02, -181473.72, -187500.02, 0.00, 0.00, 0.00
16, 91673.62, 83635.71, -187500.02, -187500.02, -149452.92, -187500.02, -181497.59, -187500.02, 0.00, 0.00, 0.00
17, 92646.37, 82943.59, -187500.02, -187500.02, -150990.25, -187500.02, -182170.00, -187500.02, 0.00, 0.00, 0.00
18, 93247.54, 83299.85, -187500.02, -187500.02, -151184.98, -187500.02, -182263.67, -187500.02, 0.00, 0.00, 0.00
19, 92307.52, 83963.74, -187500.02, -187500.02, -149708.38, -187500.02, -181673.16, -187500.02, 0.00, 0.00, 0.00
20, 91612.40, 83693.73, -187500.02, -187500.02, -149316.63, -187500.02, -181523.47, -187500.02, 0.00, 0.00, 0.00
21, 92482.04, 83013.28, -187500.02, -187500.02, -150675.39, -187500.02, -182065.08, -187500.02, 0.00, 0.00, 0.00
22, 93328.68, 83176.45, -187500.02, -187500.02, -151282.77, -187500.02, -182317.83, -187500.02, 0.00, 0.00, 0.00
23, 92602.42, 83907.57, -187500.02, -187500.02, -149926.52, -187500.02, -181768.88, -187500.02, 0.00, 0.00, 0.00
24, 91695.77, 83810.73, -187500.02, -187500.02, -149172.56, -187500.02, -181469.81, -187500.02, 0.00, 0.00, 0.00
25, 92300.25, 83023.67, -187500.02, -187500.02, -150451.75, -187500.02, -182022.52, -187500.02, 0.00, 0.00, 0.00
26, 93392.58, 82985.63, -187500.02, -187500.02, -151477.08, -187500.02, -182441.56, -187500.02, 0.00, 0.00, 0.00
27, 92980.77, 83750.84, -187500.02, -187500.02, -150391.11, -187500.02, -181981.27, -187500.02, 0.00, 0.00, 0.00
28, 91955.66, 83865.66, -187500.02, -187500.02, -149365.45, -187500.02, -181564.94, -187500.02, 0.00, 0.00, 0.00
29, 92341.53, 83147.80, -187500.02, -187500.02, -150413.47, -187500.02, -181995.00, -187500.02, 0.00, 0.00, 0.00
30, 93593.97, 82942.36, -187500.02, -187500.02, -151811.19, -187500.02, -182535.81, -187500.02, 0.00, 0.00, 0.00
