%OpenBCI Raw EEG Data
%
%Sample Rate = 250.0 Hz
%First Column = SampleIndex
%Other Columns = EEG data in microvolts followed by Accel Data (in G) interleaved with Aux Data
0, 3365.57, 54759.54, 46682.69, 71267.88, -139416.59, -185499.00, -185428.09, 7390.18, 0.01, 0.00, 0.54
1, 3780.37, 59187.91, 48101.15, 73381.40, -141261.44, -187258.45, -187419.48, 5549.29, 0.01, 0.00, 0.54
2, 3183.25, 55435.48, 48530.33, 72150.06, -141529.45, -187485.52, -187500.02, 5285.16, 0.01, 0.00, 0.54
3, 2832.23, 49977.96, 47313.46, 69949.88, -140419.28, -186355.61, -186284.17, 6411.66, 0.01, 0.00, 0.54
4, 3206.69, 53487.66, 46519.93, 70706.70, -139342.80, -185317.34, -185193.25, 7508.22, 0.01, 0.00, 0.54
5, 3871.30, 58853.39, 47931.70, 73400.84, -141293.89, -187145.66, -187291.66, 5564.76, 0.02, 0.00, 1.07
6, 3279.14, 56453.38, 48591.26, 72430.34, -141720.94, -187500.02, -187500.02, 5148.43, 0.02, 0.00, 1.07
7, 2900.12, 50366.77, 47649.87, 70330.27, -140949.84, -186712.25, -186675.13, 5935.91, 0.02, 0.00, 1.07
8, 3031.16, 52283.12, 46438.32, 70136.66, -139370.23, -185188.64, -185025.52, 7537.30, 0.02, 0.00, 1.07
9, 3857.44, 58435.08, 47638.65, 73199.37, -141083.05, -186811.61, -186884.19, 5829.31, 0.02, 0.00, 1.07
10, 3360.41, 57512.96, 48486.72, 72670.46, -141768.89, -187469.95, -187500.02, 5149.39, 0.02, 0.00, 1.07
11, 2961.07, 51217.95, 47911.07, 70768.39, -141310.05, -186959.84, -187026.03, 5623.45, 0.02, 0.00, 1.07
12, 2902.44, 51261.24, 46463.53, 69735.48, -139495.09, -185197.83, -185190.25, 7461.48, 0.02, 0.00, 1.07
13, 3774.23, 57728.90, 47371.57, 72832.73, -140808.13, -186444.34, -186639.08, 6155.58, 0.02, 0.00, 1.07
14, 3459.80, 58307.12, 48431.73, 72919.19, -141860.48, -187446.58, -187500.02, 5106.84, 0.02, 0.00, 1.07
15, 2985.32, 52198.16, 48138.75, 71157.96, -141652.92, -187188.67, -187330.34, 5323.96, 0.02, 0.00, 1.07
16, 2800.81, 50454.01, 46562.17, 69519.87, -139798.56, -185377.52, -185315.78, 7200.88, 0.02, 0.00, 1.07
17, 3628.98, 56765.54, 47068.44, 72308.74, -140488.75, -186040.36, -186109.36, 6519.91, 0.02, 0.00, 1.07
18, 3560.16, 58875.92, 48375.90, 73132.47, -141913.36, -187401.36, -187500.02, 5095.33, 0.02, 0.00, 1.07
19, 3023.83, 53357.23, 48388.82, 71544.11, -141880.69, -187331.13, -187445.28, 5132.56, 0.02, 0.00, 1.07
20, 2744.86, 49962.76, 46806.18, 69514.66, -140217.25, -185687.61, -185593.09, 6817.53, 0.02, -0.00, 1.07
21, 3421.96, 55601.04, 46793.66, 71665.08, -140213.83, -185684.23, -185653.41, 6836.19, 0.02, -0.00, 1.07
22, 3643.78, 59151.95, 48203.39, 73263.34, -141926.48, -187313.58, -187500.02, 5128.12, 0.02, -0.00, 1.07
23, 3053.94, 54556.63, 48490.97, 71864.01, -142070.20, -187408.17, -187500.02, 4990.07, 0.02, -0.00, 1.07
24, 2731.07, 49787.30, 47077.78, 69679.35, -140712.31, -186046.70, -185970.53, 6365.42, 0.02, -0.00, 1.07
25, 3237.29, 54344.20, 46580.79, 71028.97, -140006.89, -185370.14, -185281.34, 7087.38, 0.01, -0.00, 1.07
26, 3713.85, 59137.68, 48015.52, 73324.36, -141879.34, -187166.66, -187308.59, 5216.14, 0.01, -0.00, 1.07
27, 3101.19, 55743.66, 48533.93, 72164.57, -142205.61, -187459.92, -187500.02, 4892.26, 0.01, -0.00, 1.07
28, 2742.04, 50004.65, 47391.71, 69976.72, -141211.20, -186439.98, -186366.25, 5899.97, 0.01, -0.00, 1.07
29, 3033.04, 53058.66, 46452.46, 70407.12, -139938.25, -185214.75, -185065.95, 7190.22, 0.01, -0.00, 1.07
30, 3743.18, 58781.98, 47792.34, 73233.39, -141782.11, -186972.77, -187068.72, 5347.54, 0.02, 0.00, 1.07
31, 3202.29, 56788.34, 48562.16, 72454.54, -142332.91, -187485.23, -187500.02, 4799.61, 0.02, 0.00, 1.07
32, 2819.02, 50564.20, 47719.50, 70398.56, -141669.17, -186776.13, -186738.16, 5474.81, 0.02, 0.00, 1.07
33, 2882.39, 51890.76, 46410.63, 69916.39, -140001.44, -185167.70, -184990.19, 7162.33, 0.02, 0.00, 1.07
34, 3728.32, 58203.14, 47505.73, 73008.30, -141594.27, -186691.23, -186730.44, 5572.98, 0.02, 0.00, 1.07
35, 3298.22, 57722.95, 48464.59, 72701.59, -142438.09, -187482.56, -187500.02, 4732.04, 0.02, 0.00, 1.07
36, 2890.93, 51408.65, 47994.27, 70828.05, -142050.27, -187040.31, -187023.72, 5128.03, 0.02, 0.00, 1.07
37, 2788.89, 50945.10, 46485.70, 69598.79, -140190.22, -185237.02, -185040.77, 7008.32, 0.02, 0.00, 1.07
38, 3661.53, 57421.99, 47262.23, 72630.78, -141299.98, -186308.42, -186278.25, 5904.70, 0.02, 0.00, 1.07
39, 3446.26, 58497.93, 48412.94, 72974.42, -142482.55, -187442.19, -187500.02, 4723.86, 0.02, 0.00, 1.07
40, 2950.32, 52489.72, 48222.46, 71257.16, -142348.94, -187250.70, -187294.58, 4869.80, 0.02, 0.00, 1.07
41, 2737.93, 50226.18, 46629.70, 69476.62, -140538.13, -185480.83, -185450.94, 6704.43, 0.02, 0.00, 1.08
42, 3539.26, 56411.02, 46973.71, 72106.93, -141006.72, -185936.48, -186017.45, 6245.48, 0.02, 0.00, 1.08
43, 3570.94, 58966.45, 48310.21, 73189.27, -142524.48, -187384.75, -187500.02, 4729.58, 0.02, 0.00, 1.08
44, 3018.76, 53673.44, 48403.57, 71648.60, -142561.45, -187371.97, -187500.02, 4697.00, 0.02, 0.00, 1.08
45, 2730.00, 49837.35, 46867.65, 69550.71, -140980.56, -185808.81, -185765.28, 6295.99, 0.02, 0.00, 1.08
46, 3364.61, 55208.27, 46718.92, 71488.34, -140765.09, -185607.11, -185601.25, 6521.75, 0.02, -0.00, 1.07
47, 3677.93, 59169.34, 48128.73, 73317.36, -142521.02, -187291.34, -187497.06, 4762.62, 0.02, -0.00, 1.07
48, 3074.86, 54914.90, 48473.33, 71981.48, -142708.97, -187433.59, -187500.02, 4575.47, 0.02, -0.00, 1.07
49, 2753.71, 49848.48, 47186.03, 69791.11, -141440.61, -186158.31, -186108.89, 5859.64, 0.02, -0.00, 1.07
50, 3195.14, 53980.22, 46578.15, 70873.89, -140584.67, -185336.95, -185253.52, 6732.37, 0.02, -0.00, 1.07
51, 3756.30, 59060.14, 47953.30, 73345.48, -142467.83, -187136.95, -187291.77, 4851.02, 0.02, 0.00, 1.07
52, 3160.96, 56086.89, 48557.06, 72293.52, -142824.53, -187459.41, -187500.02, 4498.31, 0.02, 0.00, 1.07
53, 2799.89, 50145.55, 47514.67, 70140.46, -141937.86, -186534.95, -186493.53, 5399.98, 0.02, 0.00, 1.07
54, 3019.83, 52744.80, 46432.91, 70289.06, -140540.83, -185191.30, -185050.20, 6814.35, 0.02, 0.00, 1.07
55, 3778.09, 58706.16, 47729.20, 73222.05, -142301.66, -186879.17, -186968.05, 5053.75, 0.02, 0.00, 1.07
56, 3257.39, 57124.38, 48560.97, 72568.16, -142927.89, -187469.58, -187500.02, 4427.77, 0.02, -0.00, 1.07
57, 2866.79, 50807.23, 47828.44, 70560.61, -142369.00, -186862.50, -186835.97, 4995.03, 0.02, -0.00, 1.07
58, 2890.66, 51637.67, 46429.55, 69846.49, -140611.53, -185167.81, -184983.97, 6769.92, 0.02, -0.00, 1.07
59, 3751.76, 58058.72, 47464.84, 72956.49, -142066.39, -186567.50, -186582.75, 5316.23, 0.02, -0.00, 1.07
60, 3370.46, 58011.52, 48470.76, 72832.80, -143008.44, -187461.86, -187500.02, 4373.86, 0.02, -0.00, 1.07
61, 2931.23, 51739.68, 48092.01, 70995.62, -142716.52, -187117.11, -187102.28, 4669.57, 0.02, -0.00, 1.08
62, 2797.43, 50751.07, 46549.34, 69583.30, -140839.13, -185296.58, -185088.78, 6565.44, 0.02, -0.00, 1.08
63, 3648.65, 57168.03, 47193.52, 72525.69, -141787.58, -186211.28, -186154.23, 5622.60, 0.02, -0.00, 1.08
64, 3493.71, 58667.20, 48400.87, 73068.63, -143053.23, -187419.02, -187475.45, 4360.62, 0.02, -0.00, 1.08
65, 2994.73, 52838.58, 48288.50, 71407.27, -142968.09, -187280.64, -187353.23, 4459.82, 0.02, -0.00, 1.08
66, 2752.68, 50123.25, 46670.69, 69504.73, -141209.02, -185559.28, -185552.59, 6241.86, 0.02, -0.01, 1.07
67, 3509.18, 56088.19, 46893.33, 71957.66, -141499.20, -185846.88, -185927.59, 5961.97, 0.02, -0.01, 1.07
68, 3616.04, 59050.25, 48264.41, 73250.89, -143092.11, -187373.58, -187500.02, 4369.34, 0.02, -0.01, 1.07
69, 3039.43, 54035.45, 48435.20, 71761.86, -143178.13, -187406.09, -187500.02, 4288.27, 0.02, -0.01, 1.07
70, 2751.88, 49835.56, 46979.07, 69622.26, -141660.77, -185902.30, -185871.88, 5823.43, 0.02, -0.01, 1.07
71, 3335.51, 54890.20, 46688.86, 71326.18, -141249.67, -185510.95, -185498.48, 6247.02, 0.02, -0.01, 1.08
72, 3719.71, 59159.90, 48103.99, 73365.98, -143078.63, -187260.58, -187470.95, 4417.40, 0.02, -0.01, 1.08
73, 3117.08, 55264.84, 48528.09, 72102.55, -143296.83, -187445.70, -187500.02, 4201.57, 0.02, -0.01, 1.08
74, 2777.41, 49917.37, 47252.21, 69898.55, -142136.44, -186274.88, -186227.42, 5375.42, 0.02, -0.01, 1.08
75, 3139.17, 53626.08, 46512.79, 70691.73, -141117.80, -185296.64, -185199.70, 6410.64, 0.02, -0.01, 1.08
76, 3775.50, 58969.80, 47914.54, 73342.62, -142982.45, -187080.55, -187223.08, 4548.11, 0.02, -0.00, 1.08
77, 3209.00, 56381.67, 48555.45, 72400.16, -143414.05, -187473.50, -187500.02, 4119.96, 0.02, -0.00, 1.08
78, 2834.34, 50347.59, 47576.49, 70273.03, -142613.44, -186638.95, -186611.17, 4931.89, 0.02, -0.00, 1.08
79, 2985.90, 52444.07, 46427.68, 70161.70, -141091.50, -185174.78, -185026.75, 6472.42, 0.02, -0.00, 1.08
80, 3787.68, 58530.01, 47647.03, 73194.09, -142810.36, -186815.63, -186897.66, 4756.92, 0.02, -0.00, 1.08
81, 3315.39, 57421.36, 48537.01, 72687.70, -143486.64, -187459.31, -187500.02, 4084.51, 0.02, -0.00, 1.08
82, 2895.96, 51054.91, 47893.39, 70702.56, -143020.67, -186944.83, -186914.91, 4559.22, 0.02, -0.00, 1.08
83, 2859.97, 51370.03, 46444.35, 69757.91, -141230.66, -185211.20, -185018.88, 6370.63, 0.02, -0.00, 1.08
84, 3723.22, 57833.93, 47373.80, 72862.64, -142558.55, -186484.27, -186483.45, 5047.23, 0.02, -0.00, 1.08
85, 3395.43, 58215.03, 48480.30, 72915.08, -143577.36, -187452.20, -187500.02, 4030.65, 0.02, -0.00, 1.08
86, 2924.12, 52031.91, 48181.64, 71112.05, -143340.25, -187162.84, -187219.41, 4280.31, 0.02, -0.00, 1.08
87, 2739.05, 50498.02, 46580.18, 69511.89, -141494.73, -185369.42, -185342.14, 6147.47, 0.02, 0.00, 1.08
88, 3587.34, 56845.00, 47150.00, 72375.70, -142284.83, -186129.36, -186246.48, 5363.84, 0.02, 0.00, 1.08
89, 3503.46, 58761.66, 48398.50, 73128.96, -143646.03, -187426.48, -187500.02, 4002.39, 0.02, 0.00, 1.08
90, 2971.31, 53156.38, 48347.61, 71501.91, -143586.75, -187321.00, -187485.38, 4064.73, 0.02, 0.00, 1.08
91, 2708.65, 49974.23, 46768.25, 69499.55, -141882.63, -185647.61, -185599.06, 5786.51, 0.02, 0.00, 1.08
92, 3426.81, 55717.96, 46836.47, 71772.43, -141997.03, -185766.14, -185788.31, 5680.27, 0.02, 0.00, 1.07
93, 3617.18, 59093.14, 48249.75, 73287.92, -143646.47, -187343.64, -187500.02, 4028.77, 0.02, 0.00, 1.07
94, 3035.95, 54382.55, 48505.36, 71859.47, -143736.80, -187400.22, -187500.02, 3940.19, 0.02, 0.00, 1.07
95, 2717.84, 49798.88, 47070.74, 69659.45, -142336.33, -186006.09, -185941.30, 5354.81, 0.02, 0.00, 1.07
96, 3255.53, 54514.59, 46633.96, 71128.92, -141728.31, -185426.75, -185360.80, 5976.66, 0.02, 0.00, 1.07
97, 3715.69, 59146.18, 48082.47, 73373.80, -143564.36, -187190.95, -187351.67, 4140.44, 0.02, 0.00, 1.07
98, 3114.29, 55603.61, 48568.15, 72193.45, -143858.38, -187454.53, -187500.02, 3847.61, 0.02, 0.00, 1.07
99, 2761.67, 49982.50, 47410.21, 69980.09, -142811.97, -186390.39, -186323.20, 4906.39, 0.02, 0.00, 1.07
100, 3071.26, 53249.97, 46501.98, 70515.59, -141618.23, -185245.13, -185104.05, 6116.98, 0.02, 0.00, 1.07
101, 3762.27, 58889.56, 47836.17, 73324.90, -143453.53, -187004.03, -187099.98, 4281.34, 0.02, 0.00, 1.07
102, 3198.78, 56725.95, 48573.45, 72482.44, -143948.27, -187469.19, -187500.02, 3787.21, 0.02, -0.01, 1.08
103, 2816.52, 50519.79, 47747.10, 70388.84, -143245.22, -186726.95, -186668.98, 4500.84, 0.02, -0.01, 1.08
104, 2923.36, 52075.38, 46481.77, 70015.01, -141620.11, -185160.44, -184971.16, 6146.48, 0.02, -0.01, 1.08
105, 3754.04, 58327.50, 47633.36, 73111.84, -143262.66, -186734.72, -186764.94, 4508.48, 0.02, -0.01, 1.08
106, 3308.59, 57648.37, 48567.01, 72752.78, -144053.14, -187481.52, -187500.02, 3721.97, 0.02, -0.01, 1.08
107, 2875.42, 51332.32, 48031.86, 70815.20, -143643.17, -187018.89, -186987.73, 4140.86, 0.02, -0.02, 1.08
108, 2810.15, 51067.77, 46524.21, 69667.79, -141810.64, -185242.06, -185033.80, 5996.35, 0.02, -0.02, 1.08
109, 3677.73, 57546.64, 47368.33, 72736.22, -142998.45, -186384.47, -186347.69, 4817.90, 0.02, -0.02, 1.08
110, 3415.37, 58428.11, 48530.53, 72993.17, -144098.88, -187437.03, -187490.69, 3721.54, 0.02, -0.02, 1.08
111, 2922.40, 52361.29, 48253.97, 71235.48, -143924.23, -187216.63, -187302.94, 3909.34, 0.02, -0.02, 1.08
112, 2725.53, 50301.39, 46658.95, 69491.41, -142105.77, -185441.73, -185452.80, 5748.76, 0.02, -0.01, 1.07
113, 3535.20, 56546.80, 47076.80, 72194.92, -142675.81, -185994.88, -186127.75, 5186.30, 0.02, -0.01, 1.07
114, 3539.60, 58920.34, 48361.64, 73211.33, -144146.00, -187401.94, -187500.02, 3717.16, 0.02, -0.01, 1.07
115, 2986.73, 53562.89, 48427.73, 71643.62, -144139.78, -187354.28, -187500.02, 3727.40, 0.02, -0.01, 1.07
116, 2702.01, 49892.09, 46898.72, 69539.88, -142522.23, -185761.11, -185749.58, 5362.25, 0.02, -0.01, 1.07
117, 3354.68, 55368.36, 46796.86, 71567.65, -142402.67, -185656.31, -185687.42, 5493.83, 0.02, -0.01, 1.07
118, 3637.59, 59168.93, 48230.14, 73353.13, -144121.45, -187306.53, -187500.02, 3776.39, 0.02, -0.01, 1.07
119, 3050.81, 54794.56, 48548.01, 71991.21, -144281.88, -187432.27, -187500.02, 3620.49, 0.02, -0.01, 1.07
120, 2724.92, 49842.73, 47182.92, 69767.13, -142985.58, -186131.98, -186102.19, 4932.52, 0.02, -0.01, 1.07
121, 3181.90, 54115.23, 46583.14, 70943.56, -142214.02, -185396.30, -185345.28, 5720.21, 0.02, -0.01, 1.07
122, 3707.15, 59082.21, 48024.53, 73378.96, -144089.70, -187186.23, -187374.75, 3845.73, 0.02, -0.01, 1.08
123, 3100.99, 55969.06, 48592.27, 72279.91, -144409.28, -187476.91, -187500.02, 3529.36, 0.02, -0.01, 1.08
124, 2746.90, 50123.32, 47501.55, 70097.03, -143460.91, -186503.78, -186470.56, 4491.16, 0.02, -0.01, 1.08
125, 3001.10, 52866.10, 46500.19, 70354.70, -142126.94, -185222.38, -185096.80, 5842.99, 0.02, -0.01, 1.08
126, 3737.44, 58733.88, 47811.99, 73283.84, -143928.88, -186944.22, -187059.22, 4042.13, 0.02, -0.01, 1.08
127, 3189.10, 57035.93, 48591.53, 72559.37, -144485.78, -187476.30, -187500.02, 3487.94, 0.03, -0.00, 1.08
128, 2801.19, 50719.13, 47822.50, 70502.38, -143886.05, -186832.56, -186809.64, 4099.91, 0.03, -0.00, 1.08
129, 2851.01, 51722.47, 46446.77, 69871.26, -142195.13, -185198.88, -185031.89, 5814.16, 0.03, -0.00, 1.08
130, 3707.10, 58126.65, 47534.69, 73010.05, -143703.77, -186648.75, -186688.14, 4311.41, 0.03, -0.00, 1.08
131, 3309.60, 57928.63, 48563.16, 72828.55, -144574.92, -187479.08, -187500.02, 3444.20, 0.03, -0.00, 1.08
132, 2873.12, 51634.11, 48126.97, 70951.37, -144245.64, -187101.91, -187088.94, 3783.46, 0.03, -0.00, 1.07
133, 2747.43, 50798.38, 46569.99, 69575.48, -142401.55, -185312.66, -185109.36, 5649.81, 0.03, -0.00, 1.07
134, 3613.41, 57235.42, 47277.94, 72589.99, -143425.94, -186297.58, -186255.47, 4632.78, 0.03, -0.00, 1.07
135, 3430.30, 58570.71, 48457.55, 73068.72, -144638.45, -187451.00, -187500.02, 3424.15, 0.03, -0.00, 1.07
136, 2912.97, 52715.98, 48310.66, 71359.71, -144513.39, -187283.92, -187276.25, 3555.94, 0.03, -0.00, 1.07
137, 2674.90, 50131.83, 46723.06, 69466.00, -142740.34, -185550.14, -185336.33, 5351.88, 0.03, -0.00, 1.07
138, 3467.56, 56163.70, 46967.09, 72021.52, -143132.66, -185929.20, -185819.77, 4971.27, 0.02, 0.00, 1.09
139, 3547.69, 59020.54, 48274.20, 73258.42, -144683.80, -187404.27, -187499.22, 3424.15, 0.02, 0.00, 1.09
140, 2980.29, 53941.02, 48425.19, 71745.48, -144703.09, -187388.38, -187398.97, 3409.85, 0.02, 0.00, 1.09
141, 2686.50, 49834.91, 47004.00, 69592.69, -143176.16, -185876.36, -185679.38, 4956.90, 0.02, 0.00, 1.09
142, 3291.65, 54976.06, 46730.34, 71395.49, -142877.42, -185594.53, -185428.44, 5272.71, 0.02, 0.00, 1.09
143, 3654.15, 59159.52, 48137.97, 73382.65, -144659.03, -187291.34, -187337.41, 3495.68, 0.03, 0.00, 1.08
144, 3052.94, 55170.90, 48534.20, 72090.63, -144832.13, -187439.00, -187452.67, 3333.49, 0.03, 0.00, 1.08
145, 2713.50, 49879.32, 47264.59, 69854.38, -143630.92, -186228.16, -186243.95, 4555.91, 0.03, 0.00, 1.08
146, 3125.33, 53716.98, 46558.95, 70771.77, -142686.14, -185326.70, -185324.14, 5517.93, 0.03, 0.00, 1.08
147, 3712.02, 59010.48, 47938.84, 73378.63, -144557.84, -187121.06, -187354.42, 3647.09, 0.03, 0.00, 1.08
148, 3127.32, 56302.57, 48556.97, 72385.66, -144938.41, -187470.88, -187500.02, 3269.77, 0.03, 0.00, 1.07
149, 2761.83, 50293.46, 47564.55, 70223.88, -144097.63, -186593.97, -186641.11, 4123.09, 0.03, 0.00, 1.07
150, 2943.59, 52523.18, 46454.23, 70194.40, -142629.94, -185185.31, -185114.19, 5610.13, 0.03, 0.00, 1.07
151, 3717.36, 58596.84, 47707.09, 73219.59, -144365.98, -186851.34, -187007.86, 3875.48, 0.03, 0.00, 1.07
152, 3225.89, 57338.57, 48570.36, 72667.55, -145012.84, -187467.88, -187500.02, 3230.65, 0.03, 0.00, 1.07
153, 2814.42, 51025.25, 47902.34, 70645.44, -144485.73, -186895.11, -186933.91, 3768.35, 0.03, -0.00, 1.08
154, 2804.90, 51444.48, 46481.75, 69763.19, -142720.83, -185190.19, -185065.63, 5556.06, 0.03, -0.00, 1.08
155, 3676.84, 57899.64, 47462.23, 72900.10, -144117.63, -186531.72, -186603.48, 4168.00, 0.03, -0.00, 1.08
156, 3340.98, 58196.59, 48536.61, 72912.48, -145077.17, -187456.78, -187500.02, 3212.15, 0.03, -0.00, 1.08
157, 2885.63, 51970.62, 48188.64, 71094.93, -144809.23, -187148.22, -187168.05, 3486.40, 0.03, -0.00, 1.08
158, 2722.96, 50550.03, 46616.28, 69535.47, -142985.58, -185371.77, -185203.39, 5330.89, 0.03, -0.01, 1.08
159, 3548.94, 56932.48, 47190.88, 72408.41, -143850.38, -186204.48, -186184.86, 4474.73, 0.03, -0.01, 1.08
160, 3458.22, 58774.43, 48435.18, 73138.48, -145145.42, -187438.39, -187500.02, 3182.62, 0.03, -0.01, 1.08
161, 2933.58, 53105.62, 48390.30, 71500.08, -145068.94, -187320.39, -187353.25, 3264.09, 0.03, -0.01, 1.08
162, 2674.16, 50010.15, 46816.31, 69500.09, -143348.13, -185637.20, -185454.97, 5004.94, 0.03, -0.01, 1.08
163, 3410.16, 55832.04, 46929.00, 71840.05, -143508.39, -185797.84, -185693.17, 4858.44, 0.03, -0.00, 1.08
164, 3570.65, 59120.94, 48299.12, 73318.59, -145146.95, -187364.31, -187469.27, 3220.75, 0.03, -0.00, 1.08
165, 2984.11, 54323.63, 48520.52, 71859.16, -145229.89, -187404.97, -187440.73, 3143.95, 0.03, -0.00, 1.08
166, 2663.08, 49808.31, 47086.92, 69639.63, -143790.36, -185971.98, -185803.25, 4605.87, 0.03, -0.00, 1.08
167, 3210.43, 54575.16, 46713.29, 71175.66, -143282.70, -185490.73, -185331.52, 5130.80, 0.03, -0.00, 1.08
168, 3660.30, 59162.38, 48152.79, 73396.66, -145108.95, -187239.69, -187293.52, 3309.00, 0.02, -0.01, 1.07
169, 3049.74, 55540.53, 48622.08, 72183.03, -145344.30, -187450.06, -187476.84, 3083.76, 0.02, -0.01, 1.07
170, 2710.73, 49970.74, 47407.85, 69965.18, -144283.19, -186365.73, -186398.14, 4166.10, 0.02, -0.01, 1.07
171, 3050.19, 53341.74, 46546.70, 70573.13, -143142.05, -185270.56, -185266.42, 5327.83, 0.02, -0.01, 1.07
172, 3717.77, 58926.19, 47921.18, 73359.43, -144982.63, -187041.16, -187264.86, 3491.77, 0.02, -0.01, 1.07
173, 3124.19, 56646.61, 48581.11, 72467.55, -145451.61, -187478.80, -187500.02, 3027.95, 0.01, -0.01, 1.08
174, 2749.35, 50468.49, 47663.93, 70349.14, -144718.73, -186704.86, -186754.94, 3774.78, 0.01, -0.01, 1.08
175, 2883.13, 52137.77, 46422.85, 70044.15, -143131.77, -185179.64, -185099.97, 5384.04, 0.01, -0.01, 1.08
176, 3703.89, 58386.46, 47490.84, 73146.04, -144795.06, -186771.19, -186919.63, 3726.19, 0.01, -0.01, 1.08
177, 3241.96, 57617.63, 48339.58, 72748.13, -145533.80, -187474.98, -187500.02, 2990.19, 0.01, -0.01, 1.08
178, 2825.55, 51281.20, 47665.90, 70800.66, -145101.06, -186994.27, -187046.91, 3433.54, 0.01, -0.00, 1.07
179, 2762.47, 51137.04, 46044.75, 69676.71, -143276.73, -185231.45, -185105.09, 5282.32, 0.01, -0.00, 1.07
180, 3622.17, 57607.30, 46791.79, 72765.63, -144530.53, -186430.39, -186496.80, 4036.28, 0.01, -0.00, 1.07
181, 3347.75, 58365.39, 47911.50, 72985.57, -145618.02, -187464.31, -187500.02, 2950.94, 0.01, -0.00, 1.07
182, 2872.40, 52314.50, 47822.36, 71216.32, -145412.23, -187206.83, -187271.30, 3164.40, 0.01, -0.00, 1.07
183, 2681.94, 50390.69, 46478.84, 69494.25, -143568.05, -185416.14, -185273.61, 5029.95, 0.02, -0.00, 1.07
184, 3512.44, 56643.48, 47055.52, 72263.50, -144189.80, -186023.86, -185999.91, 4420.04, 0.02, -0.00, 1.07
185, 3481.89, 58937.28, 48420.09, 73212.42, -145620.50, -187392.97, -187500.02, 2994.08, 0.02, -0.00, 1.07
186, 2940.68, 53482.65, 48521.86, 71626.59, -145615.58, -187347.17, -187412.58, 3003.78, 0.02, -0.00, 1.07
187, 2661.62, 49923.11, 46980.66, 69534.06, -143979.73, -185742.34, -185592.94, 4658.42, 0.02, -0.00, 1.07
188, 3346.88, 55476.04, 46935.44, 71650.03, -143921.69, -185694.39, -185597.25, 4730.30, 0.02, -0.00, 1.07
189, 3590.07, 59162.11, 48353.82, 73353.41, -145622.86, -187323.58, -187420.28, 3034.83, 0.03, 0.00, 1.07
190, 2995.65, 54705.85, 48598.46, 71967.45, -145754.95, -187418.72, -187475.94, 2914.15, 0.03, 0.00, 1.07
191, 2687.10, 49828.03, 47193.00, 69750.20, -144432.08, -186095.23, -186117.81, 4260.38, 0.03, 0.00, 1.07
192, 3166.15, 54205.21, 46618.74, 71002.39, -143721.16, -185419.83, -185444.64, 4990.67, 0.03, 0.00, 1.07
193, 3670.72, 59117.14, 48018.68, 73398.90, -145575.55, -187190.52, -187451.09, 3139.30, 0.03, 0.00, 1.07
194, 3078.39, 55888.66, 48573.00, 72279.82, -145869.63, -187460.55, -187500.02, 2849.40, 0.02, 0.00, 1.07
195, 2728.03, 50102.30, 47480.54, 70078.15, -144895.73, -186469.69, -186494.66, 3837.24, 0.02, 0.00, 1.07
196, 2999.51, 52973.66, 46495.00, 70405.71, -143598.36, -185228.39, -185169.69, 5153.26, 0.02, 0.00, 1.07
197, 3712.69, 58825.97, 47805.37, 73312.96, -145401.09, -186958.09, -187133.33, 3354.48, 0.02, 0.00, 1.07
198, 3154.93, 56991.27, 48580.35, 72567.35, -145957.16, -187478.06, -187500.02, 2802.98, 0.02, 0.00, 1.07
199, 2777.72, 50714.27, 47814.38, 70496.35, -145310.70, -186791.48, -186825.33, 3460.63, 0.02, 0.00, 1.08
200, 2848.80, 51841.05, 46470.46, 69928.75, -143639.38, -185183.91, -185069.02, 5152.86, 0.02, 0.00, 1.08
201, 3694.88, 58213.77, 47554.86, 73064.99, -145183.30, -186662.36, -186762.86, 3614.79, 0.02, 0.00, 1.08
202, 3278.35, 57910.35, 48548.64, 72842.73, -146029.02, -187468.97, -187500.02, 2775.51, 0.02, 0.00, 1.08
203, 2843.28, 51584.05, 48086.96, 70941.84, -145682.14, -187071.06, -187113.11, 3133.78, 0.02, 0.00, 1.08
204, 2725.93, 50851.76, 46538.52, 69600.80, -143862.33, -185308.92, -185168.23, 4976.19, 0.02, -0.01, 1.08
205, 3608.58, 57322.52, 47278.72, 72641.63, -144938.45, -186344.30, -186374.58, 3908.00, 0.02, -0.01, 1.08
206, 3406.70, 58590.09, 48446.76, 73073.98, -146095.17, -187447.33, -187500.02, 2755.03, 0.02, -0.01, 1.08
207, 2917.15, 52657.94, 48269.17, 71368.07, -145957.28, -187262.66, -187308.55, 2900.72, 0.02, -0.01, 1.08
208, 2694.95, 50202.84, 46670.69, 69507.87, -144170.22, -185521.80, -185355.75, 4709.87, 0.02, -0.01, 1.08
209, 3486.36, 56274.61, 46988.11, 72098.37, -144609.66, -185951.31, -185889.53, 4279.89, 0.03, 0.00, 1.08
210, 3525.21, 59007.95, 48320.49, 73263.12, -146123.20, -187392.53, -187500.02, 2770.12, 0.03, 0.00, 1.08
211, 2960.20, 53833.39, 48409.72, 71732.22, -146158.16, -187383.89, -187438.28, 2742.98, 0.03, 0.00, 1.08
212, 2674.65, 49854.78, 46916.45, 69587.52, -144601.00, -185851.08, -185692.67, 4319.99, 0.03, 0.00, 1.08
213, 3298.36, 55085.27, 46690.13, 71449.05, -144348.36, -185618.42, -185495.64, 4587.07, 0.03, 0.00, 1.08
214, 3632.69, 59209.68, 48099.70, 73389.05, -146104.67, -187301.36, -187400.91, 2832.93, 0.03, -0.00, 1.08
215, 3035.46, 55087.73, 48502.81, 72082.97, -146280.86, -187445.70, -187487.63, 2661.87, 0.03, -0.00, 1.08
216, 2702.42, 49876.64, 47226.78, 69841.33, -145045.83, -186209.00, -186050.11, 3913.57, 0.03, -0.00, 1.08
217, 3131.21, 53833.82, 46516.19, 70833.08, -144155.47, -185358.63, -185165.06, 4821.38, 0.03, -0.00, 1.08
218, 3704.89, 59051.50, 47886.64, 73396.48, -146026.48, -187146.20, -187191.77, 2952.17, 0.03, -0.00, 1.08
219, 3111.63, 56238.13, 48523.38, 72382.16, -146382.69, -187477.73, -187480.59, 2600.36, 0.01, -0.00, 1.07
220, 2758.25, 50246.45, 47506.02, 70216.57, -145507.75, -186573.27, -186559.19, 3493.15, 0.01, -0.00, 1.07
221, 2963.75, 52596.78, 46407.56, 70265.48, -144103.02, -185225.80, -185167.64, 4920.49, 0.01, -0.00, 1.07
222, 3719.60, 58631.57, 47632.93, 73255.41, -145858.52, -186904.14, -187079.89, 3169.79, 0.01, -0.00, 1.07
223, 3188.28, 57252.38, 48430.91, 72639.86, -146481.42, -187481.83, -187500.02, 2551.85, 0.01, -0.00, 1.07
224, 2804.88, 50932.80, 47752.15, 70633.92, -145939.70, -186889.28, -186950.45, 3105.98, 0.01, 0.00, 1.07
225, 2828.32, 51524.01, 46372.07, 69830.60, -144180.03, -185197.56, -185095.84, 4889.47, 0.01, 0.00, 1.07
226, 3683.54, 57973.85, 47393.48, 72963.67, -145595.44, -186562.78, -186656.39, 3480.86, 0.01, 0.00, 1.07
227, 3313.31, 58147.93, 48430.28, 72918.34, -146530.13, -187461.44, -187500.02, 2549.51, 0.01, 0.00, 1.07
228, 2870.34, 51912.30, 48001.42, 71087.04, -146257.56, -187141.14, -187184.81, 2832.46, 0.01, 0.00, 1.07
229, 2717.59, 50657.99, 46405.28, 69565.78, -144410.59, -185347.39, -185197.56, 4701.78, 0.01, -0.00, 1.07
230, 3573.28, 57037.52, 47022.68, 72499.80, -145318.56, -186219.33, -186224.89, 3803.06, 0.01, -0.00, 1.07
231, 3437.05, 58759.02, 48257.79, 73144.36, -146606.36, -187441.98, -187500.02, 2517.97, 0.01, -0.00, 1.07
232, 2930.89, 53030.34, 48182.60, 71494.69, -146507.34, -187299.52, -187350.95, 2623.96, 0.01, -0.00, 1.07
233, 2685.70, 50069.85, 46590.89, 69522.44, -144776.27, -185608.09, -185449.63, 4375.87, 0.01, -0.00, 1.07
234, 3427.95, 55935.24, 46732.09, 71914.91, -145021.22, -185855.47, -185780.86, 4142.49, 0.01, -0.01, 1.07
235, 3560.50, 59121.12, 48085.86, 73321.48, -146608.03, -187368.30, -187476.41, 2559.48, 0.01, -0.01, 1.07
236, 2975.89, 54237.40, 48252.30, 71848.88, -146671.16, -187394.94, -187451.64, 2509.01, 0.01, -0.01, 1.07
237, 2664.95, 49815.96, 46786.96, 69645.80, -145233.98, -185970.84, -185975.50, 3967.86, 0.01, -0.01, 1.07
238, 3252.80, 54712.55, 46445.27, 71280.90, -144754.86, -185522.89, -185548.69, 4461.36, 0.01, -0.01, 1.07
239, 3668.88, 59146.91, 47872.27, 73426.87, -146572.03, -187257.95, -187500.02, 2645.19, 0.02, -0.00, 1.07
240, 3064.33, 55425.46, 48281.06, 72183.44, -146808.11, -187464.30, -187500.02, 2413.16, 0.02, -0.00, 1.07
241, 2713.05, 49984.73, 47047.27, 69951.03, -145682.61, -186331.59, -186334.02, 3555.11, 0.02, -0.00, 1.07
242, 3067.08, 53473.29, 46225.93, 70639.83, -144596.36, -185294.64, -185236.08, 4660.79, 0.02, -0.00, 1.07
243, 3703.28, 58990.68, 47585.27, 73369.84, -146442.05, -187059.44, -187242.84, 2816.97, 0.02, -0.00, 1.07
244, 3140.73, 56611.29, 48279.95, 72489.86, -146883.25, -187470.59, -187500.02, 2379.43, 0.02, -0.00, 1.07
245, 2772.62, 50459.48, 47360.68, 70349.45, -146112.61, -186664.98, -186680.31, 3163.46, 0.02, 0.00, 1.08
246, 2900.21, 52267.83, 46178.14, 70101.69, -144570.63, -185186.00, -185082.50, 4725.56, 0.02, 0.00, 1.08
247, 3707.13, 58472.56, 47384.64, 73176.30, -146237.17, -186789.59, -186906.31, 3064.71, 0.02, 0.00, 1.08
248, 3233.05, 57597.34, 48297.45, 72740.76, -146949.39, -187470.16, -187500.02, 2357.42, 0.02, 0.00, 1.08
249, 2817.50, 51224.14, 47708.10, 70761.10, -146500.50, -186978.45, -186998.28, 2816.34, 0.02, 0.00, 1.08
250, 2767.06, 51194.95, 46245.45, 69694.59, -144712.09, -185254.00, -185102.81, 4625.83, 0.02, -0.00, 1.07
251, 3650.84, 57706.93, 47197.59, 72814.36, -145976.36, -186469.47, -186506.80, 3367.42, 0.02, -0.00, 1.07
252, 3341.45, 58356.25, 48325.70, 72969.37, -147011.08, -187454.53, -187500.02, 2335.69, 0.02, -0.00, 1.07
253, 2868.38, 52228.22, 48071.20, 71182.50, -146791.55, -187186.16, -187211.98, 2563.43, 0.02, -0.00, 1.07
254, 2686.25, 50412.41, 46516.86, 69504.27, -144981.70, -185428.50, -185256.19, 4397.28, 0.02, -0.00, 1.07
255, 3528.20, 56699.96, 47017.07, 72308.13, -145680.97, -186108.86, -186069.48, 3707.84, 0.03, -0.01, 1.08
0, 3466.38, 58850.24, 48306.28, 73170.65, -147061.69, -187424.16, -187500.02, 2329.86, 0.03, -0.01, 1.08
1, 2925.93, 53371.25, 48334.13, 71560.47, -147013.13, -187335.38, -187365.25, 2388.19, 0.03, -0.01, 1.08
2, 2650.20, 49938.11, 46783.05, 69487.80, -145355.64, -185708.59, -185527.98, 4068.33, 0.03, -0.01, 1.08
3, 3360.34, 55552.40, 46786.27, 71675.16, -145379.42, -185743.08, -185623.56, 4059.28, 0.03, -0.01, 1.08
4, 3588.77, 59178.48, 48221.74, 73334.59, -147037.09, -187331.02, -187394.11, 2405.58, 0.02, -0.00, 1.08
5, 2995.87, 54630.19, 48528.90, 71925.14, -147134.58, -187398.69, -187437.78, 2319.82, 0.02, -0.00, 1.08
6, 2672.80, 49802.37, 47111.02, 69689.32, -145778.97, -186048.73, -186073.39, 3698.30, 0.02, -0.00, 1.08
7, 3187.31, 54318.78, 46624.35, 71040.30, -145120.42, -185426.75, -185461.61, 4373.59, 0.02, -0.00, 1.08
8, 3663.41, 59155.66, 48039.60, 73374.38, -146969.83, -187201.69, -187465.64, 2527.24, 0.02, -0.00, 1.08
9, 3057.83, 55798.67, 48518.46, 72227.91, -147261.47, -187464.41, -187500.02, 2238.93, 0.03, 0.00, 1.08
10, 2734.83, 50052.86, 47406.04, 70033.06, -146244.95, -186426.02, -186466.22, 3270.82, 0.03, 0.00, 1.08
11, 3033.78, 53062.01, 46502.31, 70452.12, -145012.77, -185250.22, -185206.17, 4522.07, 0.03, 0.00, 1.08
12, 3733.95, 58862.96, 47866.06, 73325.74, -146817.92, -186984.67, -187173.70, 2721.55, 0.03, 0.00, 1.08
13, 3171.02, 56917.78, 48609.63, 72538.36, -147323.00, -187469.30, -187500.02, 2218.14, 0.03, 0.00, 1.08
14, 2779.69, 50626.99, 47779.71, 70434.79, -146663.52, -186774.61, -186799.72, 2887.11, 0.03, 0.00, 1.08
15, 2867.82, 51887.18, 46469.88, 69944.33, -145033.48, -185207.05, -185095.59, 4538.16, 0.03, 0.00, 1.08
16, 3703.35, 58256.73, 47588.45, 73076.74, -146622.88, -186723.67, -186838.27, 2954.88, 0.03, 0.00, 1.08
17, 3274.71, 57848.53, 48566.52, 72806.29, -147418.38, -187475.73, -187500.02, 2165.06, 0.03, 0.00, 1.08
18, 2850.05, 51504.95, 48043.02, 70883.62, -147020.98, -187041.20, -187077.48, 2572.44, 0.03, 0.00, 1.08
19, 2768.46, 50932.27, 46520.53, 69625.88, -145204.33, -185287.27, -185136.19, 4410.42, 0.02, 0.00, 1.07
20, 3642.31, 57437.01, 47305.95, 72680.94, -146327.34, -186375.92, -186389.98, 3294.74, 0.02, 0.00, 1.07
21, 3402.09, 58569.75, 48470.45, 73047.40, -147460.11, -187464.44, -187500.02, 2164.41, 0.02, 0.00, 1.07
22, 2913.30, 52573.22, 48275.14, 71313.41, -147299.59, -187254.97, -187278.22, 2333.63, 0.02, 0.00, 1.07
23, 2711.00, 50201.23, 46658.17, 69499.87, -145515.47, -185520.28, -185335.94, 4139.39, 0.02, 0.00, 1.07
24, 3519.53, 56375.41, 47000.73, 72156.32, -146034.98, -186032.59, -185957.67, 3629.12, 0.02, -0.01, 1.07
25, 3530.21, 59026.66, 48337.81, 73258.66, -147501.06, -187426.92, -187500.02, 2168.14, 0.02, -0.01, 1.07
26, 2972.80, 53772.44, 48454.64, 71704.33, -147497.84, -187387.08, -187411.38, 2180.21, 0.02, -0.01, 1.07
27, 2685.03, 49845.13, 46921.94, 69559.38, -145919.89, -185839.97, -185647.30, 3777.80, 0.02, -0.01, 1.07
28, 3344.78, 55166.94, 46756.34, 71524.09, -145760.80, -185700.67, -185547.33, 3948.46, 0.02, -0.01, 1.07
29, 3633.12, 59184.02, 48164.30, 73377.82, -147487.95, -187346.45, -187424.56, 2222.34, 0.02, -0.01, 1.07
30, 3030.09, 54969.73, 48516.85, 72039.96, -147634.30, -187460.25, -187484.13, 2079.41, 0.02, -0.01, 1.07
31, 2707.27, 49852.41, 47245.20, 69802.39, -146367.88, -186203.66, -186019.75, 3361.34, 0.02, -0.01, 1.07
32, 3150.14, 53901.52, 46595.54, 70871.55, -145566.69, -185445.58, -185234.39, 4178.57, 0.02, -0.01, 1.07
33, 3704.94, 59086.16, 47971.56, 73394.48, -147417.28, -187205.13, -187240.83, 2329.97, 0.02, -0.01, 1.07
34, 3115.72, 56164.32, 48541.73, 72357.42, -147717.89, -187485.27, -187481.63, 2038.66, 0.02, -0.00, 1.07
35, 2763.75, 50179.51, 47524.64, 70173.19, -146818.80, -186563.17, -186545.06, 2959.55, 0.02, -0.00, 1.07
36, 3001.35, 52689.00, 46508.82, 70308.75, -145452.39, -185258.42, -185180.86, 4347.82, 0.02, -0.00, 1.07
37, 3742.64, 58730.28, 47776.25, 73290.98, -147217.92, -186944.42, -187106.20, 2585.72, 0.02, -0.00, 1.07
38, 3207.05, 57219.37, 48551.99, 72644.69, -147813.84, -187500.02, -187500.02, 1994.74, 0.02, -0.00, 1.07
39, 2800.05, 50865.82, 47825.11, 70580.70, -147238.02, -186898.95, -186916.59, 2582.72, 0.02, -0.00, 1.07
40, 2842.00, 51535.05, 46479.60, 69840.28, -145539.63, -185270.63, -185127.36, 4303.85, 0.02, -0.01, 1.06
41, 3704.20, 58061.92, 47488.61, 72995.30, -146987.41, -186658.00, -186727.22, 2859.86, 0.02, -0.01, 1.06
42, 3318.74, 58121.30, 48496.33, 72908.33, -147873.30, -187491.41, -187500.02, 1977.82, 0.02, -0.01, 1.06
43, 2869.49, 51818.00, 48084.28, 71035.95, -147564.53, -187138.19, -187171.42, 2296.98, 0.02, -0.01, 1.06
44, 2746.76, 50637.29, 46545.00, 69580.38, -145736.19, -185377.78, -185212.47, 4147.77, 0.02, -0.01, 1.06
45, 3620.56, 57140.36, 47214.32, 72562.21, -146697.64, -186308.27, -186301.56, 3196.17, 0.02, -0.00, 1.07
46, 3440.96, 58778.09, 48420.49, 73143.91, -147928.00, -187474.05, -187500.02, 1971.00, 0.02, -0.00, 1.07
47, 2916.19, 52941.29, 48312.42, 71440.71, -147830.88, -187332.02, -187366.73, 2075.67, 0.02, -0.00, 1.07
48, 2682.19, 50048.48, 46724.35, 69493.43, -146093.09, -185646.77, -185461.41, 3833.70, 0.02, -0.00, 1.07
49, 3465.95, 56020.00, 46942.75, 71981.63, -146400.53, -185951.75, -185858.48, 3537.81, 0.02, -0.00, 1.07
50, 3563.76, 59141.42, 48303.95, 73332.30, -147954.58, -187420.58, -187500.02, 1988.43, 0.02, -0.01, 1.07
51, 2988.56, 54156.82, 48485.45, 71834.80, -147996.48, -187425.61, -187458.42, 1952.00, 0.02, -0.01, 1.07
52, 2687.71, 49796.78, 46990.76, 69639.49, -146505.64, -185968.09, -185780.34, 3460.77, 0.02, -0.01, 1.07
53, 3290.87, 54782.02, 46692.52, 71341.31, -146134.69, -185623.78, -185461.78, 3844.32, 0.02, -0.01, 1.07
54, 3668.17, 59227.18, 48137.14, 73428.32, -147921.11, -187311.61, -187402.00, 2060.70, 0.02, -0.01, 1.07
55, 3056.06, 55368.91, 48565.27, 72165.27, -148121.97, -187482.02, -187500.02, 1865.36, 0.02, -0.01, 1.07
56, 2712.50, 49905.79, 47328.43, 69917.62, -146971.30, -186333.70, -186173.53, 3032.24, 0.02, -0.01, 1.07
57, 3100.10, 53507.86, 46563.49, 70699.91, -145966.52, -185382.61, -185170.05, 4055.55, 0.02, -0.01, 1.07
58, 3718.23, 59045.42, 47922.99, 73393.52, -147795.36, -187134.66, -187164.88, 2228.83, 0.02, -0.01, 1.07
59, 3122.87, 56505.90, 48590.23, 72445.71, -148203.03, -187500.02, -187500.02, 1826.54, 0.02, -0.01, 1.07
60, 2757.98, 50363.60, 47671.06, 70291.02, -147407.05, -186676.11, -186545.78, 2639.00, 0.03, 0.00, 1.08
61, 2922.67, 52275.88, 46473.66, 70134.70, -145926.63, -185266.20, -185020.73, 4138.96, 0.03, 0.00, 1.08
62, 3721.34, 58549.41, 47640.73, 73209.52, -147612.69, -186876.47, -186868.89, 2456.41, 0.03, 0.00, 1.08
63, 3227.32, 57541.52, 48542.54, 72731.95, -148276.94, -187500.02, -187500.02, 1795.69, 0.03, 0.00, 1.08
64, 2833.17, 51124.11, 47944.42, 70741.48, -147787.63, -186981.02, -186877.94, 2293.85, 0.03, 0.00, 1.08
65, 2808.23, 51219.49, 46509.42, 69750.09, -146018.42, -185283.30, -185012.13, 4083.98, 0.03, -0.01, 1.08
66, 3682.92, 57810.19, 47418.64, 72884.81, -147342.19, -186554.72, -186480.31, 2766.99, 0.03, -0.01, 1.08
67, 3322.63, 58333.56, 48460.43, 72963.78, -148345.11, -187500.02, -187500.02, 1768.89, 0.03, -0.01, 1.08
68, 2876.98, 52120.55, 48175.05, 71175.46, -148105.63, -187217.36, -187148.06, 2016.60, 0.03, -0.01, 1.08
69, 2713.48, 50392.48, 46602.89, 69536.30, -146280.16, -185457.09, -185181.22, 3861.55, 0.03, -0.01, 1.08
70, 3567.09, 56803.63, 47137.41, 72392.85, -147037.06, -186195.92, -186053.03, 3113.35, 0.03, -0.00, 1.08
71, 3469.44, 58915.04, 48390.96, 73208.76, -148374.78, -187463.92, -187473.33, 1781.79, 0.03, -0.00, 1.08
72, 2936.21, 53283.79, 48359.05, 71573.10, -148320.94, -187365.25, -187360.61, 1850.75, 0.03, -0.00, 1.08
73, 2678.50, 49899.11, 46823.68, 69528.66, -146634.95, -185728.73, -185659.42, 3560.25, 0.03, -0.00, 1.08
74, 3413.98, 55646.12, 46908.78, 71796.95, -146723.78, -185825.33, -185836.78, 3484.23, 0.03, -0.00, 1.08
75, 3593.91, 59240.01, 48270.29, 73380.26, -148351.19, -187373.02, -187500.02, 1860.27, 0.02, -0.00, 1.08
76, 3018.04, 54540.33, 48521.90, 71961.82, -148456.64, -187444.45, -187500.02, 1760.00, 0.02, -0.00, 1.08
77, 2694.97, 49783.10, 47098.88, 69718.60, -147070.00, -186074.00, -186010.23, 3164.20, 0.02, -0.00, 1.08
78, 3225.94, 54384.83, 46659.89, 71142.88, -146489.63, -185533.33, -185456.89, 3760.35, 0.02, -0.00, 1.08
79, 3680.73, 59240.52, 48082.04, 73434.71, -148302.02, -187261.64, -187424.27, 1950.44, 0.02, -0.00, 1.08
80, 3063.95, 55746.46, 48568.26, 72259.81, -148568.94, -187493.72, -187500.02, 1688.81, 0.02, -0.01, 1.08
81, 2719.85, 49981.76, 47412.88, 70029.24, -147525.39, -186443.41, -186375.09, 2750.00, 0.02, -0.01, 1.08
82, 3046.48, 53103.34, 46500.66, 70537.95, -146348.28, -185323.52, -185180.48, 3947.72, 0.02, -0.01, 1.08
83, 3729.88, 58954.67, 47854.82, 73375.43, -148172.81, -187063.33, -187170.86, 2126.39, 0.02, -0.01, 1.08
84, 3165.81, 56875.20, 48604.96, 72563.62, -148640.80, -187498.08, -187500.02, 1662.68, 0.02, -0.01, 1.08
85, 2787.20, 50556.34, 47748.09, 70441.27, -147944.50, -186777.00, -186724.50, 2372.79, 0.02, -0.01, 1.08
86, 2887.29, 51919.57, 46465.34, 70018.31, -146351.59, -185255.88, -185068.44, 3989.32, 0.02, -0.01, 1.08
87, 3722.82, 58361.43, 47594.71, 73147.35, -147956.25, -186791.48, -186831.31, 2390.70, 0.02, -0.01, 1.08
88, 3261.66, 57806.13, 48529.75, 72816.26, -148718.64, -187500.02, -187500.02, 1632.97, 0.02, -0.01, 1.08
89, 2840.39, 51412.77, 48017.16, 70874.61, -148312.98, -187055.63, -187031.92, 2049.99, 0.02, -0.01, 1.08
90, 2771.24, 50949.59, 46536.15, 69674.59, -146498.67, -185313.70, -185102.05, 3889.34, 0.02, -0.01, 1.08
91, 3656.39, 57542.22, 47359.37, 72761.50, -147666.73, -186439.30, -186405.42, 2731.67, 0.02, -0.01, 1.07
92, 3397.26, 58574.11, 48500.82, 73067.52, -148755.56, -187471.20, -187500.02, 1649.13, 0.02, -0.01, 1.07
93, 2909.66, 52454.00, 48271.63, 71305.51, -148599.84, -187261.97, -187253.44, 1813.64, 0.02, -0.01, 1.07
94, 2707.22, 50211.36, 46665.97, 69524.36, -146799.13, -185522.95, -185303.91, 3636.38, 0.02, -0.01, 1.07
95, 3538.48, 56479.93, 47052.10, 72237.57, -147372.84, -186082.16, -185986.53, 3072.81, 0.02, -0.01, 1.07
96, 3516.98, 59062.43, 48368.04, 73264.14, -148786.03, -187429.25, -187500.02, 1664.74, 0.02, -0.01, 1.07
97, 2959.68, 53668.35, 48424.79, 71689.15, -148781.44, -187383.73, -187389.38, 1676.69, 0.02, -0.01, 1.07
98, 2679.71, 49813.57, 46898.00, 69566.47, -147181.36, -185817.00, -185608.59, 3296.75, 0.02, -0.01, 1.07
99, 3374.06, 55297.75, 46821.85, 71616.75, -147062.98, -185719.47, -185558.19, 3429.20, 0.02, -0.01, 1.07
100, 3635.65, 59282.70, 48217.09, 73407.10, -148776.53, -187352.00, -187418.39, 1720.21, 0.02, -0.01, 1.07
101, 3041.38, 54911.55, 48528.12, 72055.30, -148914.58, -187454.83, -187461.06, 1588.45, 0.02, -0.00, 1.07
102, 2712.99, 49798.63, 47178.92, 69801.79, -147611.00, -186162.22, -185961.66, 2908.92, 0.02, -0.00, 1.07
103, 3192.86, 54014.08, 46580.05, 70971.75, -146842.94, -185440.70, -185217.86, 3692.42, 0.02, -0.00, 1.07
104, 3724.54, 59218.55, 48005.04, 73443.25, -148668.52, -187192.03, -187193.75, 1869.43, 0.02, -0.00, 1.07
105, 3110.54, 56112.51, 48602.28, 72355.86, -148985.75, -187479.05, -187480.34, 1559.39, 0.02, -0.00, 1.07
106, 2739.85, 50128.50, 47498.55, 70133.73, -148046.94, -186529.48, -186544.66, 2516.23, 0.02, 0.00, 1.06
107, 3025.02, 52780.02, 46513.71, 70399.25, -146724.92, -185271.61, -185228.97, 3857.64, 0.02, 0.00, 1.06
108, 3766.25, 58845.41, 47817.84, 73348.99, -148498.66, -186969.59, -187165.70, 2085.98, 0.02, 0.00, 1.06
109, 3207.79, 57190.11, 48572.98, 72647.21, -149056.36, -187491.33, -187500.02, 1531.54, 0.02, 0.00, 1.06
110, 2810.55, 50769.04, 47799.76, 70569.22, -148463.91, -186860.31, -186916.36, 2136.09, 0.02, 0.00, 1.06
111, 2869.81, 51615.12, 46496.39, 69922.55, -146771.09, -185241.44, -185142.36, 3849.51, 0.02, 0.00, 1.07
112, 3723.53, 58165.94, 47561.98, 73068.32, -148264.95, -186677.98, -186789.30, 2360.77, 0.02, 0.00, 1.07
113, 3302.16, 58064.64, 48532.86, 72897.15, -149131.38, -187493.00, -187500.02, 1499.89, 0.02, 0.00, 1.07
114, 2865.67, 51693.37, 48107.01, 71002.77, -148804.78, -187116.97, -187189.06, 1836.89, 0.02, 0.00, 1.07
115, 2764.71, 50699.88, 46580.43, 69624.03, -146960.84, -185344.61, -185215.09, 3704.00, 0.02, 0.00, 1.07
116, 3645.75, 57256.27, 47263.61, 72643.03, -147976.30, -186325.97, -186360.69, 2698.21, 0.02, 0.00, 1.07
117, 3450.19, 58750.44, 48457.02, 73152.63, -149159.64, -187451.61, -187500.02, 1519.90, 0.02, 0.00, 1.07
118, 2939.79, 52831.65, 48337.68, 71442.25, -149042.23, -187288.81, -187350.61, 1646.05, 0.02, 0.00, 1.07
119, 2709.72, 50082.73, 46747.58, 69538.58, -147280.63, -185579.63, -185428.09, 3431.17, 0.02, 0.00, 1.07
120, 3501.09, 56167.94, 46988.13, 72081.13, -147664.67, -185963.73, -185908.75, 3060.65, 0.02, 0.00, 1.07
121, 3564.79, 59181.63, 48333.25, 73332.34, -149172.55, -187398.94, -187500.02, 1556.98, 0.02, -0.00, 1.08
122, 2989.37, 54040.28, 48489.76, 71806.97, -149212.64, -187403.52, -187463.09, 1524.86, 0.02, -0.00, 1.08
123, 2694.10, 49788.84, 46993.42, 69635.98, -147682.58, -185906.50, -185746.77, 3073.79, 0.02, -0.00, 1.08
124, 3336.78, 54947.76, 46765.57, 71465.01, -147371.33, -185620.97, -185488.42, 3401.33, 0.02, -0.00, 1.08
125, 3691.52, 59298.95, 48171.07, 73466.85, -149139.16, -187306.86, -187411.59, 1638.54, 0.02, -0.00, 1.08
126, 3076.11, 55284.33, 48570.05, 72158.31, -149329.56, -187467.56, -187500.02, 1453.33, 0.02, 0.00, 1.08
127, 2721.97, 49881.31, 47300.09, 69899.42, -148134.81, -186272.25, -186128.69, 2666.21, 0.02, 0.00, 1.08
128, 3144.42, 53661.26, 46597.48, 70816.23, -147202.27, -185391.05, -185204.16, 3619.24, 0.02, 0.00, 1.08
129, 3758.02, 59130.96, 47988.01, 73451.30, -149040.52, -187145.31, -187194.95, 1786.55, 0.02, 0.00, 1.08
130, 3153.14, 56444.28, 48592.15, 72454.67, -149408.91, -187482.67, -187500.02, 1427.96, 0.02, 0.00, 1.08
131, 2786.35, 50319.77, 47625.87, 70289.71, -148571.22, -186624.39, -186645.47, 2285.26, 0.02, -0.01, 1.08
132, 2985.84, 52449.95, 46527.23, 70273.48, -147133.69, -185252.92, -185194.86, 3746.00, 0.02, -0.01, 1.08
133, 3766.09, 58655.87, 47732.89, 73299.84, -148875.80, -186908.77, -187097.86, 2009.71, 0.02, -0.01, 1.08
134, 3255.67, 57454.80, 48581.31, 72732.09, -149486.20, -187488.38, -187500.02, 1404.07, 0.02, -0.01, 1.08
135, 2843.39, 51047.38, 47907.21, 70711.75, -148968.84, -186941.06, -186995.97, 1933.16, 0.02, -0.01, 1.08
136, 2840.48, 51368.31, 46509.38, 69831.88, -147218.42, -185261.63, -185148.13, 3707.75, 0.02, -0.01, 1.08
137, 3724.56, 57955.01, 47476.24, 72973.84, -148598.34, -186582.92, -186678.03, 2335.67, 0.02, -0.01, 1.08
138, 3359.51, 58319.86, 48498.79, 72974.11, -149548.59, -187477.00, -187500.02, 1391.51, 0.02, -0.01, 1.08
139, 2898.22, 52040.76, 48170.27, 71142.54, -149274.25, -187159.89, -187225.58, 1676.05, 0.02, -0.01, 1.08
140, 2759.64, 50497.15, 46624.71, 69603.13, -147453.73, -185405.72, -185268.94, 3519.22, 0.02, -0.01, 1.08
141, 3632.23, 56997.15, 47200.91, 72519.25, -148293.72, -186221.36, -186234.53, 2687.80, 0.02, -0.01, 1.08
142, 3502.32, 58938.82, 48453.68, 73224.34, -149594.16, -187455.11, -187500.02, 1391.40, 0.02, -0.01, 1.07
143, 2966.88, 53212.21, 48397.76, 71554.55, -149515.06, -187328.05, -187404.75, 1478.88, 0.02, -0.01, 1.07
144, 2708.79, 49985.96, 46845.45, 69552.91, -147799.92, -185661.98, -185516.86, 3214.25, 0.02, -0.01, 1.07
145, 3471.81, 55833.38, 46951.04, 71937.21, -147995.81, -185859.83, -185798.11, 3029.62, 0.02, -0.01, 1.07
146, 3613.03, 59190.82, 48255.13, 73391.26, -149629.52, -187402.78, -187500.02, 1400.29, 0.02, -0.01, 1.07
147, 3028.82, 54402.40, 48480.21, 71916.67, -149688.33, -187430.88, -187500.02, 1346.76, 0.02, -0.01, 1.07
148, 2718.15, 49810.44, 47141.86, 69709.01, -148230.66, -186000.53, -185863.78, 2822.20, 0.02, -0.01, 1.07
149, 3287.41, 54584.37, 46769.14, 71280.65, -147744.89, -185549.69, -185422.44, 3323.46, 0.02, -0.01, 1.07
150, 3719.55, 59287.66, 48152.61, 73479.73, -149555.55, -187271.27, -187391.92, 1515.65, 0.02, -0.01, 1.07
151, 3103.83, 55650.90, 48597.79, 72248.91, -149779.53, -187463.11, -187500.02, 1298.41, 0.02, -0.01, 1.07
152, 2748.24, 49983.28, 47402.48, 70001.17, -148673.66, -186354.88, -186241.20, 2421.39, 0.01, -0.01, 1.07
153, 3091.83, 53323.26, 46552.85, 70635.84, -147568.72, -185305.83, -185129.55, 3546.04, 0.01, -0.01, 1.07
154, 3760.99, 59022.64, 47891.74, 73419.58, -149425.09, -187079.31, -187150.91, 1697.66, 0.01, -0.01, 1.07
155, 3180.23, 56771.93, 48557.15, 72532.86, -149871.44, -187490.41, -187500.02, 1258.47, 0.01, -0.01, 1.07
156, 2796.90, 50513.62, 47657.83, 70394.16, -149116.58, -186709.72, -186621.61, 2027.37, 0.01, -0.01, 1.07
157, 2922.74, 52115.77, 46491.87, 70099.00, -147567.73, -185231.73, -185011.33, 3597.69, 0.02, -0.00, 1.07
158, 3758.07, 58483.32, 47693.55, 73220.65, -149226.23, -186819.52, -186830.41, 1943.69, 0.02, -0.00, 1.07
159, 3296.50, 57731.89, 48582.72, 72819.74, -149942.72, -187497.42, -187500.02, 1230.89, 0.02, -0.00, 1.07
160, 2862.43, 51322.64, 47969.95, 70835.94, -149496.67, -187012.55, -186939.61, 1686.73, 0.02, -0.00, 1.07
161, 2809.73, 51099.39, 46484.27, 69740.26, -147695.88, -185282.13, -185033.59, 3509.96, 0.02, -0.00, 1.07
162, 3698.43, 57675.05, 47327.65, 72866.75, -148956.42, -186488.28, -186436.03, 2258.84, 0.02, -0.00, 1.07
163, 3394.81, 58472.92, 48429.93, 73055.73, -150023.23, -187489.72, -187500.02, 1200.09, 0.02, -0.00, 1.07
164, 2907.54, 52340.59, 48181.31, 71256.33, -149798.03, -187224.44, -187182.67, 1435.36, 0.02, -0.00, 1.07
165, 2732.37, 50350.59, 46621.25, 69562.96, -147959.69, -185453.11, -185203.17, 3296.93, 0.02, -0.00, 1.07
166, 3577.64, 56672.96, 47081.18, 72357.71, -148633.73, -186112.98, -185993.39, 2634.73, 0.02, -0.00, 1.07
167, 3536.67, 59017.97, 48365.35, 73288.33, -150025.63, -187436.63, -187481.78, 1249.37, 0.02, -0.00, 1.07
168, 2986.48, 53541.79, 48386.32, 71677.33, -149996.31, -187366.22, -187357.30, 1294.12, 0.02, -0.00, 1.07
169, 2691.15, 49900.31, 46864.83, 69567.41, -148351.34, -185765.92, -185676.03, 2966.48, 0.02, -0.00, 1.07
170, 3391.52, 55481.77, 46852.05, 71723.02, -148355.66, -185781.91, -185762.75, 2977.95, 0.02, -0.00, 1.07
171, 3623.20, 59253.33, 48228.56, 73414.50, -150036.34, -187375.47, -187500.02, 1299.84, 0.02, -0.00, 1.07
172, 3026.67, 54740.00, 48499.42, 72004.04, -150147.25, -187448.06, -187500.02, 1194.52, 0.02, -0.00, 1.08
173, 2704.11, 49825.08, 47158.80, 69768.91, -148786.69, -186102.94, -186032.58, 2575.32, 0.02, -0.00, 1.08
174, 3209.35, 54232.50, 46647.17, 71081.20, -148106.08, -185464.86, -185377.81, 3276.03, 0.02, -0.00, 1.08
175, 3724.45, 59199.18, 48065.41, 73481.76, -149950.06, -187217.02, -187380.02, 1437.91, 0.02, -0.00, 1.08
176, 3108.99, 55900.68, 48595.51, 72327.00, -150265.98, -187488.73, -187500.02, 1129.55, 0.02, -0.00, 1.08
177, 2746.22, 50095.24, 47500.18, 70099.29, -149256.66, -186476.55, -186422.13, 2154.60, 0.02, -0.00, 1.08
178, 3032.55, 52985.46, 46555.80, 70471.20, -147994.52, -185280.05, -185137.73, 3435.71, 0.02, -0.00, 1.08
179, 3734.60, 58866.02, 47860.56, 73367.37, -149822.73, -187025.80, -187133.36, 1610.64, 0.02, -0.00, 1.08
180, 3178.69, 57004.68, 48598.48, 72606.89, -150334.92, -187500.02, -187500.02, 1102.08, 0.02, -0.00, 1.08
181, 2802.08, 50685.69, 47787.04, 70518.41, -149665.11, -186803.00, -186758.67, 1785.19, 0.02, -0.00, 1.08
182, 2883.02, 51821.47, 46490.02, 69986.70, -148026.13, -185235.63, -185048.66, 3445.59, 0.02, 0.00, 1.07
183, 3725.01, 58272.96, 47578.30, 73129.43, -149585.47, -186726.64, -186764.73, 1892.16, 0.02, 0.00, 1.07
184, 3290.49, 57912.94, 48492.06, 72870.59, -150405.48, -187493.72, -187500.02, 1076.53, 0.02, 0.00, 1.07
185, 2850.70, 51558.39, 48030.79, 70943.83, -150029.27, -187069.67, -187066.58, 1462.27, 0.02, 0.00, 1.07
186, 2760.35, 50856.52, 46572.52, 69652.64, -148192.86, -185311.28, -185109.67, 3319.93, 0.02, 0.00, 1.07
187, 3647.72, 57400.64, 47347.50, 72724.33, -149296.80, -186379.33, -186347.88, 2223.89, 0.03, -0.00, 1.07
188, 3427.01, 58634.05, 48480.84, 73130.08, -150441.41, -187466.88, -187500.02, 1083.12, 0.03, -0.00, 1.07
189, 2931.86, 52654.76, 48280.01, 71389.86, -150299.86, -187275.45, -187273.17, 1234.08, 0.03, -0.00, 1.07
190, 2689.43, 50187.78, 46691.25, 69515.91, -148506.53, -185542.73, -185325.44, 3049.40, 0.03, -0.00, 1.07
191, 3499.75, 56340.54, 47021.90, 72160.30, -148988.72, -186016.63, -185911.45, 2577.16, 0.03, -0.00, 1.07
192, 3538.73, 59092.67, 48334.57, 73321.70, -150475.58, -187424.94, -187500.02, 1091.95, 0.03, -0.00, 1.07
193, 2990.51, 53851.90, 48405.43, 71779.98, -150480.70, -187387.05, -187401.83, 1093.51, 0.03, -0.01, 1.08
194, 2687.93, 49856.52, 46835.40, 69611.65, -148906.36, -185848.64, -185644.27, 2686.75, 0.03, -0.01, 1.08
195, 3315.95, 55135.18, 46605.98, 71526.61, -148705.61, -185675.94, -185505.08, 2900.32, 0.03, -0.01, 1.08
196, 3623.06, 59246.40, 47928.71, 73431.71, -150449.16, -187339.33, -187401.88, 1159.36, 0.03, -0.01, 1.08
197, 3035.50, 55051.32, 48171.81, 72105.30, -150622.14, -187470.88, -187489.06, 994.23, 0.03, -0.01, 1.08
198, 2707.27, 49856.21, 46750.46, 69847.26, -149370.33, -186230.33, -186042.02, 2264.77, 0.02, 0.00, 1.07
199, 3144.80, 53876.17, 46054.41, 70894.73, -148513.09, -185422.33, -185200.77, 3139.66, 0.02, 0.00, 1.07
200, 3716.76, 59117.34, 47493.59, 73452.59, -150370.38, -187189.80, -187223.39, 1286.05, 0.02, 0.00, 1.07
201, 3124.59, 56242.04, 48271.63, 72413.15, -150711.23, -187491.08, -187500.02, 951.38, 0.02, 0.00, 1.07
202, 2760.13, 50254.97, 47454.34, 70222.95, -149810.45, -186577.66, -186425.72, 1866.57, 0.02, 0.00, 1.07
203, 2976.94, 52668.38, 46502.36, 70317.70, -148426.47, -185260.95, -185007.23, 3271.33, 0.02, 0.00, 1.07
204, 3736.00, 58715.04, 47828.80, 73313.56, -150191.25, -186940.17, -186934.78, 1511.56, 0.02, 0.00, 1.07
205, 3212.59, 57269.59, 48669.98, 72686.84, -150786.03, -187494.45, -187500.02, 924.47, 0.02, 0.00, 1.07
206, 2821.33, 50908.20, 47958.68, 70643.05, -150213.80, -186887.48, -186870.45, 1515.02, 0.02, 0.00, 1.07
207, 2831.47, 51545.76, 46562.46, 69858.25, -148492.33, -185244.45, -185148.70, 3260.18, 0.02, 0.00, 1.07
208, 3689.07, 58031.21, 47535.92, 73003.77, -149931.31, -186630.52, -186742.61, 1827.17, 0.02, 0.01, 1.08
209, 3323.46, 58148.46, 48530.20, 72949.74, -150843.47, -187494.09, -187500.02, 920.24, 0.02, 0.01, 1.08
210, 2869.38, 51846.90, 48090.67, 71076.11, -150550.27, -187154.03, -187225.45, 1222.17, 0.02, 0.01, 1.08
211, 2724.36, 50648.16, 46540.87, 69590.77, -148710.64, -185389.09, -185250.06, 3084.05, 0.02, 0.01, 1.08
212, 3594.99, 57114.88, 47208.54, 72568.83, -149646.11, -186292.59, -186309.89, 2159.36, 0.02, 0.01, 1.08
213, 3444.65, 58772.08, 48421.72, 73179.48, -150896.98, -187472.23, -187500.02, 912.47, 0.02, 0.00, 1.07
214, 2923.79, 52961.72, 48325.77, 71488.68, -150795.19, -187324.42, -187397.63, 1021.50, 0.02, 0.00, 1.07
215, 2668.82, 50059.48, 46749.12, 69524.54, -149057.83, -185642.55, -185494.44, 2779.91, 0.02, 0.00, 1.07
216, 3430.84, 55991.72, 46933.92, 71980.02, -149357.19, -185943.03, -185887.53, 2491.97, 0.02, 0.00, 1.07
217, 3549.66, 59139.25, 48256.21, 73356.88, -150906.64, -187416.80, -187500.02, 945.32, 0.02, 0.00, 1.07
218, 2981.16, 54151.28, 48430.60, 71868.30, -150985.78, -187450.17, -187500.02, 872.41, 0.02, 0.00, 1.07
219, 2662.61, 49820.50, 46986.18, 69650.98, -149500.17, -185992.97, -185852.02, 2378.00, 0.02, 0.00, 1.07
220, 3257.90, 54784.84, 46676.25, 71339.30, -149084.50, -185609.48, -185482.59, 2810.58, 0.02, 0.00, 1.07
221, 3643.94, 59220.92, 48056.43, 73442.27, -150879.80, -187314.20, -187433.56, 1019.82, 0.02, 0.00, 1.07
222, 3041.58, 55385.99, 48491.37, 72188.27, -151093.16, -187488.80, -187500.02, 813.13, 0.02, 0.00, 1.07
223, 2702.01, 49930.51, 47286.66, 69944.26, -149934.02, -186334.73, -186212.48, 1989.95, 0.02, 0.00, 1.07
224, 3081.59, 53525.12, 46540.64, 70720.76, -148895.41, -185350.98, -185175.20, 3046.97, 0.02, 0.00, 1.07
225, 3703.21, 59007.29, 47882.89, 73422.44, -150762.42, -187122.98, -187209.67, 1182.38, 0.02, 0.00, 1.07
226, 3114.63, 56512.11, 48514.23, 72481.83, -151182.55, -187500.02, -187500.02, 768.27, 0.02, 0.00, 1.07
227, 2741.24, 50379.36, 47571.62, 70313.76, -150385.59, -186688.73, -186604.94, 1579.60, 0.02, 0.00, 1.07
228, 2894.08, 52296.51, 46416.64, 70145.36, -148886.31, -185261.09, -185052.67, 3100.39, 0.02, -0.00, 1.07
229, 3683.48, 58482.93, 47612.23, 73208.22, -150584.23, -186874.14, -186915.11, 1408.00, 0.02, -0.00, 1.07
230, 3186.98, 57450.11, 48449.10, 72708.97, -151279.70, -187500.02, -187500.02, 717.85, 0.02, -0.00, 1.07
231, 2785.41, 51125.66, 47853.65, 70723.17, -150778.83, -186978.13, -186937.02, 1228.25, 0.02, -0.00, 1.07
232, 2749.71, 51271.01, 46453.11, 69725.57, -148977.28, -185259.16, -185042.23, 3048.20, 0.02, -0.00, 1.07
233, 3614.57, 57745.84, 47362.03, 72853.30, -150304.23, -186529.86, -186517.45, 1725.80, 0.03, -0.00, 1.08
234, 3274.93, 58270.28, 48415.46, 72937.00, -151315.36, -187482.00, -187500.02, 719.35, 0.03, -0.00, 1.08
235, 2802.55, 52043.55, 48107.55, 71113.80, -151086.23, -187208.58, -187197.73, 957.17, 0.03, -0.00, 1.08
236, 2626.96, 50385.99, 46547.91, 69468.77, -149261.08, -185452.44, -185231.58, 2803.20, 0.03, -0.00, 1.08
237, 3457.79, 56753.80, 47089.65, 72309.74, -150014.59, -186184.06, -186103.48, 2060.29, 0.03, -0.00, 1.08
238, 3375.87, 58811.15, 48312.85, 73129.14, -151361.19, -187458.00, -187500.02, 719.99, 0.02, -0.01, 1.07
239, 2856.66, 53224.73, 48277.98, 71510.20, -151303.53, -187357.61, -187352.19, 785.10, 0.02, -0.01, 1.07
240, 2590.88, 49918.42, 46724.71, 69452.05, -149594.91, -185699.53, -185473.41, 2513.88, 0.02, -0.01, 1.07
241, 3300.73, 55584.85, 46785.51, 71704.91, -149711.44, -185827.45, -185674.97, 2408.24, 0.02, -0.01, 1.07
242, 3503.26, 59095.51, 48174.45, 73291.88, -151364.91, -187397.88, -187469.95, 756.92, 0.02, -0.01, 1.07
243, 2929.71, 54445.70, 48403.55, 71878.27, -151456.84, -187448.73, -187456.39, 673.55, 0.02, -0.01, 1.07
244, 2610.66, 49767.30, 47007.35, 69642.63, -150055.84, -186071.53, -185863.00, 2095.90, 0.01, -0.01, 1.08
245, 3124.66, 54366.48, 46561.14, 71060.02, -149454.02, -185507.77, -185300.00, 2712.97, 0.01, -0.01, 1.08
246, 3593.78, 59098.73, 47936.13, 73363.02, -151297.55, -187253.30, -187306.50, 871.45, 0.01, -0.01, 1.08
247, 3000.59, 55630.03, 48406.97, 72201.34, -151584.70, -187498.89, -187500.02, 591.05, 0.01, -0.01, 1.08
248, 2645.69, 49965.65, 47245.33, 69960.45, -150535.55, -186442.28, -186279.25, 1657.78, 0.01, -0.01, 1.08
249, 2943.48, 53129.34, 46369.99, 70460.72, -149344.27, -185314.78, -185070.67, 2868.38, 0.01, -0.01, 1.07
250, 3623.44, 58822.68, 47699.65, 73295.26, -151174.63, -187058.17, -187069.88, 1041.55, 0.01, -0.01, 1.07
251, 3075.76, 56744.62, 48387.64, 72493.23, -151659.00, -187500.02, -187500.02, 561.27, 0.01, -0.01, 1.07
252, 2702.62, 50509.42, 47545.15, 70381.30, -150965.08, -186782.17, -186652.48, 1266.81, 0.01, -0.01, 1.07
253, 2804.32, 51976.21, 46291.55, 69973.09, -149338.44, -185232.83, -184965.42, 2916.84, 0.01, -0.01, 1.07
254, 3639.82, 58287.83, 47399.55, 73106.25, -150947.25, -186774.81, -186735.78, 1313.14, 0.02, -0.00, 1.07
255, 3183.87, 57692.02, 48285.09, 72769.61, -151730.20, -187500.02, -187500.02, 532.95, 0.02, -0.00, 1.07
0, 2749.91, 51342.20, 47749.02, 70824.83, -151332.80, -187062.59, -186982.30, 939.49, 0.02, -0.00, 1.07
1, 2686.72, 50991.68, 46255.23, 69644.70, -149508.63, -185314.81, -185047.06, 2784.51, 0.02, -0.00, 1.07
2, 3584.15, 57488.26, 47087.64, 72747.82, -150673.91, -186436.39, -186354.05, 1623.94, 0.02, -0.00, 1.07
3, 3335.95, 58440.64, 48203.95, 73051.04, -151782.84, -187486.22, -187500.02, 516.68, 0.02, -0.00, 1.07
4, 2847.86, 52418.64, 47949.30, 71294.24, -151610.63, -187271.45, -187217.69, 696.55, 0.02, -0.00, 1.07
5, 2643.74, 50302.89, 46396.63, 69519.16, -149790.66, -185518.95, -185251.75, 2539.18, 0.02, -0.00, 1.07
6, 3453.84, 56485.52, 46791.61, 72229.84, -150376.47, -186089.86, -185949.25, 1965.08, 0.02, -0.00, 1.07
7, 3467.18, 58965.82, 48059.09, 73274.67, -151809.41, -187446.17, -187500.02, 537.18, 0.02, -0.00, 1.07
8, 2934.81, 53594.79, 48098.72, 71717.94, -151816.44, -187408.39, -187388.95, 537.29, 0.02, 0.00, 1.07
9, 2660.28, 49891.55, 46610.58, 69601.52, -150194.06, -185830.81, -185589.75, 2177.91, 0.02, 0.00, 1.07
10, 3332.15, 55341.29, 46564.05, 71652.07, -150078.48, -185733.20, -185545.78, 2303.62, 0.02, 0.00, 1.07
11, 3605.09, 59193.74, 47948.54, 73441.70, -151801.27, -187361.08, -187423.64, 581.88, 0.02, 0.00, 1.07
12, 3001.97, 54840.43, 48275.81, 72070.45, -151945.67, -187467.97, -187481.33, 443.48, 0.02, 0.00, 1.07
13, 2700.40, 49852.37, 46991.21, 69846.38, -150631.80, -186171.56, -185973.41, 1774.57, 0.02, 0.00, 1.07
14, 3171.06, 54119.85, 46451.95, 71029.84, -149848.58, -185439.09, -185217.98, 2572.66, 0.02, 0.00, 1.07
15, 3708.51, 59152.53, 47850.81, 73501.79, -151706.97, -187209.47, -187243.73, 713.94, 0.02, 0.00, 1.07
16, 3107.70, 56043.27, 48387.34, 72409.21, -152029.14, -187495.20, -187500.02, 393.86, 0.02, 0.00, 1.07
17, 2747.50, 50175.84, 47383.17, 70202.11, -151075.34, -186537.69, -186373.88, 1357.94, 0.02, 0.00, 1.07
18, 2998.49, 52884.20, 46434.16, 70449.30, -149749.73, -185283.14, -185025.05, 2700.22, 0.03, -0.01, 1.07
19, 3748.86, 58801.94, 47736.17, 73409.54, -151534.83, -186990.58, -186980.41, 916.60, 0.03, -0.01, 1.07
20, 3210.74, 57119.01, 48495.55, 72704.79, -152098.16, -187500.02, -187500.02, 356.64, 0.03, -0.01, 1.07
21, 2815.25, 50815.75, 47750.10, 70627.51, -151483.73, -186870.69, -186747.77, 980.28, 0.03, -0.01, 1.07
22, 2872.60, 51786.82, 46465.23, 69998.24, -149781.00, -185248.09, -184970.98, 2700.45, 0.03, -0.01, 1.07
23, 3724.05, 58160.11, 47524.32, 73143.20, -151299.42, -186699.52, -186646.41, 1184.49, 0.03, -0.01, 1.08
24, 3324.84, 58010.87, 48499.46, 72965.28, -152146.67, -187499.81, -187500.02, 342.09, 0.03, -0.01, 1.08
25, 2897.32, 51720.71, 48080.68, 71086.39, -151803.45, -187125.38, -187087.69, 698.58, 0.03, -0.01, 1.08
26, 2780.20, 50866.22, 46569.28, 69705.52, -149971.69, -185366.47, -185241.48, 2552.64, 0.03, -0.01, 1.08
27, 3649.24, 57316.33, 47272.75, 72724.70, -150991.11, -186346.67, -186398.45, 1539.90, 0.03, -0.01, 1.08
28, 3458.33, 58677.64, 48428.03, 73209.34, -152197.73, -187477.73, -187500.02, 337.42, 0.03, -0.01, 1.08
29, 2963.91, 52804.56, 48271.68, 71509.51, -152060.75, -187301.67, -187398.41, 479.87, 0.03, -0.01, 1.08
30, 2740.97, 50222.89, 46710.59, 69619.16, -150284.50, -185586.58, -185459.33, 2273.19, 0.03, -0.01, 1.08
31, 3523.82, 56267.00, 46997.36, 72175.26, -150672.72, -185973.97, -185944.20, 1895.52, 0.03, -0.01, 1.08
32, 3592.86, 59114.86, 48289.47, 73418.39, -152206.14, -187418.81, -187500.02, 364.42, 0.03, -0.01, 1.08
33, 3028.19, 54014.53, 48427.94, 71891.55, -152233.50, -187406.56, -187500.02, 341.51, 0.03, -0.00, 1.08
34, 2722.06, 49915.71, 46968.01, 69711.13, -150697.69, -185904.02, -185787.53, 1896.08, 0.03, -0.00, 1.08
35, 3345.90, 55065.60, 46776.45, 71545.61, -150399.50, -185635.41, -185544.11, 2208.35, 0.03, -0.00, 1.08
36, 3695.06, 59267.62, 48147.02, 73532.48, -152179.03, -187318.81, -187475.56, 432.26, 0.03, -0.00, 1.08
37, 3087.25, 55245.29, 48502.64, 72224.34, -152350.94, -187458.48, -187500.02, 267.06, 0.03, -0.00, 1.08
38, 2759.01, 49954.34, 47272.20, 69986.87, -151154.81, -186271.92, -186169.89, 1477.99, 0.03, -0.00, 1.08
39, 3166.48, 53818.64, 46593.51, 70909.41, -150218.22, -185387.80, -185238.16, 2430.66, 0.03, 0.00, 1.08
40, 3771.28, 59105.79, 47969.57, 73541.84, -152074.92, -187151.34, -187264.05, 575.00, 0.03, 0.00, 1.08
41, 3190.58, 56404.22, 48566.05, 72549.34, -152449.00, -187494.63, -187500.02, 202.91, 0.03, 0.00, 1.08
42, 2814.80, 50367.15, 47567.50, 70363.91, -151600.28, -186628.16, -186557.84, 1063.67, 0.03, 0.00, 1.08
43, 3008.61, 52582.90, 46492.03, 70356.34, -150163.97, -185264.42, -185081.13, 2518.80, 0.03, 0.00, 1.08
44, 3782.56, 58662.57, 47703.38, 73382.12, -151891.83, -186912.80, -186976.84, 794.45, 0.02, 0.00, 1.07
45, 3262.93, 57378.42, 48482.27, 72794.29, -152533.53, -187500.02, -187500.02, 156.02, 0.02, 0.00, 1.07
46, 2868.82, 51066.78, 47839.06, 70788.27, -151985.63, -186931.44, -186893.64, 713.31, 0.02, 0.00, 1.07
47, 2877.83, 51535.63, 46496.39, 69933.29, -150236.50, -185263.67, -185053.97, 2479.97, 0.02, 0.00, 1.07
48, 3735.07, 57988.65, 47445.69, 73071.76, -151628.44, -186599.33, -186599.55, 1089.83, 0.02, 0.00, 1.07
49, 3391.92, 58239.03, 48477.64, 73077.75, -152581.66, -187494.86, -187500.02, 139.52, 0.02, 0.00, 1.07
50, 2931.97, 52036.16, 48084.68, 71225.58, -152300.69, -187174.80, -187161.30, 428.39, 0.02, 0.00, 1.07
51, 2781.36, 50675.76, 46527.01, 69675.59, -150457.97, -185406.70, -185187.27, 2291.32, 0.02, 0.00, 1.07
52, 3636.27, 57074.66, 47165.73, 72601.73, -151295.91, -186224.58, -186152.66, 1459.21, 0.02, 0.00, 1.07
53, 3522.90, 58868.82, 48410.46, 73311.40, -152597.70, -187458.13, -187500.02, 159.77, 0.02, 0.00, 1.07
54, 3001.30, 53163.55, 48344.23, 71650.21, -152520.23, -187338.66, -187344.11, 244.15, 0.02, 0.00, 1.07
55, 2738.89, 50082.68, 46786.71, 69639.90, -150815.39, -185688.47, -185472.56, 1966.98, 0.02, 0.00, 1.07
56, 3481.75, 55929.47, 46910.10, 72014.28, -151014.89, -185900.38, -185762.08, 1776.52, 0.02, 0.00, 1.07
57, 3637.99, 59210.53, 48261.53, 73481.67, -152599.53, -187405.42, -187489.08, 193.03, 0.02, 0.00, 1.07
58, 3052.89, 54365.12, 48462.58, 72004.98, -152672.22, -187442.66, -187458.89, 124.34, 0.02, 0.00, 1.07
59, 2737.24, 49856.61, 47033.52, 69779.38, -151245.73, -186045.72, -185848.58, 1567.55, 0.02, 0.01, 1.08
60, 3324.64, 54700.13, 46722.99, 71382.82, -150745.02, -185586.77, -185398.42, 2079.85, 0.02, 0.01, 1.08
61, 3737.35, 59254.11, 48110.99, 73567.05, -152543.83, -187294.41, -187359.33, 281.99, 0.02, 0.01, 1.08
62, 3129.71, 55587.94, 48525.28, 72340.95, -152774.75, -187486.97, -187500.02, 56.80, 0.02, 0.01, 1.08
63, 2778.55, 50032.46, 47332.88, 70087.54, -151678.19, -186396.56, -186227.38, 1168.88, 0.02, 0.01, 1.08
64, 3128.33, 53437.97, 46518.88, 70739.96, -150580.03, -185361.25, -185126.27, 2282.36, 0.02, 0.01, 1.07
65, 3789.96, 59025.59, 47859.29, 73525.59, -152418.48, -187111.52, -187138.86, 443.37, 0.02, 0.01, 1.07
66, 3207.25, 56718.67, 48547.07, 72634.02, -152845.97, -187500.02, -187500.02, 19.51, 0.02, 0.01, 1.07
67, 2832.44, 50521.33, 47669.14, 70478.91, -152082.78, -186720.36, -186589.83, 795.48, 0.02, 0.01, 1.07
68, 2976.89, 52248.86, 46485.84, 70213.66, -150555.02, -185269.83, -185012.47, 2341.81, 0.02, 0.01, 1.07
69, 3776.68, 58492.61, 47646.68, 73316.65, -152217.39, -186852.44, -186842.81, 681.35, 0.02, 0.00, 1.07
70, 3305.85, 57684.46, 48521.86, 72908.62, -152909.67, -187498.36, -187500.02, -9.72, 0.02, 0.00, 1.07
71, 2891.71, 51314.93, 47932.62, 70929.70, -152454.47, -187007.58, -186924.81, 453.65, 0.02, 0.00, 1.07
72, 2856.06, 51213.93, 46525.47, 69842.85, -150667.78, -185299.55, -185037.59, 2259.78, 0.02, 0.00, 1.07
73, 3725.03, 57729.84, 47398.35, 72966.51, -151923.61, -186512.31, -186441.30, 1008.64, 0.02, 0.00, 1.07
74, 3424.33, 58439.08, 48471.54, 73158.66, -152959.67, -187488.11, -187500.02, -26.58, 0.01, -0.01, 1.07
75, 2959.01, 52330.59, 48198.63, 71370.93, -152744.69, -187225.78, -187180.36, 195.89, 0.01, -0.01, 1.07
76, 2771.42, 50447.33, 46619.99, 69646.23, -150927.48, -185479.83, -185226.42, 2032.87, 0.01, -0.01, 1.07
77, 3591.01, 56721.93, 47137.84, 72440.46, -151620.27, -186158.53, -186037.56, 1348.68, 0.01, -0.01, 1.07
78, 3543.11, 58962.20, 48367.90, 73366.76, -152997.27, -187464.72, -187500.02, -27.25, 0.01, -0.01, 1.07
79, 3011.85, 53484.23, 48371.18, 71761.57, -152952.89, -187377.95, -187361.53, 21.73, 0.02, -0.01, 1.08
80, 2756.91, 49992.18, 46883.92, 69674.88, -151302.80, -185775.59, -185539.75, 1689.43, 0.02, -0.01, 1.08
81, 3456.61, 55581.14, 46877.51, 71850.38, -151312.75, -185802.84, -185631.39, 1689.55, 0.02, -0.01, 1.08
82, 3667.90, 59240.97, 48226.41, 73526.33, -152967.89, -187368.13, -187433.25, 36.72, 0.02, -0.01, 1.08
83, 3073.01, 54701.98, 48492.44, 72122.51, -153077.64, -187446.28, -187447.16, -67.90, 0.02, -0.01, 1.08
84, 2750.70, 49836.52, 47112.31, 69864.40, -151753.45, -186141.61, -185931.23, 1272.57, 0.03, -0.01, 1.08
85, 3258.64, 54313.80, 46640.02, 71186.77, -151085.88, -185521.64, -185295.70, 1954.19, 0.03, -0.01, 1.08
86, 3742.15, 59212.36, 48040.07, 73574.70, -152898.20, -187242.20, -187275.97, 142.85, 0.03, -0.01, 1.08
87, 3134.07, 55905.53, 48554.45, 72430.36, -153169.08, -187481.48, -187497.98, -124.75, 0.03, -0.01, 1.08
88, 2794.79, 50120.95, 47461.00, 70201.53, -152175.52, -186484.13, -186312.05, 880.97, 0.03, -0.01, 1.08
89, 3091.54, 53067.53, 46525.09, 70576.03, -150939.47, -185316.78, -185065.20, 2132.54, 0.03, -0.01, 1.08
90, 3791.50, 58917.36, 47823.30, 73487.26, -152721.55, -187019.92, -187019.14, 351.59, 0.03, -0.01, 1.07
91, 3225.22, 57005.11, 48568.24, 72709.91, -153238.50, -187499.03, -187500.02, -162.70, 0.03, -0.01, 1.07
92, 2850.70, 50706.83, 47761.05, 70605.72, -152585.19, -186822.58, -186693.19, 501.10, 0.03, -0.01, 1.07
93, 2927.70, 51904.23, 46490.87, 70063.35, -150952.50, -185269.89, -184994.98, 2153.10, 0.03, -0.01, 1.07
94, 3771.43, 58298.33, 47613.21, 73232.78, -152494.02, -186747.45, -186696.50, 615.39, 0.03, -0.01, 1.07
95, 3351.58, 57944.93, 48564.28, 73001.16, -153273.69, -187489.05, -187484.58, -158.16, 0.03, -0.00, 1.08
96, 2920.28, 51579.42, 48060.72, 71063.81, -152910.33, -187084.77, -187093.50, 220.48, 0.03, -0.00, 1.08
97, 2834.29, 50964.39, 46570.80, 69765.56, -151107.64, -185359.13, -185266.89, 2044.98, 0.03, -0.00, 1.08
98, 3695.61, 57452.07, 47340.05, 72834.19, -152210.17, -186421.23, -186506.14, 948.50, 0.03, -0.00, 1.08
99, 3450.75, 58619.66, 48450.00, 73224.67, -153344.63, -187485.38, -187500.02, -183.24, 0.03, -0.00, 1.08
100, 2966.55, 52641.89, 48281.40, 71489.88, -153190.63, -187284.23, -187404.42, -22.02, 0.02, 0.00, 1.07
101, 2752.04, 50247.82, 46716.89, 69626.30, -151421.02, -185579.80, -185476.17, 1768.45, 0.02, 0.00, 1.07
102, 3549.88, 56399.80, 47033.10, 72271.19, -151900.02, -186053.61, -186058.27, 1301.65, 0.02, 0.00, 1.07
103, 3585.06, 59082.66, 48349.30, 73436.38, -153362.53, -187438.42, -187500.02, -155.05, 0.02, 0.00, 1.07
104, 3033.49, 53826.60, 48431.42, 71885.47, -153380.70, -187413.78, -187500.02, -165.38, 0.02, 0.00, 1.07
105, 2753.91, 49912.85, 46968.95, 69716.79, -151814.36, -185889.27, -185781.33, 1422.55, 0.02, -0.00, 1.07
106, 3393.06, 55219.40, 46817.56, 71650.48, -151622.73, -185722.69, -185657.25, 1628.73, 0.02, -0.00, 1.07
107, 3678.72, 59263.05, 48167.89, 73542.91, -153341.23, -187349.98, -187500.02, -85.96, 0.02, -0.00, 1.07
108, 3080.54, 55050.89, 48519.87, 72210.99, -153499.08, -187473.55, -187500.02, -238.14, 0.02, -0.00, 1.07
109, 2772.09, 49897.16, 47232.16, 69962.48, -152272.02, -186258.80, -186161.77, 1007.57, 0.02, -0.00, 1.07
110, 3217.89, 53960.86, 46607.72, 71014.46, -151429.27, -185467.77, -185333.42, 1868.58, 0.02, -0.01, 1.08
111, 3771.32, 59151.61, 47981.93, 73568.75, -153266.23, -187203.83, -187333.77, 36.90, 0.02, -0.01, 1.08
112, 3165.88, 56228.56, 48565.49, 72513.88, -153607.13, -187500.02, -187500.02, -296.83, 0.02, -0.01, 1.08
113, 2801.55, 50236.48, 47565.16, 70302.78, -152718.63, -186604.45, -186535.58, 606.51, 0.02, -0.01, 1.08
114, 3026.94, 52708.38, 46527.57, 70417.11, -151359.73, -185317.33, -185144.33, 1986.67, 0.02, -0.01, 1.08
115, 3785.25, 58736.43, 47767.11, 73430.48, -153106.30, -186977.75, -187055.75, 246.07, 0.02, -0.00, 1.08
116, 3248.33, 57280.61, 48538.02, 72785.16, -153682.91, -187500.02, -187500.02, -323.88, 0.02, -0.00, 1.08
117, 2861.07, 50916.96, 47815.77, 70728.43, -153125.52, -186922.98, -186881.30, 246.20, 0.02, -0.00, 1.08
118, 2891.85, 51606.02, 46497.80, 69956.94, -151410.22, -185288.94, -185081.05, 1984.25, 0.02, -0.00, 1.08
119, 3745.39, 58089.90, 47548.84, 73130.37, -152853.66, -186672.17, -186678.28, 549.96, 0.02, -0.00, 1.08
120, 3354.57, 58148.80, 48532.05, 73043.71, -153750.31, -187500.02, -187500.02, -339.72, 0.02, -0.01, 1.08
121, 2911.61, 51840.38, 48113.22, 71165.13, -153462.41, -187176.03, -187163.20, -41.82, 0.02, -0.01, 1.08
122, 2790.44, 50700.55, 46582.49, 69685.20, -151635.28, -185424.98, -185211.02, 1808.39, 0.02, -0.01, 1.08
123, 3651.00, 57180.70, 47251.09, 72677.79, -152564.22, -186318.80, -186268.53, 891.25, 0.02, -0.01, 1.08
124, 3484.35, 58811.91, 48456.77, 73280.82, -153787.75, -187467.83, -187500.02, -324.82, 0.02, -0.01, 1.08
125, 2971.42, 52969.59, 48342.20, 71585.88, -153699.39, -187330.98, -187354.03, -225.77, 0.01, -0.01, 1.08
126, 2733.48, 50105.88, 46787.81, 69613.59, -151984.56, -185674.86, -185476.00, 1510.40, 0.01, -0.01, 1.08
127, 3484.48, 56059.09, 46959.14, 72076.73, -152286.98, -185976.81, -185874.95, 1220.52, 0.01, -0.01, 1.08
128, 3577.93, 59150.92, 48281.73, 73438.38, -153841.84, -187439.06, -187500.02, -329.00, 0.01, -0.01, 1.08
129, 3027.12, 54171.75, 48477.64, 71956.09, -153875.48, -187438.06, -187478.02, -356.53, 0.01, -0.01, 1.08
130, 2731.23, 49819.24, 47024.70, 69749.35, -152409.56, -186006.67, -185829.25, 1125.79, 0.02, -0.01, 1.08
131, 3325.56, 54822.12, 46754.62, 71454.75, -152035.16, -185664.45, -185509.89, 1515.02, 0.02, -0.01, 1.08
132, 3697.78, 59252.75, 48147.85, 73556.17, -153792.56, -187324.73, -187422.64, -236.82, 0.02, -0.01, 1.08
133, 3086.78, 55372.96, 48543.16, 72284.89, -154012.95, -187500.02, -187500.02, -448.91, 0.02, -0.01, 1.08
134, 2763.79, 49938.45, 47303.20, 70026.70, -152876.36, -186375.33, -186232.56, 706.29, 0.02, -0.01, 1.08
135, 3150.08, 53580.08, 46572.41, 70819.47, -151860.41, -185415.61, -185220.39, 1741.71, 0.02, -0.00, 1.07
136, 3756.72, 59069.18, 47938.57, 73523.80, -153678.41, -187144.95, -187205.44, -71.61, 0.02, -0.00, 1.07
137, 3171.80, 56527.07, 48590.72, 72584.00, -154090.81, -187500.02, -187500.02, -475.29, 0.02, -0.00, 1.07
138, 2795.78, 50387.36, 47621.35, 70396.68, -153327.06, -186721.73, -186615.69, 306.69, 0.02, -0.00, 1.07
139, 2971.44, 52366.22, 46489.35, 70246.16, -151846.55, -185318.67, -185086.31, 1809.87, 0.02, -0.00, 1.07
140, 3771.61, 58594.85, 47701.28, 73350.31, -153502.83, -186899.14, -186910.00, 158.79, 0.02, -0.00, 1.07
141, 3271.69, 57551.70, 48559.63, 72862.93, -154162.70, -187500.02, -187500.02, -494.02, 0.03, -0.00, 1.08
142, 2869.79, 51132.56, 47922.27, 70847.74, -153705.44, -187018.97, -186937.83, -21.48, 0.03, -0.00, 1.08
143, 2851.17, 51314.75, 46477.97, 69861.58, -151952.47, -185346.06, -185093.25, 1755.75, 0.03, -0.00, 1.08
144, 3707.95, 57855.61, 47415.54, 73004.44, -153245.30, -186579.75, -186537.69, 469.92, 0.03, -0.00, 1.08
145, 3373.79, 58344.60, 48481.89, 73099.41, -154224.22, -187483.94, -187500.02, -502.18, 0.03, -0.00, 1.08
146, 2923.47, 52127.91, 48171.94, 71291.80, -154022.89, -187231.70, -187212.33, -289.08, 0.02, 0.00, 1.08
147, 2761.29, 50483.04, 46613.31, 69649.38, -152231.41, -185511.97, -185280.52, 1527.27, 0.02, 0.00, 1.08
148, 3599.73, 56858.16, 47144.81, 72512.25, -152998.77, -186251.69, -186168.59, 771.85, 0.02, 0.00, 1.08
149, 3508.02, 58893.71, 48351.54, 73314.68, -154302.72, -187464.61, -187500.02, -525.78, 0.02, 0.00, 1.08
150, 3006.53, 53280.93, 48345.52, 71701.31, -154236.06, -187360.27, -187366.11, -450.83, 0.02, 0.00, 1.08
151, 2751.01, 49989.74, 46816.82, 69650.52, -152576.72, -185756.63, -185537.28, 1230.28, 0.03, -0.00, 1.07
152, 3454.84, 55738.95, 46868.54, 71923.69, -152678.14, -185865.83, -185723.20, 1143.40, 0.03, -0.00, 1.07
153, 3631.76, 59216.16, 48196.28, 73498.99, -154306.42, -187396.13, -187490.50, -477.37, 0.03, -0.00, 1.07
154, 3067.53, 54507.16, 48423.15, 72075.88, -154410.27, -187460.19, -187487.25, -570.30, 0.03, -0.00, 1.07
155, 2757.62, 49850.31, 47042.95, 69835.19, -153022.47, -186099.09, -185907.09, 837.79, 0.03, -0.00, 1.07
156, 3288.97, 54511.16, 46613.45, 71295.34, -152459.41, -185574.06, -185382.59, 1418.73, 0.03, -0.00, 1.07
157, 3733.86, 59242.71, 48000.59, 73577.47, -154267.52, -187283.41, -187350.64, -384.05, 0.03, -0.00, 1.07
158, 3121.56, 55714.11, 48477.98, 72388.18, -154532.84, -187500.02, -187500.02, -639.57, 0.03, -0.00, 1.07
159, 2804.90, 50039.47, 47362.03, 70173.50, -153499.22, -186469.80, -186314.75, 413.46, 0.03, -0.00, 1.07
160, 3128.22, 53258.26, 46512.13, 70705.65, -152347.03, -185379.70, -185150.47, 1585.70, 0.03, -0.00, 1.07
161, 3785.33, 58969.58, 47824.44, 73517.70, -154160.64, -187095.98, -187131.59, -222.15, 0.02, -0.00, 1.06
162, 3206.00, 56825.13, 48517.66, 72674.34, -154621.16, -187500.02, -187500.02, -675.56, 0.02, -0.00, 1.06
163, 2849.53, 50579.27, 47688.47, 70560.21, -153923.98, -186802.23, -186681.36, 35.61, 0.02, -0.00, 1.06
164, 2957.45, 52069.64, 46464.76, 70171.31, -152356.23, -185311.59, -185054.36, 1626.60, 0.02, -0.00, 1.06
165, 3779.88, 58391.49, 47584.43, 73303.08, -153960.67, -186839.19, -186819.98, 29.46, 0.02, -0.00, 1.06
166, 3335.06, 57775.05, 48528.34, 72965.13, -154685.31, -187500.02, -187500.02, -688.28, 0.03, -0.00, 1.07
167, 2913.39, 51424.41, 47992.50, 71016.09, -154287.25, -187077.09, -186993.75, -276.47, 0.03, -0.00, 1.07
168, 2843.43, 51100.40, 46523.95, 69830.85, -152501.81, -185368.63, -185098.36, 1534.20, 0.03, -0.00, 1.07
169, 3699.64, 57629.81, 47342.07, 72916.02, -153670.27, -186489.58, -186407.06, 373.92, 0.03, -0.00, 1.07
170, 3431.84, 58546.66, 48459.32, 73195.23, -154759.11, -187500.02, -187500.02, -707.37, 0.03, -0.00, 1.07
171, 2952.69, 52432.90, 48221.85, 71425.35, -154598.98, -187294.78, -187252.11, -534.41, 0.03, 0.00, 1.08
172, 2771.59, 50334.52, 46656.61, 69669.16, -152808.05, -185571.81, -185313.48, 1281.40, 0.03, 0.00, 1.08
173, 3589.04, 56595.29, 47074.07, 72394.68, -153396.19, -186140.77, -186011.48, 708.15, 0.03, 0.00, 1.08
174, 3560.92, 59051.09, 48354.85, 73400.87, -154809.63, -187466.02, -187500.02, -695.47, 0.03, 0.00, 1.08
175, 3021.93, 53623.38, 48428.70, 71824.34, -154793.45, -187405.78, -187392.08, -667.60, 0.03, 0.00, 1.08
176, 2763.79, 49914.19, 46914.16, 69721.99, -153188.23, -185847.91, -185608.72, 961.21, 0.03, -0.01, 1.08
177, 3440.31, 55437.71, 46826.99, 71799.63, -153092.50, -185773.41, -185582.70, 1075.30, 0.03, -0.01, 1.08
178, 3693.31, 59272.64, 48216.96, 73566.30, -154803.81, -187381.97, -187441.64, -627.86, 0.03, -0.01, 1.08
179, 3089.77, 54842.44, 48510.77, 72178.92, -154945.44, -187475.89, -187491.20, -760.43, 0.03, -0.01, 1.08
180, 2774.45, 49854.98, 47199.98, 69935.27, -153651.91, -186197.45, -186000.38, 554.01, 0.03, -0.01, 1.08
181, 3260.25, 54162.28, 46668.36, 71153.16, -152918.16, -185512.97, -185288.59, 1307.06, 0.02, -0.01, 1.07
182, 3778.65, 59192.38, 48072.63, 73598.05, -154752.66, -187246.55, -187287.77, -519.92, 0.02, -0.01, 1.07
183, 3167.67, 56031.46, 48586.61, 72485.56, -155052.59, -187500.02, -187500.02, -809.04, 0.02, -0.01, 1.07
184, 2822.20, 50155.28, 47487.26, 70281.28, -154115.20, -186570.36, -186399.30, 148.37, 0.02, -0.01, 1.07
185, 3079.04, 52929.55, 46482.46, 70545.26, -152822.94, -185347.47, -185084.83, 1461.94, 0.02, -0.01, 1.07
186, 3801.09, 58849.59, 47736.33, 73472.93, -154579.72, -187018.02, -187008.92, -289.57, 0.01, -0.00, 1.07
187, 3256.63, 57111.70, 48416.83, 72764.13, -155123.66, -187500.02, -187500.02, -827.06, 0.01, -0.00, 1.07
188, 2878.26, 50765.46, 47583.60, 70701.56, -154522.77, -186886.89, -186756.38, -211.81, 0.01, -0.00, 1.07
189, 2938.27, 51783.85, 46174.75, 70082.98, -152864.95, -185308.56, -185021.13, 1470.88, 0.01, -0.00, 1.07
190, 3766.85, 58223.59, 47109.03, 73210.70, -154380.20, -186744.73, -186693.41, -34.85, 0.01, -0.00, 1.07
191, 3349.10, 58019.88, 47980.41, 73016.46, -155213.77, -187500.02, -187500.02, -861.79, 0.01, -0.00, 1.07
192, 2921.80, 51665.92, 47532.77, 71125.35, -154875.98, -187138.05, -187050.92, -512.79, 0.01, 0.00, 1.08
193, 2829.60, 50848.14, 46162.96, 69778.91, -153057.63, -185398.64, -185116.56, 1328.43, 0.01, 0.00, 1.08
194, 3697.27, 57356.12, 47111.80, 72802.58, -154087.84, -186385.52, -186282.83, 307.00, 0.01, 0.00, 1.08
195, 3489.58, 58687.05, 48416.52, 73264.75, -155264.05, -187479.00, -187500.02, -861.19, 0.01, 0.00, 1.08
196, 2981.83, 52756.51, 48341.68, 71545.65, -155141.98, -187318.09, -187269.17, -726.19, 0.01, 0.00, 1.08
197, 2771.53, 50200.32, 46826.03, 69677.94, -153381.55, -185623.91, -185352.59, 1056.41, 0.02, 0.01, 1.07
198, 3545.50, 56274.52, 47086.59, 72233.13, -153791.75, -186028.91, -185863.48, 659.62, 0.02, 0.01, 1.07
199, 3604.80, 59113.07, 48407.20, 73450.22, -155293.64, -187444.30, -187495.02, -835.13, 0.02, 0.01, 1.07
200, 3043.28, 53938.91, 48539.07, 71925.54, -155335.75, -187436.30, -187418.08, -866.55, 0.02, 0.01, 1.07
201, 2755.39, 49848.59, 47042.46, 69765.52, -153817.91, -185952.66, -185714.77, 674.11, 0.02, 0.01, 1.07
202, 3366.75, 55072.53, 46781.73, 71603.30, -153531.64, -185701.28, -185485.20, 978.47, 0.02, 0.00, 1.07
203, 3685.04, 59258.12, 48161.70, 73556.86, -155277.45, -187343.73, -187387.83, -759.40, 0.02, 0.00, 1.07
204, 3078.71, 55162.05, 48558.05, 72250.29, -155476.22, -187489.42, -187500.02, -948.41, 0.02, 0.00, 1.07
205, 2758.23, 49854.89, 47284.06, 70004.23, -154288.34, -186324.41, -186123.69, 257.09, 0.02, 0.00, 1.07
206, 3179.16, 53781.07, 46567.15, 70960.10, -153369.11, -185461.31, -185215.95, 1195.01, 0.02, 0.00, 1.07
207, 3763.54, 59126.31, 47954.17, 73570.01, -155194.14, -187184.36, -187206.50, -622.97, 0.02, 0.00, 1.07
208, 3172.25, 56344.72, 48557.51, 72566.52, -155557.45, -187500.02, -187500.02, -977.13, 0.02, 0.00, 1.07
209, 2818.06, 50268.02, 47549.22, 70394.16, -154723.02, -186663.56, -186496.64, -125.93, 0.02, 0.00, 1.07
210, 3021.71, 52560.59, 46456.63, 70399.68, -153311.48, -185325.13, -185043.17, 1306.33, 0.02, 0.00, 1.07
211, 3783.28, 58698.56, 47736.89, 73416.36, -155021.17, -186953.36, -186918.48, -398.78, 0.02, 0.00, 1.07
212, 3267.98, 57386.58, 48546.56, 72845.16, -155639.75, -187500.02, -187500.02, -1010.99, 0.02, -0.02, 1.07
213, 2867.64, 50989.47, 47868.90, 70818.82, -155119.45, -186970.22, -186843.61, -478.15, 0.02, -0.02, 1.07
214, 2885.34, 51487.62, 46464.29, 69984.18, -153391.92, -185325.91, -185034.59, 1271.57, 0.02, -0.02, 1.07
215, 3742.37, 57991.58, 47414.22, 73118.88, -154781.33, -186650.72, -186577.97, -107.98, 0.02, -0.02, 1.07
216, 3376.63, 58233.40, 48477.33, 73100.41, -155702.16, -187500.02, -187500.02, -1020.74, 0.02, -0.02, 1.07
217, 2924.90, 51951.87, 48123.50, 71251.97, -155438.83, -187205.84, -187121.36, -744.60, 0.01, -0.02, 1.07
218, 2795.53, 50619.03, 46553.50, 69737.06, -153629.19, -185470.56, -185180.22, 1088.51, 0.01, -0.02, 1.07
219, 3642.95, 57051.30, 47116.00, 72664.06, -154507.91, -186313.14, -186186.20, 220.46, 0.01, -0.02, 1.07
220, 3488.68, 58814.79, 48344.90, 73309.02, -155766.17, -187478.73, -187500.02, -1029.52, 0.01, -0.02, 1.07
221, 2985.03, 53071.89, 48342.29, 71666.59, -155692.59, -187362.95, -187328.42, -944.16, 0.01, -0.02, 1.07
222, 2755.34, 50061.74, 46783.59, 69694.37, -153985.23, -185713.95, -185451.61, 786.58, 0.01, -0.01, 1.07
223, 3509.36, 55938.46, 46891.75, 72088.02, -154211.81, -185943.19, -185763.73, 574.84, 0.01, -0.01, 1.07
224, 3632.92, 59181.58, 48244.92, 73509.03, -155799.05, -187427.50, -187489.84, -1005.40, 0.01, -0.01, 1.07
225, 3062.70, 54324.26, 48463.86, 72046.64, -155855.53, -187450.03, -187439.44, -1053.37, 0.01, -0.01, 1.07
226, 2761.94, 49851.07, 47033.95, 69837.60, -154413.56, -186044.53, -185809.59, 407.20, 0.01, -0.01, 1.07
227, 3327.57, 54727.37, 46663.80, 71434.34, -153950.92, -185617.44, -185394.09, 885.69, 0.02, 0.00, 1.08
228, 3724.40, 59284.87, 48058.95, 73589.23, -155739.33, -187298.50, -187340.52, -895.46, 0.02, 0.00, 1.08
229, 3107.83, 55542.83, 48489.70, 72356.41, -155964.23, -187480.45, -187494.22, -1109.27, 0.02, 0.00, 1.08
230, 2781.63, 49975.13, 47291.51, 70128.57, -154883.14, -186407.11, -186214.50, -9.05, 0.02, 0.00, 1.08
231, 3154.99, 53449.77, 46492.50, 70821.45, -153810.70, -185397.59, -185137.97, 1082.81, 0.02, 0.00, 1.08
232, 3795.53, 59010.91, 47822.65, 73566.20, -155650.50, -187132.39, -187147.55, -752.16, 0.03, 0.01, 1.07
233, 3214.65, 56676.89, 48500.58, 72674.46, -156087.02, -187500.02, -187500.02, -1180.84, 0.03, 0.01, 1.07
234, 2849.47, 50486.58, 47610.67, 70532.78, -155335.83, -186758.23, -186607.25, -413.48, 0.03, 0.01, 1.07
235, 2992.56, 52255.52, 46434.09, 70288.57, -153812.98, -185312.81, -185033.88, 1131.31, 0.03, 0.01, 1.07
236, 3794.41, 58490.04, 47610.09, 73374.27, -155477.95, -186888.16, -186863.50, -527.41, 0.03, 0.01, 1.07
237, 3319.97, 57616.18, 48475.88, 72932.13, -156167.25, -187500.02, -187500.02, -1208.51, 0.03, 0.01, 1.08
238, 2917.77, 51263.25, 47860.63, 70967.32, -155719.61, -187031.56, -186939.92, -745.56, 0.03, 0.01, 1.08
239, 2869.38, 51252.59, 46413.53, 69897.21, -153931.50, -185326.02, -185049.02, 1066.87, 0.03, 0.01, 1.08
240, 3720.51, 57763.34, 47290.55, 73001.84, -155197.66, -186538.59, -186460.64, -190.26, 0.03, 0.01, 1.08
241, 3424.33, 58420.02, 48381.45, 73177.58, -156229.61, -187500.02, -187500.02, -1215.42, 0.03, 0.01, 1.08
242, 2963.19, 52294.88, 48086.69, 71399.72, -156014.81, -187243.27, -187183.09, -988.39, 0.03, 0.01, 1.08
243, 2785.94, 50475.80, 46486.02, 69714.91, -154197.13, -185496.36, -185223.52, 856.54, 0.03, 0.01, 1.08
244, 3617.58, 56801.12, 46957.37, 72517.69, -154889.88, -186172.28, -186029.94, 177.41, 0.03, 0.01, 1.08
245, 3552.36, 59018.15, 48217.85, 73401.47, -156256.08, -187457.23, -187500.02, -1183.48, 0.03, 0.01, 1.08
246, 3009.28, 53451.04, 48224.29, 71790.78, -156226.91, -187383.30, -187353.66, -1145.95, 0.03, 0.01, 1.08
247, 2751.03, 49950.11, 46645.74, 69721.23, -154599.95, -185807.36, -185552.31, 504.28, 0.03, 0.01, 1.08
248, 3447.98, 55620.93, 46634.90, 71895.44, -154617.83, -185841.27, -185648.53, 503.09, 0.03, 0.01, 1.07
249, 3651.96, 59261.71, 48020.13, 73541.06, -156272.47, -187400.95, -187446.39, -1143.72, 0.03, 0.01, 1.07
250, 3067.75, 54664.43, 48305.14, 72149.04, -156400.34, -187480.06, -187473.53, -1263.34, 0.03, 0.01, 1.07
251, 2765.98, 49832.18, 46936.61, 69926.18, -155066.27, -186177.86, -185946.55, 91.73, 0.03, 0.01, 1.07
252, 3279.58, 54337.71, 46434.99, 71270.39, -154418.14, -185573.50, -185330.31, 759.15, 0.03, 0.01, 1.07
253, 3750.65, 59225.32, 47810.94, 73602.98, -156233.48, -187276.41, -187306.63, -1049.06, 0.03, -0.00, 1.07
254, 3139.82, 55869.37, 48292.66, 72452.40, -156511.30, -187500.02, -187500.02, -1317.05, 0.03, -0.00, 1.07
255, 2794.06, 50074.61, 47183.14, 70234.99, -155528.22, -186532.09, -186340.30, -314.38, 0.03, -0.00, 1.07
0, 3089.82, 53084.41, 46260.87, 70643.29, -154291.92, -185363.39, -185089.97, 943.11, 0.03, -0.00, 1.07
1, 3786.97, 58919.51, 47573.81, 73512.36, -156083.55, -187061.67, -187051.39, -843.73, 0.03, -0.00, 1.07
2, 3233.76, 56983.63, 48339.47, 72739.93, -156598.84, -187500.02, -187500.02, -1350.25, 0.02, -0.01, 1.07
3, 2866.01, 50674.33, 47553.98, 70651.31, -155953.86, -186846.88, -186718.28, -688.34, 0.02, -0.01, 1.07
4, 2958.01, 51949.12, 46306.73, 70162.86, -154323.55, -185303.17, -185019.89, 966.20, 0.02, -0.01, 1.07
5, 3792.17, 58339.62, 47433.44, 73289.55, -155881.38, -186794.64, -186737.31, -584.41, 0.02, -0.01, 1.07
6, 3354.24, 57923.61, 48400.49, 73013.16, -156669.72, -187500.02, -187500.02, -1365.00, 0.02, -0.01, 1.07
7, 2922.65, 51532.50, 47939.91, 71091.80, -156314.44, -187116.77, -187029.88, -997.02, 0.02, -0.01, 1.07
8, 2830.89, 50938.17, 46452.06, 69816.70, -154515.88, -185403.00, -185121.28, 823.75, 0.02, -0.01, 1.07
9, 3708.31, 57478.16, 47221.39, 72885.41, -155622.77, -186466.27, -186368.53, -274.61, 0.02, -0.01, 1.07
10, 3466.78, 58618.25, 48377.09, 73244.49, -156736.59, -187500.02, -187500.02, -1383.73, 0.02, -0.01, 1.07
11, 2980.47, 52596.87, 48233.05, 71520.23, -156590.50, -187312.89, -187258.95, -1227.31, 0.02, -0.01, 1.07
12, 2773.09, 50246.25, 46675.27, 69698.19, -154835.94, -185626.16, -185349.80, 552.00, 0.01, -0.01, 1.07
13, 3570.07, 56429.17, 47004.80, 72342.18, -155331.14, -186108.58, -185950.95, 70.05, 0.01, -0.01, 1.07
14, 3584.26, 59070.38, 48339.91, 73445.95, -156788.00, -187459.58, -187500.02, -1380.02, 0.01, -0.01, 1.07
15, 3025.38, 53791.62, 48435.91, 71896.64, -156811.70, -187429.20, -187429.00, -1392.42, 0.01, -0.01, 1.07
16, 2730.60, 49890.57, 46942.19, 69754.02, -155246.19, -185917.13, -185678.11, 197.61, 0.01, -0.01, 1.07
17, 3373.53, 55219.04, 46790.83, 71700.33, -155086.14, -185776.47, -185579.48, 375.53, 0.01, -0.01, 1.07
18, 3689.74, 59259.70, 48214.99, 73569.76, -156796.52, -187376.25, -187436.73, -1329.26, 0.01, -0.01, 1.07
19, 3089.06, 55008.80, 48562.89, 72232.88, -156963.95, -187495.86, -187500.02, -1486.97, 0.01, -0.01, 1.07
20, 2772.09, 49866.67, 47275.50, 70002.53, -155724.28, -186278.22, -186072.36, -225.89, 0.01, -0.01, 1.07
21, 3213.98, 53988.69, 46640.02, 71079.71, -154881.53, -185488.02, -185249.28, 637.34, 0.01, -0.01, 1.07
22, 3763.16, 59160.26, 48022.63, 73593.32, -156723.20, -187218.41, -187255.11, -1198.03, 0.01, -0.01, 1.07
23, 3160.87, 56206.68, 48624.36, 72538.12, -157072.66, -187500.02, -187500.02, -1538.27, 0.01, -0.01, 1.07
24, 2811.74, 50211.70, 47598.51, 70359.22, -156198.25, -186626.38, -186480.78, -645.61, 0.01, -0.01, 1.07
25, 3035.03, 52743.32, 46558.10, 70492.33, -154841.38, -185345.78, -185090.09, 733.41, 0.01, -0.01, 1.07
26, 3772.80, 58763.92, 47799.98, 73457.64, -156596.19, -186999.88, -187010.36, -1015.62, 0.01, -0.01, 1.07
27, 3249.56, 57236.87, 48610.06, 72812.44, -157188.22, -187500.02, -187500.02, -1597.97, 0.01, -0.01, 1.07
28, 2859.86, 50868.84, 47923.84, 70773.94, -156635.45, -186940.53, -186848.42, -1028.78, 0.01, -0.01, 1.07
29, 2893.41, 51614.07, 46569.57, 70047.02, -154945.91, -185332.05, -185069.28, 686.00, 0.01, -0.01, 1.07
30, 3743.67, 58088.49, 47588.27, 73174.36, -156386.91, -186702.27, -186660.47, -744.98, 0.01, -0.01, 1.07
31, 3360.83, 58098.11, 48572.20, 73064.19, -157275.30, -187500.02, -187500.02, -1625.58, 0.01, -0.01, 1.07
32, 2925.20, 51792.81, 48143.44, 71211.47, -157001.36, -187199.92, -187145.81, -1338.06, 0.01, 0.00, 1.08
33, 2803.07, 50754.80, 46652.27, 69783.82, -155170.66, -185447.34, -185187.53, 519.88, 0.01, 0.00, 1.08
34, 3650.22, 57200.55, 47312.45, 72740.13, -156117.20, -186357.80, -186261.94, -413.64, 0.01, 0.00, 1.08
35, 3479.74, 58741.12, 48491.37, 73295.63, -157360.88, -187490.06, -187500.02, -1648.35, 0.01, 0.00, 1.08
36, 2969.97, 52899.47, 48372.59, 71619.55, -157278.98, -187345.91, -187366.05, -1552.22, 0.01, 0.00, 1.08
37, 2730.02, 50113.70, 46792.62, 69691.09, -155535.75, -185670.13, -185453.41, 216.88, 0.02, -0.00, 1.07
38, 3490.63, 56093.98, 47013.14, 72165.31, -155844.94, -185975.06, -185854.41, -77.52, 0.02, -0.00, 1.07
39, 3598.23, 59127.34, 48348.34, 73483.01, -157410.92, -187433.66, -187500.02, -1636.13, 0.02, -0.00, 1.07
40, 3036.13, 54110.73, 48516.47, 72000.06, -157474.94, -187450.03, -187489.95, -1689.79, 0.02, -0.00, 1.07
41, 2743.23, 49848.43, 47081.51, 69832.79, -155989.31, -186006.06, -185817.69, -181.67, 0.02, -0.00, 1.07
42, 3319.28, 54868.66, 46779.25, 71536.63, -155619.95, -185666.80, -185501.41, 204.74, 0.02, -0.00, 1.07
43, 3698.86, 59208.92, 48178.76, 73581.91, -157404.67, -187337.58, -187442.39, -1577.79, 0.02, -0.00, 1.07
44, 3101.80, 55316.68, 48596.56, 72319.80, -157623.31, -187500.02, -187500.02, -1788.25, 0.02, -0.00, 1.07
45, 2762.30, 49934.78, 47374.95, 70096.95, -156477.70, -186363.11, -186234.58, -621.60, 0.02, -0.00, 1.07
46, 3143.68, 53630.86, 46607.27, 70916.74, -155464.48, -185411.94, -185225.75, 411.34, 0.02, -0.00, 1.07
47, 3755.61, 59037.79, 47957.95, 73569.22, -157316.95, -187161.75, -187245.39, -1437.40, 0.02, -0.00, 1.07
48, 3174.46, 56464.77, 48634.73, 72619.66, -157730.67, -187500.02, -187500.02, -1842.54, 0.03, -0.01, 1.08
49, 2819.40, 50356.80, 47690.78, 70485.60, -156942.83, -186711.02, -186630.38, -1037.55, 0.03, -0.01, 1.08
50, 2979.80, 52435.61, 46531.21, 70374.27, -155451.97, -185299.02, -185086.05, 477.12, 0.03, -0.01, 1.08
51, 3759.59, 58571.07, 47752.22, 73400.51, -157147.22, -186906.06, -186944.89, -1211.78, 0.03, -0.01, 1.08
52, 3264.09, 57473.73, 48602.95, 72888.09, -157820.00, -187500.02, -187500.02, -1877.86, 0.03, -0.01, 1.08
53, 2860.55, 51093.58, 47962.39, 70906.75, -157341.61, -187011.20, -186964.00, -1385.23, 0.03, -0.01, 1.08
54, 2848.30, 51344.39, 46525.63, 69983.80, -155592.81, -185345.33, -185120.97, 388.76, 0.03, -0.01, 1.08
55, 3709.09, 57841.57, 47453.71, 73088.15, -156930.08, -186621.69, -186609.55, -939.38, 0.03, -0.01, 1.08
56, 3369.26, 58272.47, 48537.93, 73137.16, -157923.11, -187500.02, -187500.02, -1925.18, 0.03, -0.01, 1.08
57, 2905.73, 52071.29, 48229.92, 71337.34, -157693.09, -187237.25, -187252.89, -1681.79, 0.03, -0.01, 1.08
58, 2733.53, 50508.04, 46679.23, 69739.59, -155873.14, -185497.88, -185291.47, 161.22, 0.02, -0.01, 1.07
59, 3562.60, 56865.29, 47224.94, 72583.06, -156649.09, -186248.97, -186187.67, -604.86, 0.02, -0.01, 1.07
60, 3466.60, 58827.87, 48456.77, 73338.26, -157986.69, -187484.42, -187500.02, -1935.93, 0.02, -0.01, 1.07
61, 2933.06, 53197.39, 48400.53, 71707.50, -157935.05, -187386.98, -187432.84, -1873.68, 0.02, -0.01, 1.07
62, 2677.83, 49978.59, 46865.64, 69706.48, -156252.91, -185765.47, -185576.05, -168.62, 0.02, -0.01, 1.07
63, 3387.99, 55712.41, 46971.03, 71978.49, -156379.77, -185900.44, -185783.88, -280.16, 0.02, 0.00, 1.08
64, 3569.13, 59100.71, 48364.52, 73493.74, -158023.20, -187426.80, -187500.02, -1916.68, 0.02, 0.00, 1.08
65, 2988.20, 54393.97, 48579.41, 72068.03, -158127.05, -187469.34, -187500.02, -2008.66, 0.02, 0.00, 1.08
66, 2683.55, 49781.96, 47180.57, 69883.91, -156727.34, -186102.67, -185960.52, -587.11, 0.02, 0.00, 1.08
67, 3218.18, 54496.79, 46749.27, 71358.81, -156153.22, -185574.19, -185426.38, 3.78, 0.02, 0.00, 1.08
68, 3669.98, 59172.42, 48140.80, 73589.72, -157977.47, -187288.61, -187408.69, -1814.16, 0.02, 0.00, 1.07
69, 3064.45, 55626.65, 48623.34, 72402.02, -158252.63, -187500.02, -187500.02, -2080.08, 0.02, 0.00, 1.07
70, 2714.53, 49992.87, 47466.01, 70190.80, -157200.22, -186457.52, -186361.17, -1011.51, 0.02, 0.00, 1.07
71, 3033.36, 53246.79, 46621.51, 70744.59, -156040.70, -185366.70, -185189.63, 164.87, 0.02, 0.00, 1.07
72, 3711.55, 58879.93, 47992.12, 73534.42, -157880.00, -187103.09, -187197.95, -1672.67, 0.02, 0.00, 1.07
73, 3146.77, 56725.71, 48686.41, 72690.95, -158370.23, -187500.02, -187500.02, -2153.70, 0.01, 0.00, 1.08
74, 2765.83, 50520.28, 47826.34, 70588.39, -157671.92, -186804.36, -186762.28, -1439.25, 0.01, 0.00, 1.08
75, 2880.20, 52078.82, 46581.93, 70238.37, -156073.75, -185293.77, -185097.66, 179.62, 0.01, 0.00, 1.08
76, 3693.83, 58354.61, 47716.30, 73323.40, -157691.84, -186833.52, -186878.81, -1435.00, 0.01, 0.00, 1.08
77, 3249.36, 57693.40, 48640.39, 72966.46, -158466.05, -187500.02, -187500.02, -2203.79, 0.01, 0.00, 1.08
78, 2833.04, 51331.81, 48113.63, 71035.05, -158059.28, -187091.16, -187088.28, -1787.16, 0.01, 0.00, 1.07
79, 2758.16, 51083.66, 46631.62, 69881.63, -156243.92, -185366.23, -185165.44, 47.70, 0.01, 0.00, 1.07
80, 3620.85, 57547.54, 47438.09, 72945.01, -157436.36, -186503.34, -186499.89, -1136.34, 0.01, 0.00, 1.07
81, 3361.32, 58420.91, 48546.60, 73195.01, -158547.75, -187500.02, -187500.02, -2239.78, 0.01, 0.00, 1.07
82, 2900.16, 52379.61, 48357.21, 71461.72, -158358.77, -187282.53, -187331.63, -2039.91, 0.01, 0.00, 1.07
83, 2700.96, 50317.51, 46817.92, 69726.63, -156553.17, -185555.97, -185374.13, -211.20, 0.02, 0.00, 1.07
84, 3509.60, 56542.29, 47218.42, 72441.27, -157164.75, -186149.03, -186095.80, -811.08, 0.02, 0.00, 1.07
85, 3497.73, 58916.38, 48463.07, 73418.37, -158613.50, -187474.84, -187500.02, -2254.55, 0.02, 0.00, 1.07
86, 2957.49, 53541.72, 48494.68, 71850.02, -158608.73, -187411.30, -187500.02, -2238.86, 0.02, 0.00, 1.07
87, 2673.69, 49911.02, 46989.63, 69759.61, -156989.64, -185852.45, -185712.39, -596.43, 0.02, 0.00, 1.07
88, 3340.98, 55402.75, 46936.89, 71821.61, -156892.95, -185777.48, -185687.64, -483.62, 0.02, 0.00, 1.08
89, 3613.45, 59136.01, 48346.89, 73564.66, -158630.48, -187391.59, -187500.02, -2217.20, 0.02, 0.00, 1.08
90, 3027.57, 54741.59, 48636.30, 72192.45, -158790.39, -187483.16, -187500.02, -2368.21, 0.02, 0.00, 1.08
91, 2704.65, 49846.54, 47297.59, 69979.24, -157473.59, -186202.94, -186117.34, -1032.47, 0.02, 0.00, 1.08
92, 3170.13, 54166.52, 46744.67, 71190.66, -156712.67, -185493.19, -185378.88, -253.33, 0.02, 0.00, 1.08
93, 3698.74, 59119.27, 48170.60, 73607.73, -158572.23, -187238.23, -187400.33, -2108.24, 0.02, 0.00, 1.08
94, 3103.96, 55965.39, 48712.43, 72509.01, -158900.89, -187500.02, -187500.02, -2429.10, 0.03, 0.00, 1.07
95, 2751.68, 50115.70, 47627.30, 70326.41, -157948.80, -186559.36, -186516.11, -1461.07, 0.03, 0.00, 1.07
96, 3001.24, 52914.63, 46622.63, 70607.37, -156645.53, -185328.56, -185184.44, -138.04, 0.03, 0.00, 1.07
97, 3720.40, 58779.34, 47908.93, 73500.89, -158442.09, -187032.44, -187147.16, -1929.02, 0.03, 0.00, 1.07
98, 3188.07, 57013.91, 48670.79, 72785.75, -159011.13, -187500.02, -187500.02, -2491.24, 0.03, 0.00, 1.07
99, 2810.24, 50717.71, 47939.26, 70743.02, -158412.00, -186903.02, -186910.06, -1878.71, 0.02, -0.00, 1.07
100, 2861.16, 51779.13, 46625.47, 70146.45, -156723.19, -185301.97, -185146.09, -169.29, 0.02, -0.00, 1.07
101, 3690.07, 58153.87, 47671.93, 73253.23, -158243.55, -186745.73, -186825.11, -1684.79, 0.02, -0.00, 1.07
102, 3298.09, 57910.82, 48648.82, 73057.91, -159106.84, -187500.02, -187500.02, -2541.71, 0.02, -0.00, 1.07
103, 2866.07, 51614.07, 48177.75, 71182.23, -158772.13, -187149.34, -187205.05, -2195.16, 0.02, -0.00, 1.07
104, 2748.80, 50850.91, 46671.98, 69839.12, -156931.56, -185393.72, -185238.59, -332.24, 0.03, -0.01, 1.08
105, 3600.04, 57300.91, 47428.07, 72831.77, -157974.39, -186395.23, -186419.63, -1366.34, 0.03, -0.01, 1.08
106, 3414.03, 58597.71, 48607.44, 73289.04, -159184.42, -187500.02, -187500.02, -2571.37, 0.03, -0.01, 1.08
107, 2917.08, 52687.87, 48435.67, 71588.26, -159052.30, -187322.75, -187417.42, -2428.11, 0.03, -0.01, 1.08
108, 2693.01, 50188.00, 46864.92, 69735.27, -157274.27, -185620.64, -185478.38, -629.16, 0.03, -0.01, 1.08
109, 3466.40, 56245.26, 47152.16, 72291.80, -157683.39, -186023.86, -185987.73, -1027.15, 0.02, -0.01, 1.08
110, 3543.18, 59025.79, 48469.06, 73495.41, -159222.67, -187454.86, -187500.02, -2562.63, 0.02, -0.01, 1.08
111, 2989.79, 53899.57, 48575.91, 71982.83, -159257.67, -187447.84, -187500.02, -2591.44, 0.02, -0.01, 1.08
112, 2692.92, 49854.20, 47102.16, 69836.59, -157714.55, -185953.50, -185828.89, -1029.83, 0.02, -0.01, 1.08
113, 3297.31, 55053.42, 46898.16, 71662.23, -157424.63, -185690.55, -185597.44, -726.81, 0.02, -0.01, 1.08
114, 3639.82, 59160.66, 48312.94, 73598.88, -159220.19, -187361.23, -187500.02, -2520.20, 0.02, -0.00, 1.08
115, 3062.93, 55097.52, 48703.36, 72319.24, -159416.41, -187500.02, -187500.02, -2709.72, 0.02, -0.00, 1.08
116, 2723.31, 49896.89, 47440.48, 70101.55, -158197.91, -186309.66, -186231.48, -1474.21, 0.02, -0.00, 1.08
117, 3129.38, 53829.68, 46772.88, 71055.37, -157255.78, -185426.20, -185293.70, -514.45, 0.02, -0.00, 1.08
118, 3711.19, 59023.31, 48147.18, 73617.37, -159134.72, -187195.66, -187341.41, -2392.37, 0.02, -0.00, 1.08
119, 3118.69, 56222.30, 48735.34, 72602.87, -159537.89, -187500.02, -187500.02, -2789.81, 0.02, 0.00, 1.07
120, 2765.65, 50261.23, 47747.46, 70462.13, -158679.77, -186677.66, -186642.77, -1917.40, 0.02, 0.00, 1.07
121, 2952.04, 52608.36, 46636.67, 70481.28, -157216.73, -185294.08, -185138.58, -433.49, 0.02, 0.00, 1.07
122, 3734.98, 58629.76, 47889.13, 73484.30, -158957.17, -186949.30, -187045.53, -2170.04, 0.02, 0.00, 1.07
123, 3230.72, 57281.64, 48712.88, 72893.75, -159612.75, -187500.02, -187500.02, -2817.68, 0.02, 0.00, 1.07
124, 2831.59, 50941.84, 48055.91, 70887.35, -159083.81, -186971.28, -186987.95, -2274.31, 0.02, 0.00, 1.07
125, 2830.78, 51513.01, 46694.27, 70065.66, -157330.61, -185305.56, -185142.59, -498.47, 0.02, 0.00, 1.07
126, 3687.84, 57934.22, 47657.20, 73179.23, -158751.00, -186660.06, -186717.58, -1912.44, 0.02, 0.00, 1.07
127, 3342.75, 58100.96, 48667.01, 73142.70, -159721.58, -187500.02, -187500.02, -2877.63, 0.02, 0.00, 1.07
128, 2884.98, 51887.50, 48312.98, 71312.70, -159441.31, -187215.55, -187285.97, -2585.45, 0.02, 0.00, 1.07
129, 2721.75, 50645.86, 46800.17, 69801.77, -157561.80, -185424.25, -185267.50, -684.05, 0.02, 0.00, 1.07
130, 3581.40, 57024.75, 47403.76, 72728.73, -158444.81, -186277.00, -186279.98, -1559.68, 0.02, 0.00, 1.07
131, 3471.00, 58703.34, 48579.61, 73367.01, -159773.30, -187498.66, -187500.02, -2884.96, 0.02, 0.00, 1.07
132, 2954.72, 53009.13, 48520.14, 71718.34, -159697.83, -187376.61, -187478.38, -2800.29, 0.02, 0.00, 1.07
133, 2689.43, 50049.42, 46966.85, 69751.27, -157964.67, -185711.27, -185578.38, -1047.65, 0.02, 0.00, 1.07
134, 3426.59, 55918.16, 47102.28, 72128.92, -158167.00, -185921.47, -185873.80, -1239.78, 0.01, -0.00, 1.07
135, 3590.83, 59079.64, 48468.15, 73545.93, -159788.17, -187429.92, -187500.02, -2857.96, 0.01, -0.00, 1.07
136, 3024.84, 54213.84, 48659.14, 72096.63, -159880.55, -187464.98, -187500.02, -2939.48, 0.01, -0.00, 1.07
137, 2717.28, 49842.29, 47230.96, 69924.01, -158413.52, -186039.00, -185944.00, -1451.68, 0.01, -0.00, 1.07
138, 3263.22, 54742.13, 46884.91, 71511.88, -157911.14, -185579.91, -185481.05, -933.45, 0.01, -0.00, 1.07
139, 3683.86, 59184.64, 48285.71, 73637.44, -159745.78, -187305.05, -187471.81, -2763.73, 0.02, 0.00, 1.08
140, 3076.99, 55441.31, 48721.08, 72401.57, -160007.02, -187500.02, -187500.02, -3018.60, 0.02, 0.00, 1.08
141, 2748.35, 49954.58, 47520.79, 70205.15, -158903.50, -186428.94, -186355.78, -1897.28, 0.02, 0.00, 1.08
142, 3093.88, 53477.84, 46709.87, 70892.11, -157787.02, -185376.75, -185236.86, -760.81, 0.02, 0.00, 1.08
143, 3753.33, 58960.21, 48066.55, 73616.14, -159654.80, -187127.55, -187271.31, -2623.36, 0.02, 0.00, 1.08
144, 3187.34, 56559.30, 48737.51, 72716.55, -160135.25, -187500.02, -187500.02, -3094.80, 0.02, 0.00, 1.08
145, 2816.52, 50447.30, 47833.98, 70600.76, -159364.36, -186751.81, -186748.13, -2308.42, 0.02, -0.01, 1.07
146, 2936.95, 52300.64, 46686.49, 70370.76, -157791.47, -185260.84, -185120.42, -712.64, 0.02, -0.01, 1.07
147, 3743.83, 58432.40, 47856.11, 73422.53, -159501.06, -186881.28, -186995.11, -2414.32, 0.02, -0.01, 1.07
148, 3286.78, 57498.21, 48720.23, 72980.61, -160243.83, -187500.02, -187500.02, -3147.77, 0.02, -0.01, 1.07
149, 2872.22, 51200.65, 48146.39, 71030.38, -159788.06, -187039.53, -187100.83, -2677.27, 0.02, -0.01, 1.07
150, 2807.11, 51269.69, 46726.75, 69985.52, -157957.20, -185300.05, -185162.22, -825.32, 0.02, -0.00, 1.07
151, 3669.80, 57714.86, 47564.40, 73068.05, -159230.30, -186519.59, -186582.08, -2091.81, 0.02, -0.00, 1.07
152, 3392.39, 58319.81, 48639.94, 73227.46, -160309.17, -187500.02, -187500.02, -3165.41, 0.02, -0.00, 1.07
153, 2926.71, 52184.68, 48406.10, 71459.22, -160107.78, -187267.36, -187350.44, -2953.43, 0.02, -0.00, 1.07
154, 2734.49, 50463.66, 46820.49, 69798.17, -158245.34, -185484.36, -185341.34, -1067.43, 0.02, -0.00, 1.07
155, 3547.91, 56762.63, 47292.58, 72575.02, -158924.58, -186145.95, -186138.50, -1735.26, 0.03, -0.00, 1.08
156, 3518.30, 58845.05, 48563.21, 73449.02, -160368.94, -187465.11, -187500.02, -3171.58, 0.03, -0.00, 1.08
157, 2994.31, 53348.49, 48559.12, 71865.28, -160355.50, -187390.78, -187500.02, -3143.91, 0.03, -0.00, 1.08
158, 2727.43, 49979.04, 47051.16, 69832.57, -158670.42, -185774.14, -185659.06, -1435.05, 0.03, -0.00, 1.08
159, 3395.70, 55609.17, 47041.61, 71986.41, -158683.34, -185801.08, -185748.00, -1431.99, 0.03, -0.00, 1.08
160, 3630.73, 59120.74, 48368.28, 73607.11, -160401.00, -187403.41, -187500.02, -3142.25, 0.03, -0.00, 1.07
161, 3050.74, 54557.19, 48632.77, 72208.96, -160537.89, -187476.70, -187500.02, -3267.24, 0.03, -0.00, 1.07
162, 2733.15, 49847.92, 47281.34, 70016.26, -159159.22, -186136.84, -186045.08, -1865.39, 0.03, -0.00, 1.07
163, 3228.22, 54384.07, 46824.96, 71360.22, -158479.03, -185501.23, -185395.33, -1165.13, 0.03, -0.00, 1.07
164, 3724.78, 59106.66, 48203.05, 73666.90, -160367.86, -187264.88, -187440.98, -3046.88, 0.03, -0.00, 1.07
165, 3127.77, 55748.07, 48709.37, 72514.35, -160683.63, -187500.02, -187500.02, -3349.79, 0.03, -0.01, 1.07
166, 2781.29, 50090.53, 47623.72, 70337.74, -159665.02, -186501.63, -186459.50, -2308.62, 0.03, -0.01, 1.07
167, 3050.07, 53170.24, 46719.41, 70758.87, -158397.78, -185299.36, -185165.63, -1015.53, 0.03, -0.01, 1.07
168, 3759.88, 58826.68, 48024.42, 73594.55, -160260.53, -187054.84, -187190.42, -2869.99, 0.03, -0.01, 1.07
169, 3218.16, 56841.42, 48722.75, 72803.32, -160808.91, -187500.02, -187500.02, -3404.66, 0.03, -0.01, 1.07
170, 2835.30, 50631.15, 47924.42, 70735.36, -160144.77, -186841.02, -186842.27, -2720.41, 0.02, -0.00, 1.09
171, 2903.89, 52005.46, 46649.27, 70254.86, -158469.55, -185250.77, -185088.94, -1019.60, 0.02, -0.00, 1.09
172, 3740.85, 58297.48, 47750.48, 73353.73, -160051.50, -186755.05, -186826.61, -2592.33, 0.02, -0.00, 1.09
173, 3327.24, 57790.48, 48670.96, 73074.69, -160911.13, -187500.02, -187500.02, -3441.14, 0.02, -0.00, 1.09
174, 2905.64, 51490.95, 48169.55, 71180.02, -160533.05, -187114.50, -187152.61, -3045.69, 0.02, -0.00, 1.09
175, 2800.90, 51050.78, 46725.16, 69937.31, -158672.25, -185340.03, -185171.77, -1159.07, 0.03, -0.01, 1.08
176, 3651.74, 57469.35, 47470.86, 72959.35, -159809.36, -186423.53, -186444.59, -2283.39, 0.03, -0.01, 1.08
177, 3434.12, 58471.29, 48567.50, 73295.68, -161013.84, -187500.02, -187500.02, -3475.85, 0.03, -0.01, 1.08
178, 2954.07, 52532.01, 48403.26, 71588.01, -160867.59, -187309.69, -187404.59, -3314.18, 0.03, -0.01, 1.08
179, 2738.67, 50325.71, 46849.57, 69808.18, -159045.52, -185567.63, -185420.05, -1465.63, 0.03, -0.01, 1.08
180, 3538.39, 56434.71, 47184.15, 72449.09, -159565.61, -186069.13, -186041.92, -1969.35, 0.02, -0.00, 1.07
181, 3566.35, 58949.21, 48451.90, 73513.72, -161097.75, -187463.42, -187500.02, -3490.60, 0.02, -0.00, 1.07
182, 3012.43, 53681.71, 48562.38, 71967.61, -161133.94, -187434.77, -187500.02, -3511.03, 0.02, -0.00, 1.07
183, 2731.23, 49925.77, 47079.97, 69875.20, -159517.17, -185876.50, -185769.91, -1867.47, 0.02, -0.00, 1.07
184, 3381.06, 55297.39, 46956.97, 71834.21, -159311.73, -185697.55, -185626.36, -1643.88, 0.02, -0.00, 1.07
185, 3680.75, 59150.67, 48314.28, 73641.62, -161102.98, -187369.39, -187500.02, -3427.71, 0.02, -0.00, 1.07
186, 3065.72, 54917.32, 48637.30, 72299.73, -161292.55, -187492.48, -187500.02, -3605.90, 0.02, -0.00, 1.07
187, 2722.42, 49881.13, 47377.79, 70081.03, -160022.13, -186251.47, -186178.31, -2314.68, 0.02, -0.00, 1.07
188, 3141.34, 54035.03, 46770.60, 71149.69, -159145.88, -185431.31, -185313.05, -1416.34, 0.02, -0.00, 1.07
189, 3698.23, 59054.04, 48160.54, 73629.84, -161042.39, -187209.17, -187370.89, -3305.67, 0.02, -0.00, 1.07
190, 3101.26, 56051.07, 48695.69, 72571.09, -161430.97, -187500.02, -187500.02, -3682.29, 0.02, -0.00, 1.07
191, 2728.43, 50168.85, 47585.54, 70393.89, -160528.55, -186619.53, -186597.94, -2759.75, 0.02, -0.00, 1.07
192, 2918.87, 52761.34, 46478.13, 70532.88, -159123.61, -185291.81, -185153.89, -1330.51, 0.02, -0.00, 1.07
193, 3681.62, 58638.77, 47655.64, 73483.99, -160912.48, -186977.72, -187109.00, -3112.39, 0.02, -0.00, 1.07
194, 3170.91, 57073.41, 48313.68, 72831.16, -161537.86, -187500.02, -187500.02, -3730.51, 0.02, -0.00, 1.07
195, 2770.68, 50813.71, 47429.55, 70809.79, -160962.11, -186920.08, -186954.14, -3140.13, 0.02, -0.00, 1.07
196, 2769.81, 51700.23, 46055.45, 70081.61, -159191.13, -185244.25, -185099.02, -1347.27, 0.01, 0.00, 1.06
197, 3627.00, 57919.67, 47169.46, 73187.21, -160710.52, -186687.33, -186776.13, -2861.96, 0.01, 0.00, 1.06
198, 3281.30, 57762.56, 48310.97, 73078.84, -161694.39, -187500.02, -187500.02, -3840.86, 0.01, 0.00, 1.06
199, 2856.71, 51680.79, 48035.86, 71226.24, -161366.52, -187148.09, -187283.61, -3498.79, 0.01, 0.00, 1.06
200, 2580.29, 51461.29, 46566.93, 69747.55, -159227.31, -185108.48, -185008.64, -1332.97, 0.01, 0.00, 1.06
201, 3454.57, 57069.84, 47625.29, 72745.34, -160335.41, -186173.39, -186249.64, -2429.79, 0.01, 0.00, 1.07
202, 3439.17, 58003.98, 48741.29, 73320.27, -161856.83, -187500.02, -187500.02, -3942.31, 0.01, 0.00, 1.07
203, 2935.86, 52539.61, 48442.22, 71639.62, -161737.69, -187347.75, -187500.02, -3809.18, 0.01, 0.00, 1.07
204, 2534.89, 51333.24, 46631.46, 69653.13, -159506.92, -185203.33, -185166.19, -1554.72, 0.01, 0.00, 1.07
205, 3150.32, 57045.00, 47320.83, 72141.08, -159673.33, -185394.58, -185421.45, -1710.47, 0.01, 0.00, 1.07
206, 3554.31, 58232.64, 48858.54, 73553.24, -161798.73, -187382.42, -187500.02, -3833.17, 0.02, 0.00, 1.08
207, 3081.50, 53105.35, 48703.04, 72070.98, -162082.02, -187500.02, -187500.02, -4101.86, 0.02, 0.00, 1.08
208, 2627.40, 50537.27, 46772.57, 69801.88, -160177.72, -185680.58, -185741.56, -2169.15, 0.02, 0.00, 1.08
209, 2972.74, 56081.42, 46859.22, 71496.48, -159435.14, -185007.33, -185041.80, -1407.82, 0.02, 0.00, 1.08
210, 3638.64, 58438.95, 48661.07, 73675.95, -161785.75, -187233.66, -187500.02, -3755.05, 0.02, 0.00, 1.08
211, 3167.60, 54147.68, 48772.20, 72419.60, -162307.67, -187500.02, -187500.02, -4265.05, 0.02, 0.00, 1.07
212, 2729.53, 50207.36, 47084.13, 70108.75, -160847.97, -186154.38, -186324.19, -2780.29, 0.02, 0.00, 1.07
213, 2805.72, 55082.81, 46521.40, 70856.01, -159299.61, -184708.23, -184762.47, -1209.05, 0.02, 0.00, 1.07
214, 3663.07, 58510.79, 48498.50, 73653.24, -161608.52, -186916.92, -187241.41, -3515.33, 0.02, 0.00, 1.07
215, 3265.68, 55190.55, 48864.42, 72723.79, -162419.64, -187500.02, -187500.02, -4317.37, 0.02, 0.00, 1.07
216, 2841.55, 50252.69, 47450.25, 70514.52, -161443.56, -186581.06, -186840.64, -3319.99, 0.02, 0.00, 1.08
217, 2665.69, 53986.19, 46337.04, 70295.70, -159322.69, -184578.38, -184650.53, -1175.37, 0.02, 0.00, 1.08
218, 3597.09, 58347.98, 48243.33, 73459.81, -161369.33, -186552.75, -186858.77, -3217.31, 0.02, 0.00, 1.08
219, 3352.76, 56166.42, 48898.29, 72994.23, -162519.89, -187500.02, -187500.02, -4359.98, 0.02, 0.00, 1.08
220, 2924.37, 50637.38, 47808.68, 70956.02, -161962.02, -186947.13, -187265.95, -3784.19, 0.02, 0.00, 1.08
221, 2581.09, 52882.01, 46209.28, 69888.34, -159529.33, -184632.48, -184720.89, -1326.13, 0.03, 0.00, 1.08
222, 3490.36, 58016.14, 47902.45, 73107.14, -161030.05, -186093.75, -186369.64, -2821.26, 0.03, 0.00, 1.08
223, 3479.92, 57009.42, 48915.00, 73267.63, -162572.03, -187493.91, -187500.02, -4358.05, 0.03, 0.00, 1.08
224, 3034.23, 51318.17, 48157.35, 71432.41, -162376.45, -187217.16, -187500.02, -4147.61, 0.03, 0.00, 1.08
225, 2572.71, 51908.06, 46273.94, 69699.48, -159891.45, -184836.89, -184965.03, -1636.17, 0.03, 0.00, 1.08
226, 3312.48, 57503.57, 47531.74, 72606.42, -160637.25, -185586.17, -185825.72, -2373.20, 0.02, -0.00, 1.08
227, 3570.42, 57653.35, 48854.54, 73484.76, -162580.03, -187410.34, -187500.02, -4313.53, 0.02, -0.00, 1.08
228, 3107.65, 52197.20, 48441.91, 71846.15, -162680.03, -187407.64, -187500.02, -4400.70, 0.02, -0.00, 1.08
229, 2612.38, 51052.59, 46450.90, 69694.10, -160417.48, -185218.31, -185391.83, -2110.72, 0.02, -0.00, 1.08
230, 3122.61, 56778.55, 47087.19, 71983.30, -160271.64, -185113.88, -185322.64, -1951.91, 0.02, -0.00, 1.08
231, 3652.48, 58099.76, 48743.03, 73649.51, -162542.34, -187272.61, -187500.02, -4222.74, 0.03, -0.01, 1.07
232, 3162.97, 53268.79, 48637.59, 72211.53, -162885.41, -187500.02, -187500.02, -4555.71, 0.03, -0.01, 1.07
233, 2680.58, 50510.92, 46743.91, 69894.22, -161008.64, -185683.28, -185895.27, -2657.42, 0.03, -0.01, 1.07
234, 2910.85, 55895.52, 46693.42, 71324.19, -159979.75, -184727.27, -184893.22, -1611.54, 0.03, -0.01, 1.07
235, 3681.91, 58337.07, 48582.14, 73720.41, -162402.45, -187049.19, -187481.00, -4034.56, 0.03, -0.01, 1.07
236, 3230.86, 54361.43, 48736.37, 72531.23, -163000.56, -187500.02, -187500.02, -4625.76, 0.02, -0.00, 1.07
237, 2776.04, 50280.54, 47117.05, 70234.09, -161620.58, -186172.77, -186430.73, -3227.23, 0.02, -0.00, 1.07
238, 2760.06, 54888.15, 46421.78, 70708.69, -159842.70, -184490.47, -184630.92, -1430.09, 0.02, -0.00, 1.07
239, 3675.21, 58413.24, 48383.05, 73648.39, -162166.69, -186743.41, -187128.81, -3755.41, 0.02, -0.00, 1.07
240, 3319.77, 55423.29, 48804.00, 72840.22, -163079.27, -187500.02, -187500.02, -4664.56, 0.02, -0.00, 1.07
241, 2877.90, 50349.20, 47440.32, 70651.42, -162178.86, -186631.92, -186931.34, -3747.60, 0.02, 0.00, 1.07
242, 2632.54, 53752.28, 46183.26, 70175.31, -159902.70, -184464.00, -184578.67, -1446.52, 0.02, 0.00, 1.07
243, 3581.82, 58236.98, 48069.91, 73404.71, -161856.84, -186364.92, -186697.41, -3398.92, 0.02, 0.00, 1.07
244, 3414.92, 56360.17, 48790.35, 73111.86, -163135.08, -187500.02, -187500.02, -4674.17, 0.02, 0.00, 1.07
245, 2963.15, 50805.71, 47779.49, 71110.77, -162665.06, -186997.33, -187354.58, -4189.75, 0.02, 0.00, 1.07
246, 2560.91, 52689.45, 46059.19, 69814.24, -160124.56, -184569.97, -184688.44, -1624.90, 0.02, 0.00, 1.07
247, 3437.18, 57919.25, 47641.27, 72996.86, -161443.25, -185871.84, -186146.42, -2937.56, 0.02, 0.00, 1.07
248, 3500.15, 57181.55, 48713.79, 73334.69, -163150.27, -187475.19, -187500.02, -4640.18, 0.02, 0.00, 1.07
249, 3043.88, 51554.25, 48069.73, 71551.04, -163039.09, -187270.22, -187500.02, -4515.25, 0.02, 0.00, 1.07
250, 2567.70, 51690.40, 46132.77, 69665.60, -160541.42, -184868.86, -185000.44, -1992.12, 0.02, 0.00, 1.07
251, 3255.87, 57305.36, 47234.58, 72453.83, -161044.47, -185385.70, -185610.64, -2485.09, 0.02, 0.00, 1.07
252, 3616.42, 57758.61, 48629.37, 73568.88, -163131.83, -187360.25, -187500.02, -4572.72, 0.02, 0.00, 1.07
253, 3139.70, 52512.32, 48255.49, 71975.45, -163287.06, -187422.08, -187500.02, -4717.54, 0.02, 0.00, 1.07
254, 2614.77, 50937.37, 46266.79, 69725.77, -161084.50, -185285.88, -185458.94, -2488.96, 0.02, 0.00, 1.07
255, 3027.12, 56547.27, 46751.64, 71781.80, -160677.67, -184930.38, -185112.73, -2066.69, 0.02, 0.00, 1.07
0, 3655.49, 58155.91, 48469.51, 73679.02, -163039.05, -187204.06, -187500.02, -4430.25, 0.02, 0.00, 1.07
1, 3156.92, 53576.70, 48380.04, 72289.74, -163452.92, -187500.02, -187500.02, -4837.36, 0.02, -0.00, 1.07
2, 2674.94, 50423.61, 46553.86, 69948.28, -161699.16, -185781.97, -185993.53, -3060.33, 0.02, -0.00, 1.07
3, 2826.20, 55639.57, 46352.64, 71109.05, -160420.61, -184589.11, -184727.42, -1762.52, 0.02, -0.00, 1.07
4, 3653.93, 58360.27, 48273.69, 73704.41, -162863.98, -186956.05, -187340.22, -4206.80, 0.02, -0.00, 1.07
5, 3223.10, 54650.15, 48500.96, 72613.73, -163565.09, -187500.02, -187500.02, -4902.50, 0.02, -0.00, 1.07
6, 2779.26, 50266.34, 46959.70, 70320.10, -162315.88, -186298.97, -186546.53, -3636.05, 0.02, 0.00, 1.07
7, 2680.15, 54581.35, 46103.69, 70503.59, -160346.73, -184434.83, -184539.14, -1646.54, 0.02, 0.00, 1.07
8, 3618.95, 58317.46, 48111.37, 73565.47, -162617.63, -186626.91, -186983.06, -3920.47, 0.02, 0.00, 1.07
9, 3336.76, 55616.84, 48633.10, 72921.63, -163670.39, -187500.02, -187500.02, -4968.57, 0.02, 0.00, 1.07
10, 2904.30, 50378.35, 47429.08, 70798.21, -162944.38, -186782.25, -187108.59, -4223.38, 0.02, 0.00, 1.07
11, 2591.95, 53350.95, 46050.09, 70042.56, -160554.27, -184509.83, -184624.20, -1806.74, 0.03, -0.01, 1.08
12, 3536.67, 57988.87, 47916.53, 73281.17, -162345.09, -186249.48, -186573.16, -3594.43, 0.03, -0.01, 1.08
13, 3438.88, 56459.45, 48767.21, 73163.85, -163749.36, -187500.02, -187500.02, -4995.26, 0.03, -0.01, 1.08
14, 2985.66, 50882.65, 47867.51, 71227.20, -163395.20, -187099.81, -187490.98, -4628.53, 0.03, -0.01, 1.08
15, 2537.95, 52330.68, 46092.45, 69726.45, -160818.88, -184634.55, -184779.45, -2025.52, 0.03, -0.01, 1.08
16, 3377.15, 57586.38, 47627.65, 72855.24, -161967.28, -185764.83, -186065.23, -3166.66, 0.03, -0.00, 1.07
17, 3539.47, 57192.73, 48780.67, 73391.84, -163747.47, -187454.23, -187500.02, -4945.70, 0.03, -0.00, 1.07
18, 3067.24, 51752.09, 48228.13, 71679.43, -163678.47, -187305.73, -187500.02, -4867.52, 0.03, -0.00, 1.07
19, 2546.40, 51449.22, 46249.02, 69627.05, -161222.20, -184934.55, -185068.92, -2385.67, 0.03, -0.00, 1.07
20, 3172.92, 57068.41, 47286.88, 72257.91, -161477.17, -185214.44, -185419.77, -2630.11, 0.03, -0.00, 1.07
21, 3615.57, 57774.12, 48789.52, 73585.56, -163684.75, -187344.52, -187500.02, -4838.59, 0.03, -0.01, 1.07
22, 3117.87, 52750.18, 48512.71, 72040.72, -163887.39, -187463.81, -187500.02, -5032.65, 0.03, -0.01, 1.07
23, 2626.89, 50759.25, 46561.23, 69761.22, -161784.42, -185415.84, -185558.56, -2905.32, 0.03, -0.01, 1.07
24, 2970.64, 56305.14, 46857.41, 71581.37, -161094.09, -184784.91, -184920.16, -2198.61, 0.03, -0.01, 1.07
25, 3672.68, 58152.78, 48671.91, 73708.23, -163539.86, -187140.31, -187500.02, -4645.30, 0.03, -0.01, 1.07
26, 3203.03, 53832.41, 48693.00, 72404.61, -164018.86, -187500.02, -187500.02, -5118.82, 0.03, -0.00, 1.06
27, 2711.13, 50369.90, 46924.38, 70043.62, -162376.81, -185910.05, -186086.17, -3457.46, 0.03, -0.00, 1.06
28, 2773.02, 55376.02, 46572.83, 70917.86, -160864.66, -184488.30, -184571.06, -1927.55, 0.03, -0.00, 1.06
29, 3657.95, 58326.72, 48556.04, 73697.05, -163305.33, -186857.36, -187185.92, -4369.23, 0.03, -0.00, 1.06
30, 3262.48, 54909.47, 48834.29, 72718.00, -164094.92, -187500.02, -187500.02, -5152.75, 0.03, -0.00, 1.06
31, 2814.40, 50281.57, 47324.41, 70443.73, -162979.13, -186413.97, -186630.89, -4017.03, 0.02, 0.00, 1.06
32, 2635.67, 54302.73, 46303.02, 70330.19, -160816.11, -184362.30, -184418.84, -1831.03, 0.02, 0.00, 1.06
33, 3593.02, 58278.80, 48279.23, 73514.17, -162988.73, -186480.53, -186763.22, -4001.34, 0.02, 0.00, 1.06
34, 3351.04, 55887.38, 48854.96, 72999.07, -164154.38, -187500.02, -187500.02, -5163.34, 0.02, 0.00, 1.06
35, 2919.54, 50556.61, 47716.39, 70928.72, -163511.66, -186854.91, -187122.19, -4506.27, 0.02, 0.00, 1.06
36, 2561.71, 53169.90, 46171.28, 69933.38, -160999.52, -184458.30, -184509.55, -1967.20, 0.02, 0.00, 1.07
37, 3502.94, 57963.44, 47904.84, 73189.35, -162645.13, -186065.77, -186310.30, -3608.82, 0.02, 0.00, 1.07
38, 3468.07, 56694.26, 48833.38, 73246.48, -164203.44, -187490.20, -187500.02, -5162.87, 0.02, 0.00, 1.07
39, 3022.67, 51132.65, 48065.93, 71359.66, -163937.50, -187161.13, -187499.17, -4881.20, 0.02, 0.00, 1.07
40, 2549.93, 52126.14, 46224.50, 69673.83, -161340.83, -184675.61, -184756.55, -2258.84, 0.02, 0.00, 1.07
41, 3313.67, 57532.76, 47543.14, 72674.23, -162213.22, -185548.66, -185752.95, -3120.91, 0.02, 0.00, 1.07
42, 3568.66, 57418.32, 48822.36, 73481.38, -164183.13, -187403.02, -187500.02, -5089.78, 0.02, 0.00, 1.08
43, 3085.90, 52018.36, 48357.26, 71805.94, -164220.89, -187357.14, -187500.02, -5118.77, 0.02, 0.00, 1.08
44, 2551.83, 51276.11, 46335.52, 69654.45, -161830.33, -185056.20, -185175.05, -2705.41, 0.02, 0.00, 1.08
45, 3097.15, 56906.38, 47123.69, 72053.48, -161790.91, -185055.31, -185222.55, -2654.36, 0.02, 0.00, 1.08
46, 3624.27, 57913.90, 48754.27, 73645.06, -164097.92, -187279.09, -187500.02, -4960.17, 0.02, 0.00, 1.08
47, 3135.26, 53035.84, 48568.73, 72174.00, -164416.19, -187500.02, -187500.02, -5269.89, 0.02, -0.00, 1.08
48, 2615.80, 50607.43, 46651.98, 69835.14, -162432.05, -185564.31, -185711.03, -3264.20, 0.02, -0.00, 1.08
49, 2888.99, 56044.36, 46749.99, 71394.51, -161465.47, -184671.30, -184781.28, -2282.94, 0.02, -0.00, 1.08
50, 3666.31, 58177.57, 48612.88, 73725.39, -163949.84, -187068.05, -187435.33, -4768.19, 0.02, -0.00, 1.08
51, 3222.32, 54091.20, 48708.50, 72514.40, -164533.84, -187500.02, -187500.02, -5345.11, 0.02, -0.00, 1.08
52, 2767.39, 50309.84, 47037.21, 70182.46, -163048.03, -186072.03, -186272.17, -3838.46, 0.02, -0.00, 1.08
53, 2739.83, 55076.62, 46460.80, 70768.03, -161304.42, -184429.84, -184518.03, -2074.91, 0.02, -0.00, 1.08
54, 3651.92, 58287.11, 48420.43, 73665.96, -163713.38, -186764.52, -187102.53, -4485.26, 0.02, -0.00, 1.08
55, 3311.03, 55163.23, 48773.25, 72809.24, -164607.31, -187500.02, -187500.02, -5373.34, 0.02, -0.00, 1.08
56, 2900.76, 50345.65, 47402.28, 70606.84, -163611.64, -186534.38, -186782.88, -4358.61, 0.02, -0.00, 1.08
57, 2774.10, 54003.55, 46224.73, 70202.71, -161308.13, -184346.97, -184412.77, -2031.93, 0.02, 0.00, 1.07
58, 3829.10, 58197.93, 48175.63, 73443.38, -163368.94, -186359.09, -186641.73, -4089.77, 0.02, 0.00, 1.07
59, 3675.27, 56144.54, 48827.54, 73086.96, -164632.80, -187500.02, -187500.02, -5349.04, 0.02, 0.00, 1.07
60, 3247.31, 50703.68, 47763.96, 71057.49, -164098.20, -186927.47, -187222.05, -4799.68, 0.02, 0.00, 1.07
61, 2826.91, 52875.46, 46154.83, 69815.18, -161520.41, -184465.39, -184527.80, -2198.14, 0.02, 0.00, 1.07
62, 3751.40, 57881.38, 47856.74, 73068.52, -162960.80, -185890.64, -186117.52, -3636.14, 0.02, -0.00, 1.08
63, 3834.64, 56943.32, 48847.10, 73349.84, -164653.88, -187484.66, -187500.02, -5327.63, 0.02, -0.00, 1.08
64, 3387.09, 51389.77, 48148.92, 71513.15, -164495.95, -187237.55, -187500.02, -5156.19, 0.02, -0.00, 1.08
65, 2895.89, 51905.31, 46272.76, 69669.13, -161919.11, -184763.80, -184848.11, -2553.44, 0.02, -0.00, 1.08
66, 3608.40, 57392.86, 47482.82, 72512.86, -162536.14, -185396.81, -185582.22, -3162.01, 0.02, -0.00, 1.08
67, 3947.45, 57571.18, 48824.90, 73540.77, -164613.03, -187380.09, -187500.02, -5240.37, 0.02, -0.01, 1.08
68, 3497.33, 52308.11, 48428.92, 71931.51, -164729.72, -187406.11, -187500.02, -5348.01, 0.02, -0.01, 1.08
69, 2974.99, 51083.37, 46460.76, 69690.68, -162449.86, -185200.22, -185304.58, -3042.72, 0.02, -0.01, 1.08
70, 3428.51, 56694.13, 47061.21, 71861.46, -162147.69, -184946.44, -185072.22, -2726.85, 0.02, -0.01, 1.08
71, 4033.91, 58012.65, 48750.92, 73682.59, -164536.30, -187229.30, -187500.02, -5116.74, 0.02, -0.01, 1.08
72, 3576.90, 53332.73, 48636.25, 72283.70, -164914.08, -187500.02, -187500.02, -5484.65, 0.03, -0.01, 1.08
73, 3071.76, 50479.98, 46761.08, 69906.66, -163071.27, -185710.80, -185861.66, -3618.26, 0.03, -0.01, 1.08
74, 3259.91, 55789.08, 46697.11, 71182.32, -161872.56, -184595.00, -184687.97, -2400.98, 0.03, -0.01, 1.08
75, 4099.11, 58238.30, 48598.64, 73713.08, -164360.39, -186999.84, -187347.02, -4888.93, 0.03, -0.01, 1.08
76, 3681.31, 54393.15, 48757.58, 72608.55, -165030.28, -187500.02, -187500.02, -5550.85, 0.03, -0.01, 1.08
77, 3218.29, 50261.79, 47152.61, 70286.76, -163684.72, -186207.22, -186420.19, -4183.04, 0.03, -0.00, 1.07
78, 3120.59, 54769.13, 46400.34, 70573.09, -161750.45, -184384.23, -184457.34, -2225.29, 0.03, -0.00, 1.07
79, 4079.64, 58290.42, 48391.79, 73622.82, -164094.52, -186662.03, -186979.25, -4568.90, 0.03, -0.00, 1.07
80, 3760.68, 55462.52, 48849.27, 72891.14, -165079.89, -187500.02, -187500.02, -5550.68, 0.03, -0.00, 1.07
81, 3316.89, 50391.25, 47558.72, 70718.32, -164229.13, -186666.05, -186921.53, -4684.63, 0.03, -0.00, 1.07
82, 3018.67, 53658.47, 46223.25, 70063.98, -161823.14, -184377.56, -184440.08, -2255.22, 0.02, -0.01, 1.06
83, 3974.05, 58142.70, 48066.11, 73345.99, -163723.81, -186241.39, -186509.08, -4157.38, 0.02, -0.01, 1.06
84, 3867.32, 56416.61, 48829.26, 73171.59, -165094.19, -187500.02, -187500.02, -5527.34, 0.02, -0.01, 1.06
85, 3427.10, 50882.29, 47902.43, 71190.28, -164678.69, -187031.14, -187342.64, -5097.94, 0.02, -0.01, 1.06
86, 2961.74, 52603.62, 46221.77, 69734.67, -162066.13, -184535.14, -184606.88, -2459.63, 0.02, -0.01, 1.06
87, 3835.58, 57769.67, 47782.39, 72900.84, -163292.25, -185754.19, -185974.20, -3681.40, 0.02, -0.01, 1.07
88, 3969.85, 57167.63, 48837.20, 73392.06, -165085.80, -187462.78, -187500.02, -5474.32, 0.02, -0.01, 1.07
89, 3498.54, 51617.53, 48247.49, 71615.34, -165012.22, -187302.83, -187500.02, -5390.44, 0.02, -0.01, 1.07
90, 2970.86, 51592.00, 46317.13, 69616.85, -162510.81, -184898.92, -184975.97, -2863.06, 0.02, -0.01, 1.07
91, 3624.18, 57163.45, 47368.13, 72305.03, -162876.84, -185289.08, -185447.03, -3218.54, 0.02, -0.01, 1.07
92, 4051.90, 57713.43, 48804.79, 73576.64, -165056.45, -187348.72, -187500.02, -5396.36, 0.02, -0.01, 1.07
93, 3568.55, 52581.98, 48475.32, 72011.44, -165241.92, -187447.47, -187500.02, -5572.92, 0.01, 0.00, 1.07
94, 3057.14, 50873.02, 46538.10, 69720.72, -163051.36, -185333.33, -185455.23, -3359.89, 0.01, 0.00, 1.07
95, 3425.32, 56450.29, 46968.01, 71648.60, -162492.45, -184832.56, -184960.95, -2785.90, 0.01, 0.00, 1.07
96, 4104.45, 58131.27, 48705.10, 73701.14, -164909.28, -187172.05, -187500.02, -5202.23, 0.01, 0.00, 1.07
97, 3623.64, 53695.17, 48683.13, 72374.30, -165353.39, -187500.02, -187500.02, -5639.73, 0.01, 0.00, 1.07
98, 3121.85, 50429.94, 46884.13, 70001.46, -163653.48, -185847.31, -186004.97, -3918.66, 0.01, 0.01, 1.07
99, 3221.87, 55541.76, 46614.14, 70989.49, -162226.34, -184512.39, -184586.72, -2473.11, 0.01, 0.01, 1.07
100, 4089.30, 58331.82, 48559.25, 73691.42, -164688.59, -186904.77, -187225.11, -4935.22, 0.01, 0.01, 1.07
101, 3687.88, 54772.12, 48755.61, 72681.08, -165425.13, -187500.02, -187500.02, -5663.46, 0.01, 0.01, 1.07
102, 3238.50, 50281.88, 47247.79, 70389.28, -164239.73, -186348.47, -186545.11, -4458.41, 0.01, 0.01, 1.07
