%OpenBCI Raw EEG Data
%
%Sample Rate = 250.0 Hz
%First Column = SampleIndex
%Other Columns = EEG data in microvolts followed by Accel Data (in G) interleaved with Aux Data
0, 95022.20, -187500.02, -187500.02, -187500.02, -187500.02, -187500.02, -3105.82, 187500.00, -0.00, -0.00, -0.00
1, 95023.01, -187500.02, -187500.02, -187500.02, -187500.02, -187500.02, -3075.40, 187500.00, -0.00, -0.00, -0.00
2, 95022.72, -187500.02, -187500.02, -187500.02, -187500.02, -187500.02, -2995.40, 187500.00, -0.00, -0.00, -0.00
3, 95053.36, -187500.02, -187500.02, -187500.02, -187500.02, -187500.02, -2932.79, 187500.00, -0.00, -0.00, -0.00
4, 95022.02, -187500.02, -187500.02, -187500.02, -187500.02, -187500.02, -2892.90, 187500.00, -0.00, -0.00, -0.00
5, 94961.45, -187500.02, -187500.02, -187500.02, -187500.02, -187500.02, -2825.84, 187500.00, -0.00, -0.00, -0.00
6, 95014.27, -187500.02, -187500.02, -187500.02, -187500.02, -187500.02, -2758.27, 187500.00, -0.00, -0.00, -0.00
7, 95122.27, -187500.02, -187500.02, -187500.02, -187500.02, -187500.02, -2740.82, 187500.00, -0.00, -0.00, -0.00
8, 95092.81, -187500.02, -187500.02, -187500.02, -187500.02, -187500.02, -2711.76, 187500.00, -0.00, -0.00, -0.00
9, 95039.68, -187500.02, -187500.02, -187500.02, -187500.02, -187500.02, -2673.63, 187500.00, -0.00, -0.00, -0.00
10, 95064.07, -187500.02, -187500.02, -187500.02, -187500.02, -187500.02, -2632.83, 187500.00, -0.00, -0.00, -0.00
11, 95146.30, -187500.02, -187500.02, -187500.02, -187500.02, -187500.02, -2606.53, 187500.00, -0.00, -0.00, -0.00
12, 95137.02, -187500.02, -187500.02, -187500.02, -187500.02, -187500.02, -2560.64, 187500.00, -0.00, -0.00, -0.00
13, 95095.76, -187500.02, -187500.02, -187500.02, -187500.02, -187500.02, -2533.73, 187500.00, -0.00, -0.00, -0.00
14, 95089.50, -187500.02, -187500.02, -187500.02, -187500.02, -187500.02, -2498.43, 187500.00, -0.00, -0.00, -0.00
15, 95115.90, -187500.02, -187500.02, -187500.02, -187500.02, -187500.02, -2442.73, 187500.00, -0.00, -0.00, -0.00
16, 95142.12, -187500.02, -187500.02, -187500.02, -187500.02, -187500.02, -2421.30, 187500.00, -0.00, -0.00, -0.00
17, 95099.80, -187500.02, -187500.02, -187500.02, -187500.02, -187500.02, -2396.40, 187500.00, -0.00, -0.00, -0.00
18, 95063.15, -187500.02, -187500.02, -187500.02, -187500.02, -187500.02, -2351.85, 187500.00, -0.00, -0.00, -0.00
19, 95062.39, -187500.02, -187500.02, -187500.02, -187500.02, -187500.02, -2270.65, 187500.00, -0.00, -0.00, -0.00
20, 95086.22, -187500.02, -187500.02, -187500.02, -187500.02, -187500.02, -2209.38, 187500.00, -0.00, -0.00, -0.00
21, 95041.98, -187500.02, -187500.02, -187500.02, -187500.02, -187500.02, -2168.81, 187500.00, -0.00, -0.00, -0.00
22, 95021.87, -187500.02, -187500.02, -187500.02, -187500.02, -187500.02, -2119.17, 187500.00, -0.00, -0.00, -0.00
23, 95094.66, -187500.02, -187500.02, -187500.02, -187500.02, -187500.02, -2092.88, 187500.00, -0.00, -0.00, -0.00
24, 95099.80, -187500.02, -187500.02, -187500.02, -187500.02, -187500.02, -2021.42, 187500.00, -0.00, -0.00, -0.00
25, 95049.56, -187500.02, -187500.02, -187500.02, -187500.02, -187500.02, -1960.40, 187500.00, -0.00, -0.00, -0.00
26, 94999.09, -187500.02, -187500.02, -187500.02, -187500.02, -187500.02, -1898.76, 187500.00, -0.00, -0.00, -0.00
27, 95041.54, -187500.02, -187500.02, -187500.02, -187500.02, -187500.02, -1847.95, 187500.00, -0.00, -0.00, -0.00
28, 95066.48, -187500.02, -187500.02, -187500.02, -187500.02, -187500.02, -1796.50, 187500.00, -0.00, -0.00, -0.00
29, 95024.59, -187500.02, -187500.02, -187500.02, -187500.02, -187500.02, -1711.29, 187500.00, -0.00, -0.00, -0.00
30, 95014.20, -187500.02, -187500.02, -187500.02, -187500.02, -187500.02, -1668.65, 187500.00, -0.00, -0.00, -0.00
31, 95036.66, -187500.02, -187500.02, -187500.02, -187500.02, -187500.02, -1632.08, 187500.00, -0.00, -0.00, -0.00
32, 95065.16, -187500.02, -187500.02, -187500.02, -187500.02, -187500.02, -1557.94, 187500.00, -0.00, -0.00, -0.00
33, 95078.59, -187500.02, -187500.02, -187500.02, -187500.02, -187500.02, -1526.53, 187500.00, -0.00, -0.00, -0.00
34, 95008.26, -187500.02, -187500.02, -187500.02, -187500.02, -187500.02, -1471.84, 187500.00, -0.00, -0.00, -0.00
35, 95006.16, -187500.02, -187500.02, -187500.02, -187500.02, -187500.02, -1381.99, 187500.00, -0.00, -0.00, -0.00
36, 95045.45, -187500.02, -187500.02, -187500.02, -187500.02, -187500.02, -1327.83, 187500.00, -0.00, -0.00, -0.00
37, 95023.68, -187500.02, -187500.02, -187500.02, -187500.02, -187500.02, -1254.45, 187500.00, -0.00, -0.00, -0.00
38, 95013.93, -187500.02, -187500.02, -187500.02, -187500.02, -187500.02, -1242.62, 187500.00, -0.00, -0.00, -0.00
39, 95007.65, -187500.02, -187500.02, -187500.02, -187500.02, -187500.02, -1198.97, 187500.00, -0.00, -0.00, -0.00
40, 95080.70, -187500.02, -187500.02, -187500.02, -187500.02, -187500.02, -1143.87, 187500.00, -0.00, -0.00, -0.00
41, 95101.39, -187500.02, -187500.02, -187500.02, -187500.02, -187500.02, -1085.22, 187500.00, -0.00, -0.00, -0.00
42, 95079.38, -187500.02, -187500.02, -187500.02, -187500.02, -187500.02, -1053.86, 187500.00, -0.00, -0.00, -0.00
43, 95059.13, -187500.02, -187500.02, -187500.02, -187500.02, -187500.02, -1018.81, 187500.00, -0.00, -0.00, -0.00
44, 95097.05, -187500.02, -187500.02, -187500.02, -187500.02, -187500.02, -955.49, 187500.00, -0.00, -0.00, -0.00
45, 95131.46, -187500.02, -187500.02, -187500.02, -187500.02, -187500.02, -916.56, 187500.00, -0.00, -0.00, -0.00
49, 95107.27, -187500.02, -187500.02, -187500.02, -187500.02, -187500.02, 5774.37, 187500.00, -0.00, -0.00, -0.00
50, 95149.09, -187500.02, -187500.02, -187500.02, -187500.02, -187500.02, 5798.00, 187500.00, -0.00, -0.00, -0.00
51, 95106.13, -187500.02, -187500.02, -187500.02, -187500.02, -187500.02, 5826.25, 187500.00, -0.00, -0.00, -0.00
52, 95060.87, -187500.02, -187500.02, -187500.02, -187500.02, -187500.02, 5908.68, 187500.00, -0.00, -0.00, -0.00
53, 95116.21, -187500.02, -187500.02, -187500.02, -187500.02, -187500.02, 5954.73, 187500.00, -0.00, -0.00, -0.00
54, 95124.87, -187500.02, -187500.02, -187500.02, -187500.02, -187500.02, 6001.85, 187500.00, -0.00, -0.00, -0.00
55, 95086.59, -187500.02, -187500.02, -187500.02, -187500.02, -187500.02, 6047.87, 187500.00, -0.00, -0.00, -0.00
56, 95062.66, -187500.02, -187500.02, -187500.02, -187500.02, -187500.02, 6073.39, 187500.00, -0.00, -0.00, -0.00
57, 95079.02, -187500.02, -187500.02, -187500.02, -187500.02, -187500.02, 6132.54, 187500.00, -0.00, -0.00, -0.00
58, 95106.76, -187500.02, -187500.02, -187500.02, -187500.02, -187500.02, 6195.55, 187500.00, -0.00, -0.00, -0.00
59, 95081.95, -187500.02, -187500.02, -187500.02, -187500.02, -187500.02, 6250.40, 187500.00, -0.00, -0.00, -0.00
60, 95070.55, -187500.02, -187500.02, -187500.02, -187500.02, -187500.02, 6278.65, 187500.00, -0.00, -0.00, -0.00
61, 95123.91, -187500.02, -187500.02, -187500.02, -187500.02, -187500.02, 6309.07, 187500.00, -0.00, -0.00, -0.00
62, 95209.48, -187500.02, -187500.02, -187500.02, -187500.02, -187500.02, 6318.28, 187500.00, -0.00, -0.00, -0.00
63, 95169.59, -187500.02, -187500.02, -187500.02, -187500.02, -187500.02, 6357.80, 187500.00, -0.00, -0.00, -0.00
64, 95120.51, -187500.02, -187500.02, -187500.02, -187500.02, -187500.02, 6394.30, 187500.00, -0.00, -0.00, -0.00
65, 95122.00, -187500.02, -187500.02, -187500.02, -187500.02, -187500.02, 6446.20, 187500.00, -0.00, -0.00, -0.00
66, 95172.27, -187500.02, -187500.02, -187500.02, -187500.02, -187500.02, 6484.98, 187500.00, -0.00, -0.00, -0.00
67, 95157.81, -187500.02, -187500.02, -187500.02, -187500.02, -187500.02, 6521.81, 187500.00, -0.00, -0.00, -0.00
68, 95137.67, -187500.02, -187500.02, -187500.02, -187500.02, -187500.02, 6542.74, 187500.00, -0.00, -0.00, -0.00
69, 95149.18, -187500.02, -187500.02, -187500.02, -187500.02, -187500.02, 6542.71, 187500.00, -0.00, -0.00, -0.00
70, 95179.23, -187500.02, -187500.02, -187500.02, -187500.02, -187500.02, 6597.25, 187500.00, -0.00, -0.00, -0.00
71, 95224.53, -187500.02, -187500.02, -187500.02, -187500.02, -187500.02, 6611.94, 187500.00, -0.00, -0.00, -0.00
72, 95170.28, -187500.02, -187500.02, -187500.02, -187500.02, -187500.02, 6620.61, 187500.00, -0.00, -0.00, -0.00
73, 95121.89, -187500.02, -187500.02, -187500.02, -187500.02, -187500.02, 6666.83, 187500.00, -0.00, -0.00, -0.00
74, 95171.78, -187500.02, -187500.02, -187500.02, -187500.02, -187500.02, 6687.40, 187500.00, -0.00, -0.00, -0.00
75, 95176.38, -187500.02, -187500.02, -187500.02, -187500.02, -187500.02, 6713.12, 187500.00, -0.00, -0.00, -0.00
76, 95085.23, -187500.02, -187500.02, -187500.02, -187500.02, -187500.02, 6778.81, 187500.00, -0.00, -0.00, -0.00
77, 95054.61, -187500.02, -187500.02, -187500.02, -187500.02, -187500.02, 6846.43, 187500.00, -0.00, -0.00, -0.00
78, 95111.63, -187500.02, -187500.02, -187500.02, -187500.02, -187500.02, 6872.29, 187500.00, -0.00, -0.00, -0.00
79, 95125.60, -187500.02, -187500.02, -187500.02, -187500.02, -187500.02, 6923.18, 187500.00, -0.00, -0.00, -0.00
80, 95105.73, -187500.02, -187500.02, -187500.02, -187500.02, -187500.02, 6959.15, 187500.00, -0.00, -0.00, -0.00
81, 95080.09, -187500.02, -187500.02, -187500.02, -187500.02, -187500.02, 6985.59, 187500.00, -0.00, -0.00, -0.00
82, 95105.62, -187500.02, -187500.02, -187500.02, -187500.02, -187500.02, 7038.47, 187500.00, -0.00, -0.00, -0.00
83, 95146.12, -187500.02, -187500.02, -187500.02, -187500.02, -187500.02, 7069.83, 187500.00, -0.00, -0.00, -0.00
84, 95083.34, -187500.02, -187500.02, -187500.02, -187500.02, -187500.02, 7156.65, 187500.00, -0.00, -0.00, -0.00
85, 95061.79, -187500.02, -187500.02, -187500.02, -187500.02, -187500.02, 7189.33, 187500.00, -0.00, -0.00, -0.00
86, 95064.78, -187500.02, -187500.02, -187500.02, -187500.02, -187500.02, 7238.68, 187500.00, -0.00, -0.00, -0.00
87, 95091.16, -187500.02, -187500.02, -187500.02, -187500.02, -187500.02, 7307.01, 187500.00, -0.00, -0.00, -0.00
88, 95088.85, -187500.02, -187500.02, -187500.02, -187500.02, -187500.02, 7354.39, 187500.00, -0.00, -0.00, -0.00
89, 95041.42, -187500.02, -187500.02, -187500.02, -187500.02, -187500.02, 7391.72, 187500.00, -0.00, -0.00, -0.00
90, 95070.77, -187500.02, -187500.02, -187500.02, -187500.02, -187500.02, 7435.29, 187500.00, -0.00, -0.00, -0.00
91, 95146.03, -187500.02, -187500.02, -187500.02, -187500.02, -187500.02, 7467.65, 187500.00, -0.00, -0.00, -0.00
92, 95126.85, -187500.02, -187500.02, -187500.02, -187500.02, -187500.02, 7505.07, 187500.00, -0.00, -0.00, -0.00
93, 95066.62, -187500.02, -187500.02, -187500.02, -187500.02, -187500.02, 7551.18, 187500.00, -0.00, -0.00, -0.00
94, 95076.07, -187500.02, -187500.02, -187500.02, -187500.02, -187500.02, 7582.90, 187500.00, -0.00, -0.00, -0.00
95, 95103.96, -187500.02, -187500.02, -187500.02, -187500.02, -187500.02, 7653.71, 187500.00, -0.00, -0.00, -0.00
96, 95171.24, -187500.02, -187500.02, -187500.02, -187500.02, -187500.02, 7658.91, 187500.00, -0.00, -0.00, -0.00
97, 95122.85, -187500.02, -187500.02, -187500.02, -187500.02, -187500.02, 7674.29, 187500.00, -0.00, -0.00, -0.00
98, 95092.79, -187500.02, -187500.02, -187500.02, -187500.02, -187500.02, 7689.45, 187500.00, -0.00, -0.00, -0.00
99, 95148.00, -187500.02, -187500.02, -187500.02, -187500.02, -187500.02, 7719.87, 187500.00, -0.00, -0.00, -0.00
100, 95197.64, -187500.02, -187500.02, -187500.02, -187500.02, -187500.02, 7724.67, 187500.00, -0.00, -0.00, -0.00
101, 95136.02, -187500.02, -187500.02, -187500.02, -187500.02, -187500.02, 7766.83, 187500.00, -0.00, -0.00, -0.00
102, 95116.86, -187500.02, -187500.02, -187500.02, -187500.02, -187500.02, 7788.55, 187500.00, -0.00, -0.00, -0.00
103, 95157.19, -187500.02, -187500.02, -187500.02, -187500.02, -187500.02, 7796.74, 187500.00, -0.00, -0.00, -0.00
104, 95178.51, -187500.02, -187500.02, -187500.02, -187500.02, -187500.02, 7828.54, 187500.00, -0.00, -0.00, -0.00
105, 95145.90, -187500.02, -187500.02, -187500.02, -187500.02, -187500.02, 7866.45, 187500.00, -0.00, -0.00, -0.00
106, 95094.33, -187500.02, -187500.02, -187500.02, -187500.02, -187500.02, 7900.58, 187500.00, -0.00, -0.00, -0.00
107, 95093.93, -187500.02, -187500.02, -187500.02, -187500.02, -187500.02, 7958.27, 187500.00, -0.00, -0.00, -0.00
108, 95128.38, -187500.02, -187500.02, -187500.02, -187500.02, -187500.02, 8006.48, 187500.00, -0.00, -0.00, -0.00
109, 95099.90, -187500.02, -187500.02, -187500.02, -187500.02, -187500.02, 8047.12, 187500.00, -0.00, -0.00, -0.00
110, 95039.37, -187500.02, -187500.02, -187500.02, -187500.02, -187500.02, 8091.02, 187500.00, -0.00, -0.00, -0.00
111, 95058.77, -187500.02, -187500.02, -187500.02, -187500.02, -187500.02, 8128.08, 187500.00, -0.00, -0.00, -0.00
112, 95109.82, -187500.02, -187500.02, -187500.02, -187500.02, -187500.02, 8167.86, 187500.00, -0.00, -0.00, -0.00
113, 95095.34, -187500.02, -187500.02, -187500.02, -187500.02, -187500.02, 8213.13, 187500.00, -0.00, -0.00, -0.00
114, 95027.43, -187500.02, -187500.02, -187500.02, -187500.02, -187500.02, 8253.47, 187500.00, -0.00, -0.00, -0.00
115, 95016.73, -187500.02, -187500.02, -187500.02, -187500.02, -187500.02, 8324.33, 187500.00, -0.00, -0.00, -0.00
116, 95108.26, -187500.02, -187500.02, -187500.02, -187500.02, -187500.02, 8334.70, 187500.00, -0.00, -0.00, -0.00
117, 95111.05, -187500.02, -187500.02, -187500.02, -187500.02, -187500.02, 8356.15, 187500.00, -0.00, -0.00, -0.00
118, 95074.48, -187500.02, -187500.02, -187500.02, -187500.02, -187500.02, 8378.42, 187500.00, -0.00, -0.00, -0.00
119, 95027.77, -187500.02, -187500.02, -187500.02, -187500.02, -187500.02, 8455.84, 187500.00, -0.00, -0.00, -0.00
120, 95080.59, -187500.02, -187500.02, -187500.02, -187500.02, -187500.02, 8501.51, 187500.00, -0.00, -0.00, -0.00
121, 95088.19, -187500.02, -187500.02, -187500.02, -187500.02, -187500.02, 8557.10, 187500.00, -0.00, -0.00, -0.00
122, 95039.23, -187500.02, -187500.02, -187500.02, -187500.02, -187500.02, 8608.64, 187500.00, -0.00, -0.00, -0.00
123, 95021.82, -187500.02, -187500.02, -187500.02, -187500.02, -187500.02, 8653.95, 187500.00, -0.00, -0.00, -0.00
124, 95085.79, -187500.02, -187500.02, -187500.02, -187500.02, -187500.02, 8705.96, 187500.00, -0.00, -0.00, -0.00
125, 95134.23, -187500.02, -187500.02, -187500.02, -187500.02, -187500.02, 8735.82, 187500.00, -0.00, -0.00, -0.00
126, 95089.10, -187500.02, -187500.02, -187500.02, -187500.02, -187500.02, 8785.26, 187500.00, -0.00, -0.00, -0.00
127, 95090.53, -187500.02, -187500.02, -187500.02, -187500.02, -187500.02, 8816.49, 187500.00, -0.00, -0.00, -0.00
128, 95125.98, -187500.02, -187500.02, -187500.02, -187500.02, -187500.02, 8857.86, 187500.00, -0.00, -0.00, -0.00
129, 95178.06, -187500.02, -187500.02, -187500.02, -187500.02, -187500.02, 8888.48, 187500.00, -0.00, -0.00, -0.00
130, 95153.36, -187500.02, -187500.02, -187500.02, -187500.02, -187500.02, 8909.38, 187500.00, -0.00, -0.00, -0.00
131, 95123.84, -187500.02, -187500.02, -187500.02, -187500.02, -187500.02, 8952.39, 187500.00, -0.00, -0.00, -0.00
132, 95169.84, -187500.02, -187500.02, -187500.02, -187500.02, -187500.02, 8956.10, 187500.00, -0.00, -0.00, -0.00
133, 95186.58, -187500.02, -187500.02, -187500.02, -187500.02, -187500.02, 9017.12, 187500.00, -0.00, -0.00, -0.00
134, 95189.70, -187500.02, -187500.02, -187500.02, -187500.02, -187500.02, 9035.42, 187500.00, -0.00, -0.00, -0.00
135, 95143.39, -187500.02, -187500.02, -187500.02, -187500.02, -187500.02, 9039.76, 187500.00, -0.00, -0.00, -0.00
136, 95177.88, -187500.02, -187500.02, -187500.02, -187500.02, -187500.02, 9056.03, 187500.00, -0.00, -0.00, -0.00
137, 95269.63, -187500.02, -187500.02, -187500.02, -187500.02, -187500.02, 9058.65, 187500.00, -0.00, -0.00, -0.00
138, 95248.73, -187500.02, -187500.02, -187500.02, -187500.02, -187500.02, 9078.88, 187500.00, -0.00, -0.00, -0.00
139, 95163.53, -187500.02, -187500.02, -187500.02, -187500.02, -187500.02, 9107.69, 187500.00, -0.00, -0.00, -0.00
140, 95128.64, -187500.02, -187500.02, -187500.02, -187500.02, -187500.02, 9146.49, 187500.00, -0.00, -0.00, -0.00
141, 95151.59, -187500.02, -187500.02, -187500.02, -187500.02, -187500.02, 9212.54, 187500.00, -0.00, -0.00, -0.00
142, 95167.76, -187500.02, -187500.02, -187500.02, -187500.02, -187500.02, 9255.54, 187500.00, -0.00, -0.00, -0.00
143, 95106.87, -187500.02, -187500.02, -187500.02, -187500.02, -187500.02, 9298.08, 187500.00, -0.00, -0.00, -0.00
144, 95077.26, -187500.02, -187500.02, -187500.02, -187500.02, -187500.02, 9342.89, 187500.00, -0.00, -0.00, -0.00
145, 95134.52, -187500.02, -187500.02, -187500.02, -187500.02, -187500.02, 9394.50, 187500.00, -0.00, -0.00, -0.00
146, 95181.46, -187500.02, -187500.02, -187500.02, -187500.02, -187500.02, 9412.83, 187500.00, -0.00, -0.00, -0.00
147, 95122.52, -187500.02, -187500.02, -187500.02, -187500.02, -187500.02, 9463.19, 187500.00, -0.00, -0.00, -0.00
148, 95087.31, -187500.02, -187500.02, -187500.02, -187500.02, -187500.02, 9500.85, 187500.00, -0.00, -0.00, -0.00
149, 95094.78, -187500.02, -187500.02, -187500.02, -187500.02, -187500.02, 9560.13, 187500.00, -0.00, -0.00, -0.00
150, 95133.55, -187500.02, -187500.02, -187500.02, -187500.02, -187500.02, 9622.27, 187500.00, -0.00, -0.00, -0.00
151, 95102.83, -187500.02, -187500.02, -187500.02, -187500.02, -187500.02, 9660.76, 187500.00, -0.00, -0.00, -0.00
152, 95053.09, -187500.02, -187500.02, -187500.02, -187500.02, -187500.02, 9721.73, 187500.00, -0.00, -0.00, -0.00
153, 95123.26, -187500.02, -187500.02, -187500.02, -187500.02, -187500.02, 9756.45, 187500.00, -0.00, -0.00, -0.00
154, 95187.43, -187500.02, -187500.02, -187500.02, -187500.02, -187500.02, 9751.19, 187500.00, -0.00, -0.00, -0.00
155, 95132.51, -187500.02, -187500.02, -187500.02, -187500.02, -187500.02, 9812.39, 187500.00, -0.00, -0.00, -0.00
156, 95070.59, -187500.02, -187500.02, -187500.02, -187500.02, -187500.02, 9877.91, 187500.00, -0.00, -0.00, -0.00
157, 95101.39, -187500.02, -187500.02, -187500.02, -187500.02, -187500.02, 9911.23, 187500.00, -0.00, -0.00, -0.00
158, 95134.41, -187500.02, -187500.02, -187500.02, -187500.02, -187500.02, 9963.04, 187500.00, -0.00, -0.00, -0.00
159, 95116.48, -187500.02, -187500.02, -187500.02, -187500.02, -187500.02, 10010.05, 187500.00, -0.00, -0.00, -0.00
160, 95119.81, -187500.02, -187500.02, -187500.02, -187500.02, -187500.02, 10012.26, 187500.00, -0.00, -0.00, -0.00
161, 95146.01, -187500.02, -187500.02, -187500.02, -187500.02, -187500.02, 10023.82, 187500.00, -0.00, -0.00, -0.00
162, 95212.62, -187500.02, -187500.02, -187500.02, -187500.02, -187500.02, 10044.52, 187500.00, -0.00, -0.00, -0.00
163, 95198.20, -187500.02, -187500.02, -187500.02, -187500.02, -187500.02, 10072.95, 187500.00, -0.00, -0.00, -0.00
164, 95142.39, -187500.02, -187500.02, -187500.02, -187500.02, -187500.02, 10100.44, 187500.00, -0.00, -0.00, -0.00
165, 95130.83, -187500.02, -187500.02, -187500.02, -187500.02, -187500.02, 10141.21, 187500.00, -0.00, -0.00, -0.00
166, 95238.59, -187500.02, -187500.02, -187500.02, -187500.02, -187500.02, 10153.59, 187500.00, -0.00, -0.00, -0.00
167, 95253.54, -187500.02, -187500.02, -187500.02, -187500.02, -187500.02, 10177.98, 187500.00, -0.00, -0.00, -0.00
168, 95201.04, -187500.02, -187500.02, -187500.02, -187500.02, -187500.02, 10193.87, 187500.00, -0.00, -0.00, -0.00
169, 95153.12, -187500.02, -187500.02, -187500.02, -187500.02, -187500.02, 10218.41, 187500.00, -0.00, -0.00, -0.00
170, 95198.63, -187500.02, -187500.02, -187500.02, -187500.02, -187500.02, 10256.08, 187500.00, -0.00, -0.00, -0.00
171, 95234.84, -187500.02, -187500.02, -187500.02, -187500.02, -187500.02, 10268.08, 187500.00, -0.00, -0.00, -0.00
172, 95163.02, -187500.02, -187500.02, -187500.02, -187500.02, -187500.02, 10304.69, 187500.00, -0.00, -0.00, -0.00
173, 95090.69, -187500.02, -187500.02, -187500.02, -187500.02, -187500.02, 10374.81, 187500.00, -0.00, -0.00, -0.00
174, 95122.96, -187500.02, -187500.02, -187500.02, -187500.02, -187500.02, 10436.68, 187500.00, -0.00, -0.00, -0.00
175, 95168.54, -187500.02, -187500.02, -187500.02, -187500.02, -187500.02, 10465.56, 187500.00, -0.00, -0.00, -0.00
176, 95144.31, -187500.02, -187500.02, -187500.02, -187500.02, -187500.02, 10489.70, 187500.00, -0.00, -0.00, -0.00
177, 95151.13, -187500.02, -187500.02, -187500.02, -187500.02, -187500.02, 10484.85, 187500.00, -0.00, -0.00, -0.00
178, 95146.88, -187500.02, -187500.02, -187500.02, -187500.02, -187500.02, 10540.72, 187500.00, -0.00, -0.00, -0.00
179, 95163.02, -187500.02, -187500.02, -187500.02, -187500.02, -187500.02, 10588.67, 187500.00, -0.00, -0.00, -0.00
180, 95145.56, -187500.02, -187500.02, -187500.02, -187500.02, -187500.02, 10616.81, 187500.00, -0.00, -0.00, -0.00
181, 95070.17, -187500.02, -187500.02, -187500.02, -187500.02, -187500.02, 10667.79, 187500.00, -0.00, -0.00, -0.00
182, 95090.55, -187500.02, -187500.02, -187500.02, -187500.02, -187500.02, 10724.68, 187500.00, -0.00, -0.00, -0.00
183, 95135.41, -187500.02, -187500.02, -187500.02, -187500.02, -187500.02, 10778.86, 187500.00, -0.00, -0.00, -0.00
184, 95116.13, -187500.02, -187500.02, -187500.02, -187500.02, -187500.02, 10823.63, 187500.00, -0.00, -0.00, -0.00
185, 95058.93, -187500.02, -187500.02, -187500.02, -187500.02, -187500.02, 10880.43, 187500.00, -0.00, -0.00, -0.00
186, 95112.99, -187500.02, -187500.02, -187500.02, -187500.02, -187500.02, 10901.53, 187500.00, -0.00, -0.00, -0.00
187, 95163.76, -187500.02, -187500.02, -187500.02, -187500.02, -187500.02, 10935.48, 187500.00, -0.00, -0.00, -0.00
188, 95151.38, -187500.02, -187500.02, -187500.02, -187500.02, -187500.02, 10973.72, 187500.00, -0.00, -0.00, -0.00
189, 95095.90, -187500.02, -187500.02, -187500.02, -187500.02, -187500.02, 10994.73, 187500.00, -0.00, -0.00, -0.00
190, 95070.30, -187500.02, -187500.02, -187500.02, -187500.02, -187500.02, 11044.96, 187500.00, -0.00, -0.00, -0.00
191, 95109.98, -187500.02, -187500.02, -187500.02, -187500.02, -187500.02, 11108.35, 187500.00, -0.00, -0.00, -0.00
192, 95163.84, -187500.02, -187500.02, -187500.02, -187500.02, -187500.02, 11141.32, 187500.00, -0.00, -0.00, -0.00
193, 95167.02, -187500.02, -187500.02, -187500.02, -187500.02, -187500.02, 11133.25, 187500.00, -0.00, -0.00, -0.00
194, 95127.66, -187500.02, -187500.02, -187500.02, -187500.02, -187500.02, 11167.76, 187500.00, -0.00, -0.00, -0.00
195, 95165.25, -187500.02, -187500.02, -187500.02, -187500.02, -187500.02, 11224.29, 187500.00, -0.00, -0.00, -0.00
196, 95239.98, -187500.02, -187500.02, -187500.02, -187500.02, -187500.02, 11222.01, 187500.00, -0.00, -0.00, -0.00
197, 95192.37, -187500.02, -187500.02, -187500.02, -187500.02, -187500.02, 11253.30, 187500.00, -0.00, -0.00, -0.00
198, 95184.09, -187500.02, -187500.02, -187500.02, -187500.02, -187500.02, 11261.77, 187500.00, -0.00, -0.00, -0.00
199, 95202.60, -187500.02, -187500.02, -187500.02, -187500.02, -187500.02, 11268.48, 187500.00, -0.00, -0.00, -0.00
200, 95242.73, -187500.02, -187500.02, -187500.02, -187500.02, -187500.02, 11286.76, 187500.00, -0.00, -0.00, -0.00
201, 95194.87, -187500.02, -187500.02, -187500.02, -187500.02, -187500.02, 11319.75, 187500.00, -0.00, -0.00, -0.00
202, 95168.00, -187500.02, -187500.02, -187500.02, -187500.02, -187500.02, 11353.03, 187500.00, -0.00, -0.00, -0.00
203, 95208.84, -187500.02, -187500.02, -187500.02, -187500.02, -187500.02, 11376.28, 187500.00, -0.00, -0.00, -0.00
204, 95282.11, -187500.02, -187500.02, -187500.02, -187500.02, -187500.02, 11378.42, 187500.00, -0.00, -0.00, -0.00
205, 95257.72, -187500.02, -187500.02, -187500.02, -187500.02, -187500.02, 11392.53, 187500.00, -0.00, -0.00, -0.00
206, 95189.95, -187500.02, -187500.02, -187500.02, -187500.02, -187500.02, 11437.57, 187500.00, -0.00, -0.00, -0.00
207, 95184.68, -187500.02, -187500.02, -187500.02, -187500.02, -187500.02, 11498.97, 187500.00, -0.00, -0.00, -0.00
208, 95231.84, -187500.02, -187500.02, -187500.02, -187500.02, -187500.02, 11568.66, 187500.00, -0.00, -0.00, -0.00
209, 95232.87, -187500.02, -187500.02, -187500.02, -187500.02, -187500.02, 11599.44, 187500.00, -0.00, -0.00, -0.00
210, 95172.74, -187500.02, -187500.02, -187500.02, -187500.02, -187500.02, 11653.64, 187500.00, -0.00, -0.00, -0.00
211, 95196.77, -187500.02, -187500.02, -187500.02, -187500.02, -187500.02, 11696.24, 187500.00, -0.00, -0.00, -0.00
212, 95290.71, -187500.02, -187500.02, -187500.02, -187500.02, -187500.02, 11731.83, 187500.00, -0.00, -0.00, -0.00
213, 95313.40, -187500.02, -187500.02, -187500.02, -187500.02, -187500.02, 11771.57, 187500.00, -0.00, -0.00, -0.00
214, 95228.04, -187500.02, -187500.02, -187500.02, -187500.02, -187500.02, 11836.39, 187500.00, -0.00, -0.00, -0.00
215, 95245.43, -187500.02, -187500.02, -187500.02, -187500.02, -187500.02, 11851.59, 187500.00, -0.00, -0.00, -0.00
216, 95277.93, -187500.02, -187500.02, -187500.02, -187500.02, -187500.02, 11903.15, 187500.00, -0.00, -0.00, -0.00
217, 95301.11, -187500.02, -187500.02, -187500.02, -187500.02, -187500.02, 11974.59, 187500.00, -0.00, -0.00, -0.00
218, 95298.36, -187500.02, -187500.02, -187500.02, -187500.02, -187500.02, 11980.85, 187500.00, -0.00, -0.00, -0.00
219, 95253.09, -187500.02, -187500.02, -187500.02, -187500.02, -187500.02, 12020.63, 187500.00, -0.00, -0.00, -0.00
220, 95340.96, -187500.02, -187500.02, -187500.02, -187500.02, -187500.02, 12038.16, 187500.00, -0.00, -0.00, -0.00
221, 95351.24, -187500.02, -187500.02, -187500.02, -187500.02, -187500.02, 12077.00, 187500.00, -0.00, -0.00, -0.00
222, 95300.93, -187500.02, -187500.02, -187500.02, -187500.02, -187500.02, 12132.28, 187500.00, -0.00, -0.00, -0.00
223, 95261.25, -187500.02, -187500.02, -187500.02, -187500.02, -187500.02, 12171.98, 187500.00, -0.00, -0.00, -0.00
224, 95293.71, -187500.02, -187500.02, -187500.02, -187500.02, -187500.02, 12211.18, 187500.00, -0.00, -0.00, -0.00
225, 95351.69, -187500.02, -187500.02, -187500.02, -187500.02, -187500.02, 12257.29, 187500.00, -0.00, -0.00, -0.00
226, 95338.97, -187500.02, -187500.02, -187500.02, -187500.02, -187500.02, 12291.76, 187500.00, -0.00, -0.00, -0.00
227, 95304.82, -187500.02, -187500.02, -187500.02, -187500.02, -187500.02, 12310.51, 187500.00, -0.00, -0.00, -0.00
228, 95347.64, -187500.02, -187500.02, -187500.02, -187500.02, -187500.02, 12333.58, 187500.00, -0.00, -0.00, -0.00
229, 95432.29, -187500.02, -187500.02, -187500.02, -187500.02, -187500.02, 12323.32, 187500.00, -0.00, -0.00, -0.00
230, 95398.65, -187500.02, -187500.02, -187500.02, -187500.02, -187500.02, 12353.83, 187500.00, -0.00, -0.00, -0.00
231, 95343.22, -187500.02, -187500.02, -187500.02, -187500.02, -187500.02, 12382.82, 187500.00, -0.00, -0.00, -0.00
232, 95359.78, -187500.02, -187500.02, -187500.02, -187500.02, -187500.02, 12411.16, 187500.00, -0.00, -0.00, -0.00
233, 95423.82, -187500.02, -187500.02, -187500.02, -187500.02, -187500.02, 12421.24, 187500.00, -0.00, -0.00, -0.00
234, 95404.93, -187500.02, -187500.02, -187500.02, -187500.02, -187500.02, 12450.66, 187500.00, -0.00, -0.00, -0.00
235, 95359.96, -187500.02, -187500.02, -187500.02, -187500.02, -187500.02, 12462.71, 187500.00, -0.00, -0.00, -0.00
236, 95347.09, -187500.02, -187500.02, -187500.02, -187500.02, -187500.02, 12485.17, 187500.00, -0.00, -0.00, -0.00
237, 95377.26, -187500.02, -187500.02, -187500.02, -187500.02, -187500.02, 12522.63, 187500.00, -0.00, -0.00, -0.00
238, 95369.39, -187500.02, -187500.02, -187500.02, -187500.02, -187500.02, 12562.10, 187500.00, -0.00, -0.00, -0.00
239, 95303.05, -187500.02, -187500.02, -187500.02, -187500.02, -187500.02, 12615.84, 187500.00, -0.00, -0.00, -0.00
240, 95322.12, -187500.02, -187500.02, -187500.02, -187500.02, -187500.02, 12627.60, 187500.00, -0.00, -0.00, -0.00
241, 95342.68, -187500.02, -187500.02, -187500.02, -187500.02, -187500.02, 12691.83, 187500.00, -0.00, -0.00, -0.00
242, 95378.82, -187500.02, -187500.02, -187500.02, -187500.02, -187500.02, 12720.51, 187500.00, -0.00, -0.00, -0.00
243, 95320.98, -187500.02, -187500.02, -187500.02, -187500.02, -187500.02, 12767.61, 187500.00, -0.00, -0.00, -0.00
244, 95291.74, -187500.02, -187500.02, -187500.02, -187500.02, -187500.02, 12805.22, 187500.00, -0.00, -0.00, -0.00
245, 95313.83, -187500.02, -187500.02, -187500.02, -187500.02, -187500.02, 12854.60, 187500.00, -0.00, -0.00, -0.00
246, 95359.45, -187500.02, -187500.02, -187500.02, -187500.02, -187500.02, 12896.78, 187500.00, -0.00, -0.00, -0.00
247, 95367.27, -187500.02, -187500.02, -187500.02, -187500.02, -187500.02, 12898.66, 187500.00, -0.00, -0.00, -0.00
248, 95305.80, -187500.02, -187500.02, -187500.02, -187500.02, -187500.02, 12933.08, 187500.00, -0.00, -0.00, -0.00
249, 95316.55, -187500.02, -187500.02, -187500.02, -187500.02, -187500.02, 12987.01, 187500.00, -0.00, -0.00, -0.00
250, 95344.23, -187500.02, -187500.02, -187500.02, -187500.02, -187500.02, 13039.52, 187500.00, -0.00, -0.00, -0.00
251, 95338.79, -187500.02, -187500.02, -187500.02, -187500.02, -187500.02, 13066.61, 187500.00, -0.00, -0.00, -0.00
252, 95273.50, -187500.02, -187500.02, -187500.02, -187500.02, -187500.02, 13097.70, 187500.00, -0.00, -0.00, -0.00
253, 95288.21, -187500.02, -187500.02, -187500.02, -187500.02, -187500.02, 13145.49, 187500.00, -0.00, -0.00, -0.00
254, 95322.79, -187500.02, -187500.02, -187500.02, -187500.02, -187500.02, 13202.12, 187500.00, -0.00, -0.00, -0.00
255, 95317.98, -187500.02, -187500.02, -187500.02, -187500.02, -187500.02, 13249.98, 187500.00, -0.00, -0.00, -0.00
0, 95325.00, -187500.02, -187500.02, -187500.02, -187500.02, -187500.02, 13260.42, 187500.00, -0.00, -0.00, -0.00
1, 95355.87, -187500.02, -187500.02, -187500.02, -187500.02, -187500.02, 13274.83, 187500.00, -0.00, -0.00, -0.00
2, 95425.27, -187500.02, -187500.02, -187500.02, -187500.02, -187500.02, 13294.04, 187500.00, -0.00, -0.00, -0.00
3, 95408.75, -187500.02, -187500.02, -187500.02, -187500.02, -187500.02, 13308.47, 187500.00, -0.00, -0.00, -0.00
4, 95361.73, -187500.02, -187500.02, -187500.02, -187500.02, -187500.02, 13317.71, 187500.00, -0.00, -0.00, -0.00
5, 95328.80, -187500.02, -187500.02, -187500.02, -187500.02, -187500.02, 13359.26, 187500.00, -0.00, -0.00, -0.00
6, 95391.14, -187500.02, -187500.02, -187500.02, -187500.02, -187500.02, 13387.38, 187500.00, -0.00, -0.00, -0.00
7, 95421.43, -187500.02, -187500.02, -187500.02, -187500.02, -187500.02, 13409.46, 187500.00, -0.00, -0.00, -0.00
8, 95376.92, -187500.02, -187500.02, -187500.02, -187500.02, -187500.02, 13421.40, 187500.00, -0.00, -0.00, -0.00
9, 95357.91, -187500.02, -187500.02, -187500.02, -187500.02, -187500.02, 13440.75, 187500.00, -0.00, -0.00, -0.00
10, 95404.23, -187500.02, -187500.02, -187500.02, -187500.02, -187500.02, 13461.65, 187500.00, -0.00, -0.00, -0.00
11, 95441.77, -187500.02, -187500.02, -187500.02, -187500.02, -187500.02, 13479.31, 187500.00, -0.00, -0.00, -0.00
12, 95396.33, -187500.02, -187500.02, -187500.02, -187500.02, -187500.02, 13498.91, 187500.00, -0.00, -0.00, -0.00
13, 95361.84, -187500.02, -187500.02, -187500.02, -187500.02, -187500.02, 13511.38, 187500.00, -0.00, -0.00, -0.00
14, 95360.72, -187500.02, -187500.02, -187500.02, -187500.02, -187500.02, 13554.03, 187500.00, -0.00, -0.00, -0.00
15, 95395.52, -187500.02, -187500.02, -187500.02, -187500.02, -187500.02, 13585.64, 187500.00, -0.00, -0.00, -0.00
16, 95325.85, -187500.02, -187500.02, -187500.02, -187500.02, -187500.02, 13640.51, 187500.00, -0.00, -0.00, -0.00
17, 95290.98, -187500.02, -187500.02, -187500.02, -187500.02, -187500.02, 13697.37, 187500.00, -0.00, -0.00, -0.00
18, 95310.07, -187500.02, -187500.02, -187500.02, -187500.02, -187500.02, 13740.33, 187500.00, -0.00, -0.00, -0.00
19, 95356.63, -187500.02, -187500.02, -187500.02, -187500.02, -187500.02, 13796.97, 187500.00, -0.00, -0.00, -0.00
20, 95386.49, -187500.02, -187500.02, -187500.02, -187500.02, -187500.02, 13793.24, 187500.00, -0.00, -0.00, -0.00
21, 95322.32, -187500.02, -187500.02, -187500.02, -187500.02, -187500.02, 13812.91, 187500.00, -0.00, -0.00, -0.00
22, 95317.49, -187500.02, -187500.02, -187500.02, -187500.02, -187500.02, 13867.22, 187500.00, -0.00, -0.00, -0.00
23, 95330.88, -187500.02, -187500.02, -187500.02, -187500.02, -187500.02, 13938.66, 187500.00, -0.00, -0.00, -0.00
24, 95322.32, -187500.02, -187500.02, -187500.02, -187500.02, -187500.02, 13999.19, 187500.00, -0.00, -0.00, -0.00
25, 95307.05, -187500.02, -187500.02, -187500.02, -187500.02, -187500.02, 14006.38, 187500.00, -0.00, -0.00, -0.00
26, 95291.61, -187500.02, -187500.02, -187500.02, -187500.02, -187500.02, 14059.05, 187500.00, -0.00, -0.00, -0.00
27, 95348.42, -187500.02, -187500.02, -187500.02, -187500.02, -187500.02, 14111.95, 187500.00, -0.00, -0.00, -0.00
28, 95376.03, -187500.02, -187500.02, -187500.02, -187500.02, -187500.02, 14128.45, 187500.00, -0.00, -0.00, -0.00
29, 95328.48, -187500.02, -187500.02, -187500.02, -187500.02, -187500.02, 14144.21, 187500.00, -0.00, -0.00, -0.00
30, 95267.13, -187500.02, -187500.02, -187500.02, -187500.02, -187500.02, 14225.95, 187500.00, -0.00, -0.00, -0.00
31, 95321.11, -187500.02, -187500.02, -187500.02, -187500.02, -187500.02, 14280.10, 187500.00, -0.00, -0.00, -0.00
32, 95370.40, -187500.02, -187500.02, -187500.02, -187500.02, -187500.02, 14300.00, 187500.00, -0.00, -0.00, -0.00
33, 95326.95, -187500.02, -187500.02, -187500.02, -187500.02, -187500.02, 14324.54, 187500.00, -0.00, -0.00, -0.00
34, 95316.22, -187500.02, -187500.02, -187500.02, -187500.02, -187500.02, 14347.67, 187500.00, -0.00, -0.00, -0.00
35, 95381.57, -187500.02, -187500.02, -187500.02, -187500.02, -187500.02, 14362.76, 187500.00, -0.00, -0.00, -0.00
36, 95428.04, -187500.02, -187500.02, -187500.02, -187500.02, -187500.02, 14377.11, 187500.00, -0.00, -0.00, -0.00
37, 95409.45, -187500.02, -187500.02, -187500.02, -187500.02, -187500.02, 14378.92, 187500.00, -0.00, -0.00, -0.00
38, 95356.47, -187500.02, -187500.02, -187500.02, -187500.02, -187500.02, 14412.38, 187500.00, -0.00, -0.00, -0.00
39, 95415.70, -187500.02, -187500.02, -187500.02, -187500.02, -187500.02, 14422.60, 187500.00, -0.00, -0.00, -0.00
40, 95464.88, -187500.02, -187500.02, -187500.02, -187500.02, -187500.02, 14444.50, 187500.00, -0.00, -0.00, -0.00
41, 95452.88, -187500.02, -187500.02, -187500.02, -187500.02, -187500.02, 14440.88, 187500.00, -0.00, -0.00, -0.00
42, 95400.21, -187500.02, -187500.02, -187500.02, -187500.02, -187500.02, 14451.32, 187500.00, -0.00, -0.00, -0.00
43, 95382.45, -187500.02, -187500.02, -187500.02, -187500.02, -187500.02, 14510.26, 187500.00, -0.00, -0.00, -0.00
44, 95453.91, -187500.02, -187500.02, -187500.02, -187500.02, -187500.02, 14530.26, 187500.00, -0.00, -0.00, -0.00
45, 95431.48, -187500.02, -187500.02, -187500.02, -187500.02, -187500.02, 14538.22, 187500.00, -0.00, -0.00, -0.00
46, 95350.59, -187500.02, -187500.02, -187500.02, -187500.02, -187500.02, 14553.51, 187500.00, -0.00, -0.00, -0.00
47, 95351.78, -187500.02, -187500.02, -187500.02, -187500.02, -187500.02, 14599.94, 187500.00, -0.00, -0.00, -0.00
48, 95385.98, -187500.02, -187500.02, -187500.02, -187500.02, -187500.02, 14629.78, 187500.00, -0.00, -0.00, -0.00
49, 95352.80, -187500.02, -187500.02, -187500.02, -187500.02, -187500.02, 14683.73, 187500.00, -0.00, -0.00, -0.00
50, 95344.13, -187500.02, -187500.02, -187500.02, -187500.02, -187500.02, 14729.17, 187500.00, -0.00, -0.00, -0.00
51, 95371.70, -187500.02, -187500.02, -187500.02, -187500.02, -187500.02, 14751.39, 187500.00, -0.00, -0.00, -0.00
52, 95398.77, -187500.02, -187500.02, -187500.02, -187500.02, -187500.02, 14778.46, 187500.00, -0.00, -0.00, -0.00
53, 95354.02, -187500.02, -187500.02, -187500.02, -187500.02, -187500.02, 14821.29, 187500.00, -0.00, -0.00, -0.00
54, 95303.21, -187500.02, -187500.02, -187500.02, -187500.02, -187500.02, 14855.17, 187500.00, -0.00, -0.00, -0.00
55, 95283.31, -187500.02, -187500.02, -187500.02, -187500.02, -187500.02, 14911.36, 187500.00, -0.00, -0.00, -0.00
56, 95372.01, -187500.02, -187500.02, -187500.02, -187500.02, -187500.02, 14951.62, 187500.00, -0.00, -0.00, -0.00
57, 95379.96, -187500.02, -187500.02, -187500.02, -187500.02, -187500.02, 14980.34, 187500.00, -0.00, -0.00, -0.00
58, 95340.49, -187500.02, -187500.02, -187500.02, -187500.02, -187500.02, 15002.54, 187500.00, -0.00, -0.00, -0.00
59, 95315.01, -187500.02, -187500.02, -187500.02, -187500.02, -187500.02, 15016.97, 187500.00, -0.00, -0.00, -0.00
60, 95354.20, -187500.02, -187500.02, -187500.02, -187500.02, -187500.02, 15065.34, 187500.00, -0.00, -0.00, -0.00
61, 95428.04, -187500.02, -187500.02, -187500.02, -187500.02, -187500.02, 15094.00, 187500.00, -0.00, -0.00, -0.00
62, 95352.18, -187500.02, -187500.02, -187500.02, -187500.02, -187500.02, 15144.54, 187500.00, -0.00, -0.00, -0.00
63, 95287.79, -187500.02, -187500.02, -187500.02, -187500.02, -187500.02, 15190.04, 187500.00, -0.00, -0.00, -0.00
64, 95346.08, -187500.02, -187500.02, -187500.02, -187500.02, -187500.02, 15248.05, 187500.00, -0.00, -0.00, -0.00
65, 95399.84, -187500.02, -187500.02, -187500.02, -187500.02, -187500.02, 15271.81, 187500.00, -0.00, -0.00, -0.00
66, 95354.20, -187500.02, -187500.02, -187500.02, -187500.02, -187500.02, 15306.00, 187500.00, -0.00, -0.00, -0.00
67, 95342.86, -187500.02, -187500.02, -187500.02, -187500.02, -187500.02, 15322.63, 187500.00, -0.00, -0.00, -0.00
68, 95368.74, -187500.02, -187500.02, -187500.02, -187500.02, -187500.02, 15348.47, 187500.00, -0.00, -0.00, -0.00
69, 95442.51, -187500.02, -187500.02, -187500.02, -187500.02, -187500.02, 15338.88, 187500.00, -0.00, -0.00, -0.00
70, 95444.92, -187500.02, -187500.02, -187500.02, -187500.02, -187500.02, 15343.73, 187500.00, -0.00, -0.00, -0.00
71, 95361.01, -187500.02, -187500.02, -187500.02, -187500.02, -187500.02, 15383.72, 187500.00, -0.00, -0.00, -0.00
72, 95381.55, -187500.02, -187500.02, -187500.02, -187500.02, -187500.02, 15403.57, 187500.00, -0.00, -0.00, -0.00
73, 95454.41, -187500.02, -187500.02, -187500.02, -187500.02, -187500.02, 15411.68, 187500.00, -0.00, -0.00, -0.00
74, 95454.80, -187500.02, -187500.02, -187500.02, -187500.02, -187500.02, 15408.46, 187500.00, -0.00, -0.00, -0.00
75, 95373.68, -187500.02, -187500.02, -187500.02, -187500.02, -187500.02, 15426.37, 187500.00, -0.00, -0.00, -0.00
76, 95330.48, -187500.02, -187500.02, -187500.02, -187500.02, -187500.02, 15469.04, 187500.00, -0.00, -0.00, -0.00
77, 95428.91, -187500.02, -187500.02, -187500.02, -187500.02, -187500.02, 15491.99, 187500.00, -0.00, -0.00, -0.00
78, 95453.91, -187500.02, -187500.02, -187500.02, -187500.02, -187500.02, 15499.35, 187500.00, -0.00, -0.00, -0.00
79, 95363.76, -187500.02, -187500.02, -187500.02, -187500.02, -187500.02, 15548.81, 187500.00, -0.00, -0.00, -0.00
80, 95372.61, -187500.02, -187500.02, -187500.02, -187500.02, -187500.02, 15546.75, 187500.00, -0.00, -0.00, -0.00
81, 95434.70, -187500.02, -187500.02, -187500.02, -187500.02, -187500.02, 15573.71, 187500.00, -0.00, -0.00, -0.00
82, 95446.35, -187500.02, -187500.02, -187500.02, -187500.02, -187500.02, 15628.88, 187500.00, -0.00, -0.00, -0.00
83, 95390.45, -187500.02, -187500.02, -187500.02, -187500.02, -187500.02, 15656.88, 187500.00, -0.00, -0.00, -0.00
84, 95350.05, -187500.02, -187500.02, -187500.02, -187500.02, -187500.02, 15701.12, 187500.00, -0.00, -0.00, -0.00
85, 95391.52, -187500.02, -187500.02, -187500.02, -187500.02, -187500.02, 15731.05, 187500.00, -0.00, -0.00, -0.00
86, 95396.82, -187500.02, -187500.02, -187500.02, -187500.02, -187500.02, 15793.88, 187500.00, -0.00, -0.00, -0.00
87, 95381.69, -187500.02, -187500.02, -187500.02, -187500.02, -187500.02, 15829.01, 187500.00, -0.00, -0.00, -0.00
88, 95344.20, -187500.02, -187500.02, -187500.02, -187500.02, -187500.02, 15842.42, 187500.00, -0.00, -0.00, -0.00
89, 95375.54, -187500.02, -187500.02, -187500.02, -187500.02, -187500.02, 15893.03, 187500.00, -0.00, -0.00, -0.00
90, 95438.66, -187500.02, -187500.02, -187500.02, -187500.02, -187500.02, 15915.80, 187500.00, -0.00, -0.00, -0.00
91, 95415.26, -187500.02, -187500.02, -187500.02, -187500.02, -187500.02, 15932.28, 187500.00, -0.00, -0.00, -0.00
92, 95365.23, -187500.02, -187500.02, -187500.02, -187500.02, -187500.02, 15977.38, 187500.00, -0.00, -0.00, -0.00
93, 95353.01, -187500.02, -187500.02, -187500.02, -187500.02, -187500.02, 15995.85, 187500.00, -0.00, -0.00, -0.00
94, 95386.02, -187500.02, -187500.02, -187500.02, -187500.02, -187500.02, 16058.48, 187500.00, -0.00, -0.00, -0.00
95, 95372.59, -187500.02, -187500.02, -187500.02, -187500.02, -187500.02, 16120.19, 187500.00, -0.00, -0.00, -0.00
96, 95325.07, -187500.02, -187500.02, -187500.02, -187500.02, -187500.02, 16142.05, 187500.00, -0.00, -0.00, -0.00
97, 95330.84, -187500.02, -187500.02, -187500.02, -187500.02, -187500.02, 16183.91, 187500.00, -0.00, -0.00, -0.00
98, 95436.16, -187500.02, -187500.02, -187500.02, -187500.02, -187500.02, 16207.67, 187500.00, -0.00, -0.00, -0.00
99, 95453.41, -187500.02, -187500.02, -187500.02, -187500.02, -187500.02, 16249.29, 187500.00, -0.00, -0.00, -0.00
100, 95429.30, -187500.02, -187500.02, -187500.02, -187500.02, -187500.02, 16230.96, 187500.00, -0.00, -0.00, -0.00
101, 95426.45, -187500.02, -187500.02, -187500.02, -187500.02, -187500.02, 16232.46, 187500.00, -0.00, -0.00, -0.00
102, 95480.39, -187500.02, -187500.02, -187500.02, -187500.02, -187500.02, 16282.98, 187500.00, -0.00, -0.00, -0.00
103, 95528.83, -187500.02, -187500.02, -187500.02, -187500.02, -187500.02, 16286.15, 187500.00, -0.00, -0.00, -0.00
104, 95475.49, -187500.02, -187500.02, -187500.02, -187500.02, -187500.02, 16298.09, 187500.00, -0.00, -0.00, -0.00
105, 95465.10, -187500.02, -187500.02, -187500.02, -187500.02, -187500.02, 16298.62, 187500.00, -0.00, -0.00, -0.00
106, 95501.70, -187500.02, -187500.02, -187500.02, -187500.02, -187500.02, 16328.64, 187500.00, -0.00, -0.00, -0.00
107, 95519.26, -187500.02, -187500.02, -187500.02, -187500.02, -187500.02, 16355.53, 187500.00, -0.00, -0.00, -0.00
108, 95470.82, -187500.02, -187500.02, -187500.02, -187500.02, -187500.02, 16366.26, 187500.00, -0.00, -0.00, -0.00
109, 95424.78, -187500.02, -187500.02, -187500.02, -187500.02, -187500.02, 16390.73, 187500.00, -0.00, -0.00, -0.00
110, 95460.41, -187500.02, -187500.02, -187500.02, -187500.02, -187500.02, 16437.00, 187500.00, -0.00, -0.00, -0.00
111, 95464.77, -187500.02, -187500.02, -187500.02, -187500.02, -187500.02, 16494.65, 187500.00, -0.00, -0.00, -0.00
112, 95401.06, -187500.02, -187500.02, -187500.02, -187500.02, -187500.02, 16523.64, 187500.00, -0.00, -0.00, -0.00
113, 95363.63, -187500.02, -187500.02, -187500.02, -187500.02, -187500.02, 16544.27, 187500.00, -0.00, -0.00, -0.00
114, 95421.70, -187500.02, -187500.02, -187500.02, -187500.02, -187500.02, 16543.67, 187500.00, -0.00, -0.00, -0.00
115, 95460.48, -187500.02, -187500.02, -187500.02, -187500.02, -187500.02, 16565.41, 187500.00, -0.00, -0.00, -0.00
116, 95415.03, -187500.02, -187500.02, -187500.02, -187500.02, -187500.02, 16613.22, 187500.00, -0.00, -0.00, -0.00
117, 95329.90, -187500.02, -187500.02, -187500.02, -187500.02, -187500.02, 16662.13, 187500.00, -0.00, -0.00, -0.00
118, 95333.79, -187500.02, -187500.02, -187500.02, -187500.02, -187500.02, 16690.74, 187500.00, -0.00, -0.00, -0.00
119, 95380.14, -187500.02, -187500.02, -187500.02, -187500.02, -187500.02, 16733.21, 187500.00, -0.00, -0.00, -0.00
120, 95382.38, -187500.02, -187500.02, -187500.02, -187500.02, -187500.02, 16779.88, 187500.00, -0.00, -0.00, -0.00
121, 95319.52, -187500.02, -187500.02, -187500.02, -187500.02, -187500.02, 16807.71, 187500.00, -0.00, -0.00, -0.00
122, 95308.75, -187500.02, -187500.02, -187500.02, -187500.02, -187500.02, 16835.91, 187500.00, -0.00, -0.00, -0.00
123, 95426.50, -187500.02, -187500.02, -187500.02, -187500.02, -187500.02, 16850.38, 187500.00, -0.00, -0.00, -0.00
124, 95453.48, -187500.02, -187500.02, -187500.02, -187500.02, -187500.02, 16873.85, 187500.00, -0.00, -0.00, -0.00
125, 95366.87, -187500.02, -187500.02, -187500.02, -187500.02, -187500.02, 16922.24, 187500.00, -0.00, -0.00, -0.00
126, 95348.76, -187500.02, -187500.02, -187500.02, -187500.02, -187500.02, 16974.56, 187500.00, -0.00, -0.00, -0.00
127, 95409.29, -187500.02, -187500.02, -187500.02, -187500.02, -187500.02, 17016.16, 187500.00, -0.00, -0.00, -0.00
128, 95436.85, -187500.02, -187500.02, -187500.02, -187500.02, -187500.02, 17035.67, 187500.00, -0.00, -0.00, -0.00
129, 95384.26, -187500.02, -187500.02, -187500.02, -187500.02, -187500.02, 17062.67, 187500.00, -0.00, -0.00, -0.00
130, 95360.41, -187500.02, -187500.02, -187500.02, -187500.02, -187500.02, 17088.58, 187500.00, -0.00, -0.00, -0.00
131, 95408.89, -187500.02, -187500.02, -187500.02, -187500.02, -187500.02, 17128.01, 187500.00, -0.00, -0.00, -0.00
132, 95485.04, -187500.02, -187500.02, -187500.02, -187500.02, -187500.02, 17118.78, 187500.00, -0.00, -0.00, -0.00
133, 95418.84, -187500.02, -187500.02, -187500.02, -187500.02, -187500.02, 17145.46, 187500.00, -0.00, -0.00, -0.00
134, 95399.21, -187500.02, -187500.02, -187500.02, -187500.02, -187500.02, 17129.75, 187500.00, -0.00, -0.00, -0.00
135, 95422.86, -187500.02, -187500.02, -187500.02, -187500.02, -187500.02, 17136.61, 187500.00, -0.00, -0.00, -0.00
136, 95448.78, -187500.02, -187500.02, -187500.02, -187500.02, -187500.02, 17180.58, 187500.00, -0.00, -0.00, -0.00
137, 95433.25, -187500.02, -187500.02, -187500.02, -187500.02, -187500.02, 17207.06, 187500.00, -0.00, -0.00, -0.00
138, 95403.37, -187500.02, -187500.02, -187500.02, -187500.02, -187500.02, 17208.45, 187500.00, -0.00, -0.00, -0.00
139, 95399.95, -187500.02, -187500.02, -187500.02, -187500.02, -187500.02, 17260.82, 187500.00, -0.00, -0.00, -0.00
140, 95459.11, -187500.02, -187500.02, -187500.02, -187500.02, -187500.02, 17268.82, 187500.00, -0.00, -0.00, -0.00
141, 95443.13, -187500.02, -187500.02, -187500.02, -187500.02, -187500.02, 17271.68, 187500.00, -0.00, -0.00, -0.00
142, 95361.05, -187500.02, -187500.02, -187500.02, -187500.02, -187500.02, 17298.30, 187500.00, -0.00, -0.00, -0.00
143, 95333.38, -187500.02, -187500.02, -187500.02, -187500.02, -187500.02, 17336.21, 187500.00, -0.00, -0.00, -0.00
144, 95422.97, -187500.02, -187500.02, -187500.02, -187500.02, -187500.02, 17359.95, 187500.00, -0.00, -0.00, -0.00
145, 95427.20, -187500.02, -187500.02, -187500.02, -187500.02, -187500.02, 17384.07, 187500.00, -0.00, -0.00, -0.00
146, 95348.78, -187500.02, -187500.02, -187500.02, -187500.02, -187500.02, 17435.41, 187500.00, -0.00, -0.00, -0.00
147, 95342.01, -187500.02, -187500.02, -187500.02, -187500.02, -187500.02, 17462.21, 187500.00, -0.00, -0.00, -0.00
148, 95419.19, -187500.02, -187500.02, -187500.02, -187500.02, -187500.02, 17469.16, 187500.00, -0.00, -0.00, -0.00
149, 95408.28, -187500.02, -187500.02, -187500.02, -187500.02, -187500.02, 17512.95, 187500.00, -0.00, -0.00, -0.00
150, 95337.45, -187500.02, -187500.02, -187500.02, -187500.02, -187500.02, 17572.81, 187500.00, -0.00, -0.00, -0.00
151, 95342.26, -187500.02, -187500.02, -187500.02, -187500.02, -187500.02, 17576.43, 187500.00, -0.00, -0.00, -0.00
152, 95381.53, -187500.02, -187500.02, -187500.02, -187500.02, -187500.02, 17588.16, 187500.00, -0.00, -0.00, -0.00
153, 95397.87, -187500.02, -187500.02, -187500.02, -187500.02, -187500.02, 17620.97, 187500.00, -0.00, -0.00, -0.00
154, 95359.00, -187500.02, -187500.02, -187500.02, -187500.02, -187500.02, 17649.09, 187500.00, -0.00, -0.00, -0.00
155, 95340.58, -187500.02, -187500.02, -187500.02, -187500.02, -187500.02, 17654.21, 187500.00, -0.00, -0.00, -0.00
156, 95337.20, -187500.02, -187500.02, -187500.02, -187500.02, -187500.02, 17717.42, 187500.00, -0.00, -0.00, -0.00
157, 95392.48, -187500.02, -187500.02, -187500.02, -187500.02, -187500.02, 17745.72, 187500.00, -0.00, -0.00, -0.00
158, 95342.97, -187500.02, -187500.02, -187500.02, -187500.02, -187500.02, 17783.58, 187500.00, -0.00, -0.00, -0.00
159, 95314.25, -187500.02, -187500.02, -187500.02, -187500.02, -187500.02, 17806.92, 187500.00, -0.00, -0.00, -0.00
160, 95332.49, -187500.02, -187500.02, -187500.02, -187500.02, -187500.02, 17839.80, 187500.00, -0.00, -0.00, -0.00
161, 95362.69, -187500.02, -187500.02, -187500.02, -187500.02, -187500.02, 17902.83, 187500.00, -0.00, -0.00, -0.00
162, 95379.88, -187500.02, -187500.02, -187500.02, -187500.02, -187500.02, 17926.32, 187500.00, -0.00, -0.00, -0.00
163, 95375.80, -187500.02, -187500.02, -187500.02, -187500.02, -187500.02, 17914.41, 187500.00, -0.00, -0.00, -0.00
164, 95410.23, -187500.02, -187500.02, -187500.02, -187500.02, -187500.02, 17907.70, 187500.00, -0.00, -0.00, -0.00
165, 95482.70, -187500.02, -187500.02, -187500.02, -187500.02, -187500.02, 17929.74, 187500.00, -0.00, -0.00, -0.00
166, 95489.17, -187500.02, -187500.02, -187500.02, -187500.02, -187500.02, 17958.33, 187500.00, -0.00, -0.00, -0.00
167, 95433.09, -187500.02, -187500.02, -187500.02, -187500.02, -187500.02, 17943.96, 187500.00, -0.00, -0.00, -0.00
168, 95388.62, -187500.02, -187500.02, -187500.02, -187500.02, -187500.02, 17999.86, 187500.00, -0.00, -0.00, -0.00
169, 95473.39, -187500.02, -187500.02, -187500.02, -187500.02, -187500.02, 18015.33, 187500.00, -0.00, -0.00, -0.00
170, 95479.52, -187500.02, -187500.02, -187500.02, -187500.02, -187500.02, 18035.69, 187500.00, -0.00, -0.00, -0.00
171, 95443.42, -187500.02, -187500.02, -187500.02, -187500.02, -187500.02, 18024.27, 187500.00, -0.00, -0.00, -0.00
172, 95426.43, -187500.02, -187500.02, -187500.02, -187500.02, -187500.02, 18021.23, 187500.00, -0.00, -0.00, -0.00
173, 95461.75, -187500.02, -187500.02, -187500.02, -187500.02, -187500.02, 18052.41, 187500.00, -0.00, -0.00, -0.00
174, 95468.86, -187500.02, -187500.02, -187500.02, -187500.02, -187500.02, 18080.68, 187500.00, -0.00, -0.00, -0.00
175, 95406.85, -187500.02, -187500.02, -187500.02, -187500.02, -187500.02, 18093.09, 187500.00, -0.00, -0.00, -0.00
176, 95379.27, -187500.02, -187500.02, -187500.02, -187500.02, -187500.02, 18124.98, 187500.00, -0.00, -0.00, -0.00
177, 95438.34, -187500.02, -187500.02, -187500.02, -187500.02, -187500.02, 18144.79, 187500.00, -0.00, -0.00, -0.00
178, 95462.60, -187500.02, -187500.02, -187500.02, -187500.02, -187500.02, 18138.98, 187500.00, -0.00, -0.00, -0.00
179, 95382.36, -187500.02, -187500.02, -187500.02, -187500.02, -187500.02, 18199.30, 187500.00, -0.00, -0.00, -0.00
180, 95364.36, -187500.02, -187500.02, -187500.02, -187500.02, -187500.02, 18209.70, 187500.00, -0.00, -0.00, -0.00
181, 95359.73, -187500.02, -187500.02, -187500.02, -187500.02, -187500.02, 18253.95, 187500.00, -0.00, -0.00, -0.00
182, 95404.08, -187500.02, -187500.02, -187500.02, -187500.02, -187500.02, 18297.49, 187500.00, -0.00, -0.00, -0.00
183, 95361.68, -187500.02, -187500.02, -187500.02, -187500.02, -187500.02, 18325.55, 187500.00, -0.00, -0.00, -0.00
184, 95335.73, -187500.02, -187500.02, -187500.02, -187500.02, -187500.02, 18340.77, 187500.00, -0.00, -0.00, -0.00
185, 95353.95, -187500.02, -187500.02, -187500.02, -187500.02, -187500.02, 18379.57, 187500.00, -0.00, -0.00, -0.00
186, 95430.91, -187500.02, -187500.02, -187500.02, -187500.02, -187500.02, 18392.15, 187500.00, -0.00, -0.00, -0.00
187, 95437.97, -187500.02, -187500.02, -187500.02, -187500.02, -187500.02, 18410.91, 187500.00, -0.00, -0.00, -0.00
188, 95374.20, -187500.02, -187500.02, -187500.02, -187500.02, -187500.02, 18418.35, 187500.00, -0.00, -0.00, -0.00
189, 95343.48, -187500.02, -187500.02, -187500.02, -187500.02, -187500.02, 18474.68, 187500.00, -0.00, -0.00, -0.00
190, 95395.34, -187500.02, -187500.02, -187500.02, -187500.02, -187500.02, 18529.21, 187500.00, -0.00, -0.00, -0.00
191, 95406.61, -187500.02, -187500.02, -187500.02, -187500.02, -187500.02, 18554.92, 187500.00, -0.00, -0.00, -0.00
192, 95322.85, -187500.02, -187500.02, -187500.02, -187500.02, -187500.02, 18598.64, 187500.00, -0.00, -0.00, -0.00
193, 95329.12, -187500.02, -187500.02, -187500.02, -187500.02, -187500.02, 18641.00, 187500.00, -0.00, -0.00, -0.00
194, 95417.98, -187500.02, -187500.02, -187500.02, -187500.02, -187500.02, 18660.76, 187500.00, -0.00, -0.00, -0.00
195, 95438.62, -187500.02, -187500.02, -187500.02, -187500.02, -187500.02, 18664.33, 187500.00, -0.00, -0.00, -0.00
196, 95378.20, -187500.02, -187500.02, -187500.02, -187500.02, -187500.02, 18681.63, 187500.00, -0.00, -0.00, -0.00
197, 95373.23, -187500.02, -187500.02, -187500.02, -187500.02, -187500.02, 18723.43, 187500.00, -0.00, -0.00, -0.00
198, 95448.52, -187500.02, -187500.02, -187500.02, -187500.02, -187500.02, 18735.14, 187500.00, -0.00, -0.00, -0.00
199, 95505.91, -187500.02, -187500.02, -187500.02, -187500.02, -187500.02, 18727.50, 187500.00, -0.00, -0.00, -0.00
200, 95436.24, -187500.02, -187500.02, -187500.02, -187500.02, -187500.02, 18763.42, 187500.00, -0.00, -0.00, -0.00
201, 95408.40, -187500.02, -187500.02, -187500.02, -187500.02, -187500.02, 18804.37, 187500.00, -0.00, -0.00, -0.00
202, 95454.59, -187500.02, -187500.02, -187500.02, -187500.02, -187500.02, 18823.88, 187500.00, -0.00, -0.00, -0.00
203, 95473.33, -187500.02, -187500.02, -187500.02, -187500.02, -187500.02, 18831.54, 187500.00, -0.00, -0.00, -0.00
204, 95417.98, -187500.02, -187500.02, -187500.02, -187500.02, -187500.02, 18829.31, 187500.00, -0.00, -0.00, -0.00
205, 95363.96, -187500.02, -187500.02, -187500.02, -187500.02, -187500.02, 18843.99, 187500.00, -0.00, -0.00, -0.00
206, 95442.93, -187500.02, -187500.02, -187500.02, -187500.02, -187500.02, 18827.43, 187500.00, -0.00, -0.00, -0.00
207, 95470.71, -187500.02, -187500.02, -187500.02, -187500.02, -187500.02, 18834.76, 187500.00, -0.00, -0.00, -0.00
208, 95418.27, -187500.02, -187500.02, -187500.02, -187500.02, -187500.02, 18856.45, 187500.00, -0.00, -0.00, -0.00
209, 95358.26, -187500.02, -187500.02, -187500.02, -187500.02, -187500.02, 18847.35, 187500.00, -0.00, -0.00, -0.00
210, 95297.40, -187500.02, -187500.02, -187500.02, -187500.02, -187500.02, 18904.10, 187500.00, -0.00, -0.00, -0.00
211, 95367.13, -187500.02, -187500.02, -187500.02, -187500.02, -187500.02, 18943.57, 187500.00, -0.00, -0.00, -0.00
212, 95341.32, -187500.02, -187500.02, -187500.02, -187500.02, -187500.02, 18939.66, 187500.00, -0.00, -0.00, -0.00
213, 95246.48, -187500.02, -187500.02, -187500.02, -187500.02, -187500.02, 18982.91, 187500.00, -0.00, -0.00, -0.00
214, 95264.16, -187500.02, -187500.02, -187500.02, -187500.02, -187500.02, 19025.04, 187500.00, -0.00, -0.00, -0.00
215, 95306.31, -187500.02, -187500.02, -187500.02, -187500.02, -187500.02, 19071.07, 187500.00, -0.00, -0.00, -0.00
216, 95319.81, -187500.02, -187500.02, -187500.02, -187500.02, -187500.02, 19109.42, 187500.00, -0.00, -0.00, -0.00
217, 95280.88, -187500.02, -187500.02, -187500.02, -187500.02, -187500.02, 19118.32, 187500.00, -0.00, -0.00, -0.00
218, 95245.98, -187500.02, -187500.02, -187500.02, -187500.02, -187500.02, 19173.30, 187500.00, -0.00, -0.00, -0.00
219, 95316.22, -187500.02, -187500.02, -187500.02, -187500.02, -187500.02, 19212.80, 187500.00, -0.00, -0.00, -0.00
220, 95359.47, -187500.02, -187500.02, -187500.02, -187500.02, -187500.02, 19221.76, 187500.00, -0.00, -0.00, -0.00
221, 95301.09, -187500.02, -187500.02, -187500.02, -187500.02, -187500.02, 19229.36, 187500.00, -0.00, -0.00, -0.00
222, 95223.86, -187500.02, -187500.02, -187500.02, -187500.02, -187500.02, 19286.34, 187500.00, -0.00, -0.00, -0.00
223, 95286.63, -187500.02, -187500.02, -187500.02, -187500.02, -187500.02, 19337.86, 187500.00, -0.00, -0.00, -0.00
224, 95377.86, -187500.02, -187500.02, -187500.02, -187500.02, -187500.02, 19335.91, 187500.00, -0.00, -0.00, -0.00
225, 95344.09, -187500.02, -187500.02, -187500.02, -187500.02, -187500.02, 19375.90, 187500.00, -0.00, -0.00, -0.00
226, 95302.56, -187500.02, -187500.02, -187500.02, -187500.02, -187500.02, 19405.27, 187500.00, -0.00, -0.00, -0.00
227, 95332.38, -187500.02, -187500.02, -187500.02, -187500.02, -187500.02, 19417.03, 187500.00, -0.00, -0.00, -0.00
228, 95368.77, -187500.02, -187500.02, -187500.02, -187500.02, -187500.02, 19431.06, 187500.00, -0.00, -0.00, -0.00
229, 95347.64, -187500.02, -187500.02, -187500.02, -187500.02, -187500.02, 19459.43, 187500.00, -0.00, -0.00, -0.00
230, 95348.23, -187500.02, -187500.02, -187500.02, -187500.02, -187500.02, 19467.45, 187500.00, -0.00, -0.00, -0.00
231, 95381.08, -187500.02, -187500.02, -187500.02, -187500.02, -187500.02, 19495.17, 187500.00, -0.00, -0.00, -0.00
232, 95440.07, -187500.02, -187500.02, -187500.02, -187500.02, -187500.02, 19511.26, 187500.00, -0.00, -0.00, -0.00
233, 95425.31, -187500.02, -187500.02, -187500.02, -187500.02, -187500.02, 19511.53, 187500.00, -0.00, -0.00, -0.00
234, 95371.42, -187500.02, -187500.02, -187500.02, -187500.02, -187500.02, 19517.16, 187500.00, -0.00, -0.00, -0.00
235, 95380.32, -187500.02, -187500.02, -187500.02, -187500.02, -187500.02, 19520.65, 187500.00, -0.00, -0.00, -0.00
236, 95432.24, -187500.02, -187500.02, -187500.02, -187500.02, -187500.02, 19575.23, 187500.00, -0.00, -0.00, -0.00
237, 95472.50, -187500.02, -187500.02, -187500.02, -187500.02, -187500.02, 19561.08, 187500.00, -0.00, -0.00, -0.00
238, 95440.58, -187500.02, -187500.02, -187500.02, -187500.02, -187500.02, 19555.83, 187500.00, -0.00, -0.00, -0.00
239, 95480.10, -187500.02, -187500.02, -187500.02, -187500.02, -187500.02, 19531.11, 187500.00, -0.00, -0.00, -0.00
240, 95499.95, -187500.02, -187500.02, -187500.02, -187500.02, -187500.02, 19570.47, 187500.00, -0.00, -0.00, -0.00
241, 95486.60, -187500.02, -187500.02, -187500.02, -187500.02, -187500.02, 19613.41, 187500.00, -0.00, -0.00, -0.00
242, 95422.05, -187500.02, -187500.02, -187500.02, -187500.02, -187500.02, 19626.73, 187500.00, -0.00, -0.00, -0.00
243, 95385.87, -187500.02, -187500.02, -187500.02, -187500.02, -187500.02, 19667.41, 187500.00, -0.00, -0.00, -0.00
244, 95456.32, -187500.02, -187500.02, -187500.02, -187500.02, -187500.02, 19674.83, 187500.00, -0.00, -0.00, -0.00
245, 95449.52, -187500.02, -187500.02, -187500.02, -187500.02, -187500.02, 19706.17, 187500.00, -0.00, -0.00, -0.00
246, 95408.17, -187500.02, -187500.02, -187500.02, -187500.02, -187500.02, 19729.88, 187500.00, -0.00, -0.00, -0.00
247, 95391.70, -187500.02, -187500.02, -187500.02, -187500.02, -187500.02, 19735.90, 187500.00, -0.00, -0.00, -0.00
248, 95381.59, -187500.02, -187500.02, -187500.02, -187500.02, -187500.02, 19814.02, 187500.00, -0.00, -0.00, -0.00
249, 95447.55, -187500.02, -187500.02, -187500.02, -187500.02, -187500.02, 19836.44, 187500.00, -0.00, -0.00, -0.00
250, 95392.64, -187500.02, -187500.02, -187500.02, -187500.02, -187500.02, 19851.21, 187500.00, -0.00, -0.00, -0.00
251, 95373.68, -187500.02, -187500.02, -187500.02, -187500.02, -187500.02, 19873.90, 187500.00, -0.00, -0.00, -0.00
252, 95409.73, -187500.02, -187500.02, -187500.02, -187500.02, -187500.02, 19903.33, 187500.00, -0.00, -0.00, -0.00
253, 95452.95, -187500.02, -187500.02, -187500.02, -187500.02, -187500.02, 19932.79, 187500.00, -0.00, -0.00, -0.00
254, 95455.42, -187500.02, -187500.02, -187500.02, -187500.02, -187500.02, 19927.32, 187500.00, -0.00, -0.00, -0.00
255, 95379.56, -187500.02, -187500.02, -187500.02, -187500.02, -187500.02, 19990.53, 187500.00, -0.00, -0.00, -0.00
0, 95426.61, -187500.02, -187500.02, -187500.02, -187500.02, -187500.02, 20020.66, 187500.00, -0.00, -0.00, -0.00
1, 95481.71, -187500.02, -187500.02, -187500.02, -187500.02, -187500.02, 20056.91, 187500.00, -0.00, -0.00, -0.00
2, 95453.48, -187500.02, -187500.02, -187500.02, -187500.02, -187500.02, 20069.79, 187500.00, -0.00, -0.00, -0.00
3, 95377.88, -187500.02, -187500.02, -187500.02, -187500.02, -187500.02, 20108.70, 187500.00, -0.00, -0.00, -0.00
4, 95373.80, -187500.02, -187500.02, -187500.02, -187500.02, -187500.02, 20158.70, 187500.00, -0.00, -0.00, -0.00
5, 95464.23, -187500.02, -187500.02, -187500.02, -187500.02, -187500.02, 20153.56, 187500.00, -0.00, -0.00, -0.00
6, 95466.76, -187500.02, -187500.02, -187500.02, -187500.02, -187500.02, 20185.30, 187500.00, -0.00, -0.00, -0.00
7, 95432.89, -187500.02, -187500.02, -187500.02, -187500.02, -187500.02, 20199.40, 187500.00, -0.00, -0.00, -0.00
8, 95431.57, -187500.02, -187500.02, -187500.02, -187500.02, -187500.02, 20228.17, 187500.00, -0.00, -0.00, -0.00
9, 95526.91, -187500.02, -187500.02, -187500.02, -187500.02, -187500.02, 20239.26, 187500.00, -0.00, -0.00, -0.00
10, 95539.04, -187500.02, -187500.02, -187500.02, -187500.02, -187500.02, 20242.92, 187500.00, -0.00, -0.00, -0.00
11, 95500.64, -187500.02, -187500.02, -187500.02, -187500.02, -187500.02, 20228.87, 187500.00, -0.00, -0.00, -0.00
12, 95492.91, -187500.02, -187500.02, -187500.02, -187500.02, -187500.02, 20226.99, 187500.00, -0.00, -0.00, -0.00
13, 95544.25, -187500.02, -187500.02, -187500.02, -187500.02, -187500.02, 20228.84, 187500.00, -0.00, -0.00, -0.00
14, 95511.80, -187500.02, -187500.02, -187500.02, -187500.02, -187500.02, 20284.05, 187500.00, -0.00, -0.00, -0.00
15, 95513.90, -187500.02, -187500.02, -187500.02, -187500.02, -187500.02, 20284.45, 187500.00, -0.00, -0.00, -0.00
16, 95480.59, -187500.02, -187500.02, -187500.02, -187500.02, -187500.02, 20269.14, 187500.00, -0.00, -0.00, -0.00
17, 95496.69, -187500.02, -187500.02, -187500.02, -187500.02, -187500.02, 20293.44, 187500.00, -0.00, -0.00, -0.00
18, 95549.55, -187500.02, -187500.02, -187500.02, -187500.02, -187500.02, 20308.28, 187500.00, -0.00, -0.00, -0.00
19, 95522.92, -187500.02, -187500.02, -187500.02, -187500.02, -187500.02, 20311.21, 187500.00, -0.00, -0.00, -0.00
20, 95459.18, -187500.02, -187500.02, -187500.02, -187500.02, -187500.02, 20326.09, 187500.00, -0.00, -0.00, -0.00
21, 95467.96, -187500.02, -187500.02, -187500.02, -187500.02, -187500.02, 20357.61, 187500.00, -0.00, -0.00, -0.00
22, 95531.02, -187500.02, -187500.02, -187500.02, -187500.02, -187500.02, 20370.48, 187500.00, -0.00, -0.00, -0.00
23, 95479.01, -187500.02, -187500.02, -187500.02, -187500.02, -187500.02, 20405.06, 187500.00, -0.00, -0.00, -0.00
24, 95392.95, -187500.02, -187500.02, -187500.02, -187500.02, -187500.02, 20456.00, 187500.00, -0.00, -0.00, -0.00
25, 95448.43, -187500.02, -187500.02, -187500.02, -187500.02, -187500.02, 20458.15, 187500.00, -0.00, -0.00, -0.00
26, 95497.04, -187500.02, -187500.02, -187500.02, -187500.02, -187500.02, 20466.35, 187500.00, -0.00, -0.00, -0.00
27, 95475.61, -187500.02, -187500.02, -187500.02, -187500.02, -187500.02, 20513.63, 187500.00, -0.00, -0.00, -0.00
28, 95402.90, -187500.02, -187500.02, -187500.02, -187500.02, -187500.02, 20555.87, 187500.00, -0.00, -0.00, -0.00
29, 95443.69, -187500.02, -187500.02, -187500.02, -187500.02, -187500.02, 20542.75, 187500.00, -0.00, -0.00, -0.00
30, 95503.84, -187500.02, -187500.02, -187500.02, -187500.02, -187500.02, 20547.51, 187500.00, -0.00, -0.00, -0.00
31, 95443.69, -187500.02, -187500.02, -187500.02, -187500.02, -187500.02, 20616.60, 187500.00, -0.00, -0.00, -0.00
32, 95408.55, -187500.02, -187500.02, -187500.02, -187500.02, -187500.02, 20655.98, 187500.00, -0.00, -0.00, -0.00
33, 95416.20, -187500.02, -187500.02, -187500.02, -187500.02, -187500.02, 20691.86, 187500.00, -0.00, -0.00, -0.00
34, 95484.75, -187500.02, -187500.02, -187500.02, -187500.02, -187500.02, 20718.05, 187500.00, -0.00, -0.00, -0.00
35, 95489.80, -187500.02, -187500.02, -187500.02, -187500.02, -187500.02, 20754.91, 187500.00, -0.00, -0.00, -0.00
36, 95457.41, -187500.02, -187500.02, -187500.02, -187500.02, -187500.02, 20758.36, 187500.00, -0.00, -0.00, -0.00
37, 95424.60, -187500.02, -187500.02, -187500.02, -187500.02, -187500.02, 20785.20, 187500.00, -0.00, -0.00, -0.00
38, 95490.09, -187500.02, -187500.02, -187500.02, -187500.02, -187500.02, 20797.87, 187500.00, -0.00, -0.00, -0.00
39, 95508.17, -187500.02, -187500.02, -187500.02, -187500.02, -187500.02, 20828.65, 187500.00, -0.00, -0.00, -0.00
40, 95484.44, -187500.02, -187500.02, -187500.02, -187500.02, -187500.02, 20844.41, 187500.00, -0.00, -0.00, -0.00
41, 95464.09, -187500.02, -187500.02, -187500.02, -187500.02, -187500.02, 20858.67, 187500.00, -0.00, -0.00, -0.00
42, 95504.55, -187500.02, -187500.02, -187500.02, -187500.02, -187500.02, 20878.96, 187500.00, -0.00, -0.00, -0.00
43, 95587.21, -187500.02, -187500.02, -187500.02, -187500.02, -187500.02, 20892.24, 187500.00, -0.00, -0.00, -0.00
44, 95568.23, -187500.02, -187500.02, -187500.02, -187500.02, -187500.02, 20892.96, 187500.00, -0.00, -0.00, -0.00
45, 95531.04, -187500.02, -187500.02, -187500.02, -187500.02, -187500.02, 20868.68, 187500.00, -0.00, -0.00, -0.00
46, 95534.34, -187500.02, -187500.02, -187500.02, -187500.02, -187500.02, 20889.40, 187500.00, -0.00, -0.00, -0.00
47, 95571.81, -187500.02, -187500.02, -187500.02, -187500.02, -187500.02, 20913.54, 187500.00, -0.00, -0.00, -0.00
48, 95546.33, -187500.02, -187500.02, -187500.02, -187500.02, -187500.02, 20929.79, 187500.00, -0.00, -0.00, -0.00
49, 95509.90, -187500.02, -187500.02, -187500.02, -187500.02, -187500.02, 20934.89, 187500.00, -0.00, -0.00, -0.00
50, 95546.98, -187500.02, -187500.02, -187500.02, -187500.02, -187500.02, 20936.45, 187500.00, -0.00, -0.00, -0.00
51, 95583.55, -187500.02, -187500.02, -187500.02, -187500.02, -187500.02, 20947.92, 187500.00, -0.00, -0.00, -0.00
52, 95623.91, -187500.02, -187500.02, -187500.02, -187500.02, -187500.02, 20934.44, 187500.00, -0.00, -0.00, -0.00
53, 95534.75, -187500.02, -187500.02, -187500.02, -187500.02, -187500.02, 20935.45, 187500.00, -0.00, -0.00, -0.00
54, 95467.74, -187500.02, -187500.02, -187500.02, -187500.02, -187500.02, 20990.63, 187500.00, -0.00, -0.00, -0.00
55, 95486.27, -187500.02, -187500.02, -187500.02, -187500.02, -187500.02, 21082.23, 187500.00, -0.00, -0.00, -0.00
56, 95532.05, -187500.02, -187500.02, -187500.02, -187500.02, -187500.02, 21099.87, 187500.00, -0.00, -0.00, -0.00
57, 95454.09, -187500.02, -187500.02, -187500.02, -187500.02, -187500.02, 21110.62, 187500.00, -0.00, -0.00, -0.00
58, 95421.52, -187500.02, -187500.02, -187500.02, -187500.02, -187500.02, 21165.22, 187500.00, -0.00, -0.00, -0.00
59, 95516.76, -187500.02, -187500.02, -187500.02, -187500.02, -187500.02, 21176.91, 187500.00, -0.00, -0.00, -0.00
60, 95554.77, -187500.02, -187500.02, -187500.02, -187500.02, -187500.02, 21183.78, 187500.00, -0.00, -0.00, -0.00
61, 95538.91, -187500.02, -187500.02, -187500.02, -187500.02, -187500.02, 21178.79, 187500.00, -0.00, -0.00, -0.00
62, 95492.69, -187500.02, -187500.02, -187500.02, -187500.02, -187500.02, 21190.66, 187500.00, -0.00, -0.00, -0.00
63, 95520.80, -187500.02, -187500.02, -187500.02, -187500.02, -187500.02, 21206.55, 187500.00, -0.00, -0.00, -0.00
64, 95524.80, -187500.02, -187500.02, -187500.02, -187500.02, -187500.02, 21229.31, 187500.00, -0.00, -0.00, -0.00
65, 95462.80, -187500.02, -187500.02, -187500.02, -187500.02, -187500.02, 21283.73, 187500.00, -0.00, -0.00, -0.00
66, 95427.88, -187500.02, -187500.02, -187500.02, -187500.02, -187500.02, 21321.91, 187500.00, -0.00, -0.00, -0.00
67, 95466.89, -187500.02, -187500.02, -187500.02, -187500.02, -187500.02, 21368.85, 187500.00, -0.00, -0.00, -0.00
68, 95531.24, -187500.02, -187500.02, -187500.02, -187500.02, -187500.02, 21381.97, 187500.00, -0.00, -0.00, -0.00
69, 95494.78, -187500.02, -187500.02, -187500.02, -187500.02, -187500.02, 21400.86, 187500.00, -0.00, -0.00, -0.00
70, 95476.73, -187500.02, -187500.02, -187500.02, -187500.02, -187500.02, 21394.60, 187500.00, -0.00, -0.00, -0.00
71, 95483.14, -187500.02, -187500.02, -187500.02, -187500.02, -187500.02, 21420.97, 187500.00, -0.00, -0.00, -0.00
72, 95555.65, -187500.02, -187500.02, -187500.02, -187500.02, -187500.02, 21445.63, 187500.00, -0.00, -0.00, -0.00
73, 95565.51, -187500.02, -187500.02, -187500.02, -187500.02, -187500.02, 21457.76, 187500.00, -0.00, -0.00, -0.00
74, 95501.27, -187500.02, -187500.02, -187500.02, -187500.02, -187500.02, 21476.88, 187500.00, -0.00, -0.00, -0.00
75, 95519.20, -187500.02, -187500.02, -187500.02, -187500.02, -187500.02, 21485.03, 187500.00, -0.00, -0.00, -0.00
76, 95572.34, -187500.02, -187500.02, -187500.02, -187500.02, -187500.02, 21507.00, 187500.00, -0.00, -0.00, -0.00
77, 95603.80, -187500.02, -187500.02, -187500.02, -187500.02, -187500.02, 21494.89, 187500.00, -0.00, -0.00, -0.00
78, 95530.39, -187500.02, -187500.02, -187500.02, -187500.02, -187500.02, 21500.66, 187500.00, -0.00, -0.00, -0.00
79, 95528.42, -187500.02, -187500.02, -187500.02, -187500.02, -187500.02, 21510.33, 187500.00, -0.00, -0.00, -0.00
80, 95596.80, -187500.02, -187500.02, -187500.02, -187500.02, -187500.02, 21520.28, 187500.00, -0.00, -0.00, -0.00
81, 95622.93, -187500.02, -187500.02, -187500.02, -187500.02, -187500.02, 21518.27, 187500.00, -0.00, -0.00, -0.00
82, 95543.96, -187500.02, -187500.02, -187500.02, -187500.02, -187500.02, 21540.40, 187500.00, -0.00, -0.00, -0.00
83, 95527.38, -187500.02, -187500.02, -187500.02, -187500.02, -187500.02, 21549.00, 187500.00, -0.00, -0.00, -0.00
84, 95655.83, -187500.02, -187500.02, -187500.02, -187500.02, -187500.02, 21505.26, 187500.00, -0.00, -0.00, -0.00
85, 95641.93, -187500.02, -187500.02, -187500.02, -187500.02, -187500.02, 21514.69, 187500.00, -0.00, -0.00, -0.00
86, 95569.04, -187500.02, -187500.02, -187500.02, -187500.02, -187500.02, 21518.00, 187500.00, -0.00, -0.00, -0.00
87, 95456.09, -187500.02, -187500.02, -187500.02, -187500.02, -187500.02, 21557.61, 187500.00, -0.00, -0.00, -0.00
88, 95502.61, -187500.02, -187500.02, -187500.02, -187500.02, -187500.02, 21593.21, 187500.00, -0.00, -0.00, -0.00
89, 95577.09, -187500.02, -187500.02, -187500.02, -187500.02, -187500.02, 21586.84, 187500.00, -0.00, -0.00, -0.00
90, 95505.83, -187500.02, -187500.02, -187500.02, -187500.02, -187500.02, 21616.06, 187500.00, -0.00, -0.00, -0.00
91, 95453.08, -187500.02, -187500.02, -187500.02, -187500.02, -187500.02, 21652.40, 187500.00, -0.00, -0.00, -0.00
92, 95534.19, -187500.02, -187500.02, -187500.02, -187500.02, -187500.02, 21654.59, 187500.00, -0.00, -0.00, -0.00
93, 95575.07, -187500.02, -187500.02, -187500.02, -187500.02, -187500.02, 21662.21, 187500.00, -0.00, -0.00, -0.00
94, 95511.66, -187500.02, -187500.02, -187500.02, -187500.02, -187500.02, 21704.64, 187500.00, -0.00, -0.00, -0.00
95, 95467.88, -187500.02, -187500.02, -187500.02, -187500.02, -187500.02, 21769.10, 187500.00, -0.00, -0.00, -0.00
96, 95502.95, -187500.02, -187500.02, -187500.02, -187500.02, -187500.02, 21783.29, 187500.00, -0.00, -0.00, -0.00
97, 95524.60, -187500.02, -187500.02, -187500.02, -187500.02, -187500.02, 21792.97, 187500.00, -0.00, -0.00, -0.00
98, 95501.24, -187500.02, -187500.02, -187500.02, -187500.02, -187500.02, 21817.78, 187500.00, -0.00, -0.00, -0.00
99, 95459.18, -187500.02, -187500.02, -187500.02, -187500.02, -187500.02, 21838.59, 187500.00, -0.00, -0.00, -0.00
100, 95449.73, -187500.02, -187500.02, -187500.02, -187500.02, -187500.02, 21888.48, 187500.00, -0.00, -0.00, -0.00
101, 95538.26, -187500.02, -187500.02, -187500.02, -187500.02, -187500.02, 21905.47, 187500.00, -0.00, -0.00, -0.00
102, 95586.27, -187500.02, -187500.02, -187500.02, -187500.02, -187500.02, 21897.76, 187500.00, -0.00, -0.00, -0.00
103, 95513.60, -187500.02, -187500.02, -187500.02, -187500.02, -187500.02, 21904.75, 187500.00, -0.00, -0.00, -0.00
104, 95486.25, -187500.02, -187500.02, -187500.02, -187500.02, -187500.02, 21942.35, 187500.00, -0.00, -0.00, -0.00
105, 95545.08, -187500.02, -187500.02, -187500.02, -187500.02, -187500.02, 21977.11, 187500.00, -0.00, -0.00, -0.00
106, 95612.40, -187500.02, -187500.02, -187500.02, -187500.02, -187500.02, 21991.72, 187500.00, -0.00, -0.00, -0.00
107, 95579.95, -187500.02, -187500.02, -187500.02, -187500.02, -187500.02, 22000.42, 187500.00, -0.00, -0.00, -0.00
108, 95562.73, -187500.02, -187500.02, -187500.02, -187500.02, -187500.02, 22015.89, 187500.00, -0.00, -0.00, -0.00
109, 95607.28, -187500.02, -187500.02, -187500.02, -187500.02, -187500.02, 22031.91, 187500.00, -0.00, -0.00, -0.00
110, 95647.42, -187500.02, -187500.02, -187500.02, -187500.02, -187500.02, 22041.01, 187500.00, -0.00, -0.00, -0.00
111, 95632.29, -187500.02, -187500.02, -187500.02, -187500.02, -187500.02, 22047.96, 187500.00, -0.00, -0.00, -0.00
112, 95606.99, -187500.02, -187500.02, -187500.02, -187500.02, -187500.02, 22050.53, 187500.00, -0.00, -0.00, -0.00
113, 95677.00, -187500.02, -187500.02, -187500.02, -187500.02, -187500.02, 22057.68, 187500.00, -0.00, -0.00, -0.00
114, 95709.41, -187500.02, -187500.02, -187500.02, -187500.02, -187500.02, 22087.39, 187500.00, -0.00, -0.00, -0.00
115, 95694.03, -187500.02, -187500.02, -187500.02, -187500.02, -187500.02, 22072.48, 187500.00, -0.00, -0.00, -0.00
116, 95619.10, -187500.02, -187500.02, -187500.02, -187500.02, -187500.02, 22077.69, 187500.00, -0.00, -0.00, -0.00
117, 95638.66, -187500.02, -187500.02, -187500.02, -187500.02, -187500.02, 22076.26, 187500.00, -0.00, -0.00, -0.00
118, 95670.13, -187500.02, -187500.02, -187500.02, -187500.02, -187500.02, 22098.28, 187500.00, -0.00, -0.00, -0.00
119, 95635.27, -187500.02, -187500.02, -187500.02, -187500.02, -187500.02, 22126.01, 187500.00, -0.00, -0.00, -0.00
120, 95572.46, -187500.02, -187500.02, -187500.02, -187500.02, -187500.02, 22141.39, 187500.00, -0.00, -0.00, -0.00
121, 95564.41, -187500.02, -187500.02, -187500.02, -187500.02, -187500.02, 22189.54, 187500.00, -0.00, -0.00, -0.00
122, 95661.35, -187500.02, -187500.02, -187500.02, -187500.02, -187500.02, 22180.60, 187500.00, -0.00, -0.00, -0.00
123, 95660.50, -187500.02, -187500.02, -187500.02, -187500.02, -187500.02, 22179.28, 187500.00, -0.00, -0.00, -0.00
124, 95614.27, -187500.02, -187500.02, -187500.02, -187500.02, -187500.02, 22173.55, 187500.00, -0.00, -0.00, -0.00
125, 95576.70, -187500.02, -187500.02, -187500.02, -187500.02, -187500.02, 22198.92, 187500.00, -0.00, -0.00, -0.00
126, 95599.73, -187500.02, -187500.02, -187500.02, -187500.02, -187500.02, 22264.53, 187500.00, -0.00, -0.00, -0.00
127, 95624.65, -187500.02, -187500.02, -187500.02, -187500.02, -187500.02, 22290.25, 187500.00, -0.00, -0.00, -0.00
128, 95552.68, -187500.02, -187500.02, -187500.02, -187500.02, -187500.02, 22315.00, 187500.00, -0.00, -0.00, -0.00
129, 95531.45, -187500.02, -187500.02, -187500.02, -187500.02, -187500.02, 22347.88, 187500.00, -0.00, -0.00, -0.00
130, 95624.98, -187500.02, -187500.02, -187500.02, -187500.02, -187500.02, 22344.79, 187500.00, -0.00, -0.00, -0.00
131, 95623.95, -187500.02, -187500.02, -187500.02, -187500.02, -187500.02, 22367.35, 187500.00, -0.00, -0.00, -0.00
132, 95585.29, -187500.02, -187500.02, -187500.02, -187500.02, -187500.02, 22396.69, 187500.00, -0.00, -0.00, -0.00
133, 95580.44, -187500.02, -187500.02, -187500.02, -187500.02, -187500.02, 22394.50, 187500.00, -0.00, -0.00, -0.00
134, 95631.55, -187500.02, -187500.02, -187500.02, -187500.02, -187500.02, 22424.83, 187500.00, -0.00, -0.00, -0.00
135, 95677.11, -187500.02, -187500.02, -187500.02, -187500.02, -187500.02, 22419.69, 187500.00, -0.00, -0.00, -0.00
136, 95580.64, -187500.02, -187500.02, -187500.02, -187500.02, -187500.02, 22465.58, 187500.00, -0.00, -0.00, -0.00
137, 95520.16, -187500.02, -187500.02, -187500.02, -187500.02, -187500.02, 22500.94, 187500.00, -0.00, -0.00, -0.00
138, 95580.46, -187500.02, -187500.02, -187500.02, -187500.02, -187500.02, 22528.35, 187500.00, -0.00, -0.00, -0.00
139, 95627.87, -187500.02, -187500.02, -187500.02, -187500.02, -187500.02, 22545.96, 187500.00, -0.00, -0.00, -0.00
140, 95630.48, -187500.02, -187500.02, -187500.02, -187500.02, -187500.02, 22566.41, 187500.00, -0.00, -0.00, -0.00
141, 95613.56, -187500.02, -187500.02, -187500.02, -187500.02, -187500.02, 22551.05, 187500.00, -0.00, -0.00, -0.00
142, 95642.80, -187500.02, -187500.02, -187500.02, -187500.02, -187500.02, 22544.66, 187500.00, -0.00, -0.00, -0.00
143, 95726.13, -187500.02, -187500.02, -187500.02, -187500.02, -187500.02, 22539.32, 187500.00, -0.00, -0.00, -0.00
144, 95714.37, -187500.02, -187500.02, -187500.02, -187500.02, -187500.02, 22544.35, 187500.00, -0.00, -0.00, -0.00
145, 95634.95, -187500.02, -187500.02, -187500.02, -187500.02, -187500.02, 22556.15, 187500.00, -0.00, -0.00, -0.00
146, 95642.91, -187500.02, -187500.02, -187500.02, -187500.02, -187500.02, 22569.96, 187500.00, -0.00, -0.00, -0.00
147, 95728.25, -187500.02, -187500.02, -187500.02, -187500.02, -187500.02, 22559.48, 187500.00, -0.00, -0.00, -0.00
148, 95708.63, -187500.02, -187500.02, -187500.02, -187500.02, -187500.02, 22569.34, 187500.00, -0.00, -0.00, -0.00
149, 95634.35, -187500.02, -187500.02, -187500.02, -187500.02, -187500.02, 22598.08, 187500.00, -0.00, -0.00, -0.00
150, 95659.92, -187500.02, -187500.02, -187500.02, -187500.02, -187500.02, 22579.33, 187500.00, -0.00, -0.00, -0.00
151, 95687.39, -187500.02, -187500.02, -187500.02, -187500.02, -187500.02, 22597.14, 187500.00, -0.00, -0.00, -0.00
152, 95685.80, -187500.02, -187500.02, -187500.02, -187500.02, -187500.02, 22623.32, 187500.00, -0.00, -0.00, -0.00
153, 95636.83, -187500.02, -187500.02, -187500.02, -187500.02, -187500.02, 22614.87, 187500.00, -0.00, -0.00, -0.00
154, 95602.84, -187500.02, -187500.02, -187500.02, -187500.02, -187500.02, 22626.02, 187500.00, -0.00, -0.00, -0.00
155, 95648.84, -187500.02, -187500.02, -187500.02, -187500.02, -187500.02, 22634.36, 187500.00, -0.00, -0.00, -0.00
156, 95657.64, -187500.02, -187500.02, -187500.02, -187500.02, -187500.02, 22657.81, 187500.00, -0.00, -0.00, -0.00
157, 95604.69, -187500.02, -187500.02, -187500.02, -187500.02, -187500.02, 22695.13, 187500.00, -0.00, -0.00, -0.00
158, 95571.07, -187500.02, -187500.02, -187500.02, -187500.02, -187500.02, 22719.14, 187500.00, -0.00, -0.00, -0.00
159, 95631.47, -187500.02, -187500.02, -187500.02, -187500.02, -187500.02, 22725.78, 187500.00, -0.00, -0.00, -0.00
160, 95640.34, -187500.02, -187500.02, -187500.02, -187500.02, -187500.02, 22763.96, 187500.00, -0.00, -0.00, -0.00
161, 95611.98, -187500.02, -187500.02, -187500.02, -187500.02, -187500.02, 22787.69, 187500.00, -0.00, -0.00, -0.00
162, 95574.85, -187500.02, -187500.02, -187500.02, -187500.02, -187500.02, 22786.22, 187500.00, -0.00, -0.00, -0.00
163, 95602.19, -187500.02, -187500.02, -187500.02, -187500.02, -187500.02, 22805.80, 187500.00, -0.00, -0.00, -0.00
164, 95649.62, -187500.02, -187500.02, -187500.02, -187500.02, -187500.02, 22819.21, 187500.00, -0.00, -0.00, -0.00
165, 95632.85, -187500.02, -187500.02, -187500.02, -187500.02, -187500.02, 22841.25, 187500.00, -0.00, -0.00, -0.00
166, 95586.74, -187500.02, -187500.02, -187500.02, -187500.02, -187500.02, 22848.91, 187500.00, -0.00, -0.00, -0.00
167, 95572.13, -187500.02, -187500.02, -187500.02, -187500.02, -187500.02, 22893.42, 187500.00, -0.00, -0.00, -0.00
168, 95622.77, -187500.02, -187500.02, -187500.02, -187500.02, -187500.02, 22945.94, 187500.00, -0.00, -0.00, -0.00
169, 95618.77, -187500.02, -187500.02, -187500.02, -187500.02, -187500.02, 22970.84, 187500.00, -0.00, -0.00, -0.00
170, 95559.36, -187500.02, -187500.02, -187500.02, -187500.02, -187500.02, 22973.41, 187500.00, -0.00, -0.00, -0.00
171, 95550.69, -187500.02, -187500.02, -187500.02, -187500.02, -187500.02, 23004.88, 187500.00, -0.00, -0.00, -0.00
172, 95644.43, -187500.02, -187500.02, -187500.02, -187500.02, -187500.02, 23048.09, 187500.00, -0.00, -0.00, -0.00
173, 95705.54, -187500.02, -187500.02, -187500.02, -187500.02, -187500.02, 23043.44, 187500.00, -0.00, -0.00, -0.00
174, 95618.32, -187500.02, -187500.02, -187500.02, -187500.02, -187500.02, 23076.37, 187500.00, -0.00, -0.00, -0.00
175, 95607.02, -187500.02, -187500.02, -187500.02, -187500.02, -187500.02, 23068.29, 187500.00, -0.00, -0.00, -0.00
176, 95672.15, -187500.02, -187500.02, -187500.02, -187500.02, -187500.02, 23070.31, 187500.00, -0.00, -0.00, -0.00
177, 95697.07, -187500.02, -187500.02, -187500.02, -187500.02, -187500.02, 23058.46, 187500.00, -0.00, -0.00, -0.00
178, 95630.55, -187500.02, -187500.02, -187500.02, -187500.02, -187500.02, 23054.57, 187500.00, -0.00, -0.00, -0.00
179, 95583.52, -187500.02, -187500.02, -187500.02, -187500.02, -187500.02, 23078.27, 187500.00, -0.00, -0.00, -0.00
180, 95644.79, -187500.02, -187500.02, -187500.02, -187500.02, -187500.02, 23069.88, 187500.00, -0.00, -0.00, -0.00
181, 95651.90, -187500.02, -187500.02, -187500.02, -187500.02, -187500.02, 23080.99, 187500.00, -0.00, -0.00, -0.00
182, 95606.21, -187500.02, -187500.02, -187500.02, -187500.02, -187500.02, 23093.33, 187500.00, -0.00, -0.00, -0.00
183, 95586.31, -187500.02, -187500.02, -187500.02, -187500.02, -187500.02, 23063.36, 187500.00, -0.00, -0.00, -0.00
184, 95608.96, -187500.02, -187500.02, -187500.02, -187500.02, -187500.02, 23072.68, 187500.00, -0.00, -0.00, -0.00
185, 95662.24, -187500.02, -187500.02, -187500.02, -187500.02, -187500.02, 23071.96, 187500.00, -0.00, -0.00, -0.00
186, 95589.80, -187500.02, -187500.02, -187500.02, -187500.02, -187500.02, 23072.95, 187500.00, -0.00, -0.00, -0.00
187, 95512.64, -187500.02, -187500.02, -187500.02, -187500.02, -187500.02, 23108.91, 187500.00, -0.00, -0.00, -0.00
188, 95558.98, -187500.02, -187500.02, -187500.02, -187500.02, -187500.02, 23116.06, 187500.00, -0.00, -0.00, -0.00
189, 95604.47, -187500.02, -187500.02, -187500.02, -187500.02, -187500.02, 23143.40, 187500.00, -0.00, -0.00, -0.00
190, 95580.10, -187500.02, -187500.02, -187500.02, -187500.02, -187500.02, 23162.55, 187500.00, -0.00, -0.00, -0.00
191, 95491.48, -187500.02, -187500.02, -187500.02, -187500.02, -187500.02, 23191.37, 187500.00, -0.00, -0.00, -0.00
192, 95493.16, -187500.02, -187500.02, -187500.02, -187500.02, -187500.02, 23242.30, 187500.00, -0.00, -0.00, -0.00
193, 95592.33, -187500.02, -187500.02, -187500.02, -187500.02, -187500.02, 23224.11, 187500.00, -0.00, -0.00, -0.00
194, 95533.48, -187500.02, -187500.02, -187500.02, -187500.02, -187500.02, 23275.88, 187500.00, -0.00, -0.00, -0.00
195, 95535.13, -187500.02, -187500.02, -187500.02, -187500.02, -187500.02, 23269.93, 187500.00, -0.00, -0.00, -0.00
196, 95520.20, -187500.02, -187500.02, -187500.02, -187500.02, -187500.02, 23256.14, 187500.00, -0.00, -0.00, -0.00
197, 95544.59, -187500.02, -187500.02, -187500.02, -187500.02, -187500.02, 23313.29, 187500.00, -0.00, -0.00, -0.00
198, 95576.80, -187500.02, -187500.02, -187500.02, -187500.02, -187500.02, 23340.83, 187500.00, -0.00, -0.00, -0.00
199, 95530.86, -187500.02, -187500.02, -187500.02, -187500.02, -187500.02, 23363.88, 187500.00, -0.00, -0.00, -0.00
200, 95496.53, -187500.02, -187500.02, -187500.02, -187500.02, -187500.02, 23371.18, 187500.00, -0.00, -0.00, -0.00
201, 95532.94, -187500.02, -187500.02, -187500.02, -187500.02, -187500.02, 23387.81, 187500.00, -0.00, -0.00, -0.00
202, 95550.55, -187500.02, -187500.02, -187500.02, -187500.02, -187500.02, 23411.46, 187500.00, -0.00, -0.00, -0.00
203, 95527.40, -187500.02, -187500.02, -187500.02, -187500.02, -187500.02, 23415.96, 187500.00, -0.00, -0.00, -0.00
204, 95491.77, -187500.02, -187500.02, -187500.02, -187500.02, -187500.02, 23423.09, 187500.00, -0.00, -0.00, -0.00
205, 95522.32, -187500.02, -187500.02, -187500.02, -187500.02, -187500.02, 23454.33, 187500.00, -0.00, -0.00, -0.00
206, 95547.36, -187500.02, -187500.02, -187500.02, -187500.02, -187500.02, 23496.91, 187500.00, -0.00, -0.00, -0.00
207, 95521.88, -187500.02, -187500.02, -187500.02, -187500.02, -187500.02, 23522.71, 187500.00, -0.00, -0.00, -0.00
208, 95530.88, -187500.02, -187500.02, -187500.02, -187500.02, -187500.02, 23516.63, 187500.00, -0.00, -0.00, -0.00
209, 95580.30, -187500.02, -187500.02, -187500.02, -187500.02, -187500.02, 23528.56, 187500.00, -0.00, -0.00, -0.00
210, 95631.17, -187500.02, -187500.02, -187500.02, -187500.02, -187500.02, 23539.72, 187500.00, -0.00, -0.00, -0.00
211, 95588.28, -187500.02, -187500.02, -187500.02, -187500.02, -187500.02, 23561.00, 187500.00, -0.00, -0.00, -0.00
212, 95573.22, -187500.02, -187500.02, -187500.02, -187500.02, -187500.02, 23546.06, 187500.00, -0.00, -0.00, -0.00
213, 95580.70, -187500.02, -187500.02, -187500.02, -187500.02, -187500.02, 23555.94, 187500.00, -0.00, -0.00, -0.00
214, 95643.05, -187500.02, -187500.02, -187500.02, -187500.02, -187500.02, 23559.32, 187500.00, -0.00, -0.00, -0.00
215, 95626.80, -187500.02, -187500.02, -187500.02, -187500.02, -187500.02, 23568.48, 187500.00, -0.00, -0.00, -0.00
216, 95580.80, -187500.02, -187500.02, -187500.02, -187500.02, -187500.02, 23552.12, 187500.00, -0.00, -0.00, -0.00
217, 95603.13, -187500.02, -187500.02, -187500.02, -187500.02, -187500.02, 23541.21, 187500.00, -0.00, -0.00, -0.00
218, 95632.65, -187500.02, -187500.02, -187500.02, -187500.02, -187500.02, 23577.83, 187500.00, -0.00, -0.00, -0.00
219, 95649.95, -187500.02, -187500.02, -187500.02, -187500.02, -187500.02, 23578.47, 187500.00, -0.00, -0.00, -0.00
220, 95569.87, -187500.02, -187500.02, -187500.02, -187500.02, -187500.02, 23565.82, 187500.00, -0.00, -0.00, -0.00
221, 95532.09, -187500.02, -187500.02, -187500.02, -187500.02, -187500.02, 23585.09, 187500.00, -0.00, -0.00, -0.00
222, 95590.16, -187500.02, -187500.02, -187500.02, -187500.02, -187500.02, 23611.18, 187500.00, -0.00, -0.00, -0.00
223, 95618.79, -187500.02, -187500.02, -187500.02, -187500.02, -187500.02, 23605.10, 187500.00, -0.00, -0.00, -0.00
224, 95546.87, -187500.02, -187500.02, -187500.02, -187500.02, -187500.02, 23621.79, 187500.00, -0.00, -0.00, -0.00
225, 95513.85, -187500.02, -187500.02, -187500.02, -187500.02, -187500.02, 23639.38, 187500.00, -0.00, -0.00, -0.00
226, 95553.44, -187500.02, -187500.02, -187500.02, -187500.02, -187500.02, 23667.39, 187500.00, -0.00, -0.00, -0.00
227, 95586.36, -187500.02, -187500.02, -187500.02, -187500.02, -187500.02, 23679.13, 187500.00, -0.00, -0.00, -0.00
228, 95507.97, -187500.02, -187500.02, -187500.02, -187500.02, -187500.02, 23730.18, 187500.00, -0.00, -0.00, -0.00
229, 95456.02, -187500.02, -187500.02, -187500.02, -187500.02, -187500.02, 23770.07, 187500.00, -0.00, -0.00, -0.00
230, 95511.57, -187500.02, -187500.02, -187500.02, -187500.02, -187500.02, 23782.39, 187500.00, -0.00, -0.00, -0.00
231, 95576.08, -187500.02, -187500.02, -187500.02, -187500.02, -187500.02, 23784.63, 187500.00, -0.00, -0.00, -0.00
232, 95531.15, -187500.02, -187500.02, -187500.02, -187500.02, -187500.02, 23809.23, 187500.00, -0.00, -0.00, -0.00
233, 95468.05, -187500.02, -187500.02, -187500.02, -187500.02, -187500.02, 23864.11, 187500.00, -0.00, -0.00, -0.00
234, 95499.48, -187500.02, -187500.02, -187500.02, -187500.02, -187500.02, 23869.90, 187500.00, -0.00, -0.00, -0.00
235, 95549.52, -187500.02, -187500.02, -187500.02, -187500.02, -187500.02, 23861.71, 187500.00, -0.00, -0.00, -0.00
236, 95523.20, -187500.02, -187500.02, -187500.02, -187500.02, -187500.02, 23862.19, 187500.00, -0.00, -0.00, -0.00
237, 95464.88, -187500.02, -187500.02, -187500.02, -187500.02, -187500.02, 23891.15, 187500.00, -0.00, -0.00, -0.00
238, 95475.96, -187500.02, -187500.02, -187500.02, -187500.02, -187500.02, 23907.00, 187500.00, -0.00, -0.00, -0.00
239, 95510.61, -187500.02, -187500.02, -187500.02, -187500.02, -187500.02, 23949.02, 187500.00, -0.00, -0.00, -0.00
240, 95528.94, -187500.02, -187500.02, -187500.02, -187500.02, -187500.02, 23953.11, 187500.00, -0.00, -0.00, -0.00
241, 95468.45, -187500.02, -187500.02, -187500.02, -187500.02, -187500.02, 23959.68, 187500.00, -0.00, -0.00, -0.00
242, 95515.33, -187500.02, -187500.02, -187500.02, -187500.02, -187500.02, 23954.52, 187500.00, -0.00, -0.00, -0.00
243, 95620.54, -187500.02, -187500.02, -187500.02, -187500.02, -187500.02, 23922.27, 187500.00, -0.00, -0.00, -0.00
244, 95586.23, -187500.02, -187500.02, -187500.02, -187500.02, -187500.02, 23956.20, 187500.00, -0.00, -0.00, -0.00
245, 95521.05, -187500.02, -187500.02, -187500.02, -187500.02, -187500.02, 23982.95, 187500.00, -0.00, -0.00, -0.00
246, 95557.66, -187500.02, -187500.02, -187500.02, -187500.02, -187500.02, 23960.31, 187500.00, -0.00, -0.00, -0.00
247, 95593.52, -187500.02, -187500.02, -187500.02, -187500.02, -187500.02, 23984.34, 187500.00, -0.00, -0.00, -0.00
248, 95602.38, -187500.02, -187500.02, -187500.02, -187500.02, -187500.02, 23992.50, 187500.00, -0.00, -0.00, -0.00
249, 95545.91, -187500.02, -187500.02, -187500.02, -187500.02, -187500.02, 23979.24, 187500.00, -0.00, -0.00, -0.00
250, 95544.79, -187500.02, -187500.02, -187500.02, -187500.02, -187500.02, 23950.05, 187500.00, -0.00, -0.00, -0.00
251, 95579.05, -187500.02, -187500.02, -187500.02, -187500.02, -187500.02, 23959.30, 187500.00, -0.00, -0.00, -0.00
252, 95609.16, -187500.02, -187500.02, -187500.02, -187500.02, -187500.02, 23962.61, 187500.00, -0.00, -0.00, -0.00
253, 95543.83, -187500.02, -187500.02, -187500.02, -187500.02, -187500.02, 23978.21, 187500.00, -0.00, -0.00, -0.00
254, 95474.87, -187500.02, -187500.02, -187500.02, -187500.02, -187500.02, 24028.62, 187500.00, -0.00, -0.00, -0.00
255, 95534.34, -187500.02, -187500.02, -187500.02, -187500.02, -187500.02, 24012.48, 187500.00, -0.00, -0.00, -0.00
0, 95545.12, -187500.02, -187500.02, -187500.02, -187500.02, -187500.02, 24038.65, 187500.00, -0.00, -0.00, -0.00
1, 95497.27, -187500.02, -187500.02, -187500.02, -187500.02, -187500.02, 24072.29, 187500.00, -0.00, -0.00, -0.00
2, 95487.07, -187500.02, -187500.02, -187500.02, -187500.02, -187500.02, 24068.38, 187500.00, -0.00, -0.00, -0.00
3, 95481.55, -187500.02, -187500.02, -187500.02, -187500.02, -187500.02, 24102.04, 187500.00, -0.00, -0.00, -0.00
4, 95520.76, -187500.02, -187500.02, -187500.02, -187500.02, -187500.02, 24144.51, 187500.00, -0.00, -0.00, -0.00
5, 95501.45, -187500.02, -187500.02, -187500.02, -187500.02, -187500.02, 24166.88, 187500.00, -0.00, -0.00, -0.00
6, 95498.59, -187500.02, -187500.02, -187500.02, -187500.02, -187500.02, 24145.56, 187500.00, -0.00, -0.00, -0.00
7, 95479.56, -187500.02, -187500.02, -187500.02, -187500.02, -187500.02, 24145.07, 187500.00, -0.00, -0.00, -0.00
8, 95503.52, -187500.02, -187500.02, -187500.02, -187500.02, -187500.02, 24200.70, 187500.00, -0.00, -0.00, -0.00
9, 95519.95, -187500.02, -187500.02, -187500.02, -187500.02, -187500.02, 24235.84, 187500.00, -0.00, -0.00, -0.00
10, 95497.20, -187500.02, -187500.02, -187500.02, -187500.02, -187500.02, 24225.74, 187500.00, -0.00, -0.00, -0.00
11, 95469.70, -187500.02, -187500.02, -187500.02, -187500.02, -187500.02, 24262.24, 187500.00, -0.00, -0.00, -0.00
12, 95516.06, -187500.02, -187500.02, -187500.02, -187500.02, -187500.02, 24286.64, 187500.00, -0.00, -0.00, -0.00
13, 95522.39, -187500.02, -187500.02, -187500.02, -187500.02, -187500.02, 24310.45, 187500.00, -0.00, -0.00, -0.00
14, 95477.71, -187500.02, -187500.02, -187500.02, -187500.02, -187500.02, 24327.37, 187500.00, -0.00, -0.00, -0.00
15, 95455.60, -187500.02, -187500.02, -187500.02, -187500.02, -187500.02, 24332.13, 187500.00, -0.00, -0.00, -0.00
16, 95514.99, -187500.02, -187500.02, -187500.02, -187500.02, -187500.02, 24362.26, 187500.00, -0.00, -0.00, -0.00
17, 95575.59, -187500.02, -187500.02, -187500.02, -187500.02, -187500.02, 24346.70, 187500.00, -0.00, -0.00, -0.00
18, 95489.24, -187500.02, -187500.02, -187500.02, -187500.02, -187500.02, 24365.01, 187500.00, -0.00, -0.00, -0.00
19, 95443.58, -187500.02, -187500.02, -187500.02, -187500.02, -187500.02, 24403.37, 187500.00, -0.00, -0.00, -0.00
20, 95531.11, -187500.02, -187500.02, -187500.02, -187500.02, -187500.02, 24403.70, 187500.00, -0.00, -0.00, -0.00
21, 95614.55, -187500.02, -187500.02, -187500.02, -187500.02, -187500.02, 24387.65, 187500.00, -0.00, -0.00, -0.00
22, 95571.32, -187500.02, -187500.02, -187500.02, -187500.02, -187500.02, 24397.89, 187500.00, -0.00, -0.00, -0.00
23, 95515.33, -187500.02, -187500.02, -187500.02, -187500.02, -187500.02, 24422.50, 187500.00, -0.00, -0.00, -0.00
24, 95569.75, -187500.02, -187500.02, -187500.02, -187500.02, -187500.02, 24421.94, 187500.00, -0.00, -0.00, -0.00
25, 95620.45, -187500.02, -187500.02, -187500.02, -187500.02, -187500.02, 24422.30, 187500.00, -0.00, -0.00, -0.00
26, 95599.39, -187500.02, -187500.02, -187500.02, -187500.02, -187500.02, 24422.14, 187500.00, -0.00, -0.00, -0.00
27, 95545.39, -187500.02, -187500.02, -187500.02, -187500.02, -187500.02, 24429.23, 187500.00, -0.00, -0.00, -0.00
28, 95574.29, -187500.02, -187500.02, -187500.02, -187500.02, -187500.02, 24433.70, 187500.00, -0.00, -0.00, -0.00
29, 95643.31, -187500.02, -187500.02, -187500.02, -187500.02, -187500.02, 24412.69, 187500.00, -0.00, -0.00, -0.00
30, 95611.33, -187500.02, -187500.02, -187500.02, -187500.02, -187500.02, 24418.83, 187500.00, -0.00, -0.00, -0.00
31, 95551.52, -187500.02, -187500.02, -187500.02, -187500.02, -187500.02, 24433.65, 187500.00, -0.00, -0.00, -0.00
32, 95541.50, -187500.02, -187500.02, -187500.02, -187500.02, -187500.02, 24434.17, 187500.00, -0.00, -0.00, -0.00
33, 95582.90, -187500.02, -187500.02, -187500.02, -187500.02, -187500.02, 24457.48, 187500.00, -0.00, -0.00, -0.00
34, 95585.42, -187500.02, -187500.02, -187500.02, -187500.02, -187500.02, 24464.12, 187500.00, -0.00, -0.00, -0.00
35, 95538.69, -187500.02, -187500.02, -187500.02, -187500.02, -187500.02, 24473.10, 187500.00, -0.00, -0.00, -0.00
36, 95521.09, -187500.02, -187500.02, -187500.02, -187500.02, -187500.02, 24487.77, 187500.00, -0.00, -0.00, -0.00
37, 95558.82, -187500.02, -187500.02, -187500.02, -187500.02, -187500.02, 24512.76, 187500.00, -0.00, -0.00, -0.00
38, 95571.23, -187500.02, -187500.02, -187500.02, -187500.02, -187500.02, 24534.21, 187500.00, -0.00, -0.00, -0.00
39, 95511.70, -187500.02, -187500.02, -187500.02, -187500.02, -187500.02, 24550.35, 187500.00, -0.00, -0.00, -0.00
40, 95466.15, -187500.02, -187500.02, -187500.02, -187500.02, -187500.02, 24592.69, 187500.00, -0.00, -0.00, -0.00
41, 95553.28, -187500.02, -187500.02, -187500.02, -187500.02, -187500.02, 24589.09, 187500.00, -0.00, -0.00, -0.00
42, 95577.64, -187500.02, -187500.02, -187500.02, -187500.02, -187500.02, 24609.78, 187500.00, -0.00, -0.00, -0.00
43, 95537.19, -187500.02, -187500.02, -187500.02, -187500.02, -187500.02, 24613.94, 187500.00, -0.00, -0.00, -0.00
44, 95483.38, -187500.02, -187500.02, -187500.02, -187500.02, -187500.02, 24636.96, 187500.00, -0.00, -0.00, -0.00
45, 95532.34, -187500.02, -187500.02, -187500.02, -187500.02, -187500.02, 24659.61, 187500.00, -0.00, -0.00, -0.00
46, 95601.00, -187500.02, -187500.02, -187500.02, -187500.02, -187500.02, 24670.36, 187500.00, -0.00, -0.00, -0.00
47, 95562.47, -187500.02, -187500.02, -187500.02, -187500.02, -187500.02, 24674.47, 187500.00, -0.00, -0.00, -0.00
48, 95499.57, -187500.02, -187500.02, -187500.02, -187500.02, -187500.02, 24703.13, 187500.00, -0.00, -0.00, -0.00
49, 95550.71, -187500.02, -187500.02, -187500.02, -187500.02, -187500.02, 24703.44, 187500.00, -0.00, -0.00, -0.00
50, 95596.66, -187500.02, -187500.02, -187500.02, -187500.02, -187500.02, 24721.16, 187500.00, -0.00, -0.00, -0.00
51, 95552.45, -187500.02, -187500.02, -187500.02, -187500.02, -187500.02, 24742.75, 187500.00, -0.00, -0.00, -0.00
52, 95461.91, -187500.02, -187500.02, -187500.02, -187500.02, -187500.02, 24800.91, 187500.00, -0.00, -0.00, -0.00
53, 95523.93, -187500.02, -187500.02, -187500.02, -187500.02, -187500.02, 24821.97, 187500.00, -0.00, -0.00, -0.00
54, 95660.39, -187500.02, -187500.02, -187500.02, -187500.02, -187500.02, 24781.94, 187500.00, -0.00, -0.00, -0.00
55, 95634.02, -187500.02, -187500.02, -187500.02, -187500.02, -187500.02, 24813.52, 187500.00, -0.00, -0.00, -0.00
56, 95613.61, -187500.02, -187500.02, -187500.02, -187500.02, -187500.02, 24793.43, 187500.00, -0.00, -0.00, -0.00
57, 95599.21, -187500.02, -187500.02, -187500.02, -187500.02, -187500.02, 24785.16, 187500.00, -0.00, -0.00, -0.00
58, 95658.04, -187500.02, -187500.02, -187500.02, -187500.02, -187500.02, 24789.56, 187500.00, -0.00, -0.00, -0.00
59, 95656.09, -187500.02, -187500.02, -187500.02, -187500.02, -187500.02, 24790.21, 187500.00, -0.00, -0.00, -0.00
60, 95584.37, -187500.02, -187500.02, -187500.02, -187500.02, -187500.02, 24809.54, 187500.00, -0.00, -0.00, -0.00
61, 95584.93, -187500.02, -187500.02, -187500.02, -187500.02, -187500.02, 24804.49, 187500.00, -0.00, -0.00, -0.00
62, 95642.91, -187500.02, -187500.02, -187500.02, -187500.02, -187500.02, 24816.45, 187500.00, -0.00, -0.00, -0.00
63, 95659.67, -187500.02, -187500.02, -187500.02, -187500.02, -187500.02, 24821.57, 187500.00, -0.00, -0.00, -0.00
64, 95593.34, -187500.02, -187500.02, -187500.02, -187500.02, -187500.02, 24846.22, 187500.00, -0.00, -0.00, -0.00
65, 95570.36, -187500.02, -187500.02, -187500.02, -187500.02, -187500.02, 24832.03, 187500.00, -0.00, -0.00, -0.00
66, 95600.73, -187500.02, -187500.02, -187500.02, -187500.02, -187500.02, 24848.46, 187500.00, -0.00, -0.00, -0.00
67, 95653.55, -187500.02, -187500.02, -187500.02, -187500.02, -187500.02, 24828.14, 187500.00, -0.00, -0.00, -0.00
68, 95578.16, -187500.02, -187500.02, -187500.02, -187500.02, -187500.02, 24859.05, 187500.00, -0.00, -0.00, -0.00
69, 95533.05, -187500.02, -187500.02, -187500.02, -187500.02, -187500.02, 24893.20, 187500.00, -0.00, -0.00, -0.00
70, 95581.15, -187500.02, -187500.02, -187500.02, -187500.02, -187500.02, 24887.01, 187500.00, -0.00, -0.00, -0.00
71, 95607.21, -187500.02, -187500.02, -187500.02, -187500.02, -187500.02, 24910.15, 187500.00, -0.00, -0.00, -0.00
72, 95567.48, -187500.02, -187500.02, -187500.02, -187500.02, -187500.02, 24930.42, 187500.00, -0.00, -0.00, -0.00
73, 95512.87, -187500.02, -187500.02, -187500.02, -187500.02, -187500.02, 24964.46, 187500.00, -0.00, -0.00, -0.00
74, 95522.21, -187500.02, -187500.02, -187500.02, -187500.02, -187500.02, 24993.52, 187500.00, -0.00, -0.00, -0.00
75, 95605.80, -187500.02, -187500.02, -187500.02, -187500.02, -187500.02, 24998.93, 187500.00, -0.00, -0.00, -0.00
76, 95627.30, -187500.02, -187500.02, -187500.02, -187500.02, -187500.02, 24978.50, 187500.00, -0.00, -0.00, -0.00
77, 95516.78, -187500.02, -187500.02, -187500.02, -187500.02, -187500.02, 25026.20, 187500.00, -0.00, -0.00, -0.00
78, 95530.57, -187500.02, -187500.02, -187500.02, -187500.02, -187500.02, 25053.64, 187500.00, -0.00, -0.00, -0.00
79, 95573.84, -187500.02, -187500.02, -187500.02, -187500.02, -187500.02, 25074.79, 187500.00, -0.00, -0.00, -0.00
80, 95566.40, -187500.02, -187500.02, -187500.02, -187500.02, -187500.02, 25098.42, 187500.00, -0.00, -0.00, -0.00
81, 95519.57, -187500.02, -187500.02, -187500.02, -187500.02, -187500.02, 25103.78, 187500.00, -0.00, -0.00, -0.00
82, 95500.20, -187500.02, -187500.02, -187500.02, -187500.02, -187500.02, 25135.56, 187500.00, -0.00, -0.00, -0.00
83, 95560.48, -187500.02, -187500.02, -187500.02, -187500.02, -187500.02, 25154.90, 187500.00, -0.00, -0.00, -0.00
84, 95585.27, -187500.02, -187500.02, -187500.02, -187500.02, -187500.02, 25183.15, 187500.00, -0.00, -0.00, -0.00
85, 95563.85, -187500.02, -187500.02, -187500.02, -187500.02, -187500.02, 25177.03, 187500.00, -0.00, -0.00, -0.00
86, 95523.98, -187500.02, -187500.02, -187500.02, -187500.02, -187500.02, 25217.10, 187500.00, -0.00, -0.00, -0.00
87, 95630.88, -187500.02, -187500.02, -187500.02, -187500.02, -187500.02, 25198.73, 187500.00, -0.00, -0.00, -0.00
88, 95642.13, -187500.02, -187500.02, -187500.02, -187500.02, -187500.02, 25191.51, 187500.00, -0.00, -0.00, -0.00
89, 95573.77, -187500.02, -187500.02, -187500.02, -187500.02, -187500.02, 25238.18, 187500.00, -0.00, -0.00, -0.00
90, 95562.63, -187500.02, -187500.02, -187500.02, -187500.02, -187500.02, 25238.63, 187500.00, -0.00, -0.00, -0.00
91, 95638.10, -187500.02, -187500.02, -187500.02, -187500.02, -187500.02, 25221.66, 187500.00, -0.00, -0.00, -0.00
92, 95645.73, -187500.02, -187500.02, -187500.02, -187500.02, -187500.02, 25247.08, 187500.00, -0.00, -0.00, -0.00
93, 95644.74, -187500.02, -187500.02, -187500.02, -187500.02, -187500.02, 25229.40, 187500.00, -0.00, -0.00, -0.00
94, 95632.70, -187500.02, -187500.02, -187500.02, -187500.02, -187500.02, 25185.07, 187500.00, -0.00, -0.00, -0.00
95, 95651.59, -187500.02, -187500.02, -187500.02, -187500.02, -187500.02, 25201.57, 187500.00, -0.00, -0.00, -0.00
96, 95701.94, -187500.02, -187500.02, -187500.02, -187500.02, -187500.02, 25193.16, 187500.00, -0.00, -0.00, -0.00
97, 95654.60, -187500.02, -187500.02, -187500.02, -187500.02, -187500.02, 25220.79, 187500.00, -0.00, -0.00, -0.00
98, 95614.26, -187500.02, -187500.02, -187500.02, -187500.02, -187500.02, 25217.73, 187500.00, -0.00, -0.00, -0.00
99, 95589.18, -187500.02, -187500.02, -187500.02, -187500.02, -187500.02, 25253.69, 187500.00, -0.00, -0.00, -0.00
100, 95628.11, -187500.02, -187500.02, -187500.02, -187500.02, -187500.02, 25276.60, 187500.00, -0.00, -0.00, -0.00
101, 95627.87, -187500.02, -187500.02, -187500.02, -187500.02, -187500.02, 25287.20, 187500.00, -0.00, -0.00, -0.00
102, 95574.65, -187500.02, -187500.02, -187500.02, -187500.02, -187500.02, 25286.62, 187500.00, -0.00, -0.00, -0.00
103, 95542.28, -187500.02, -187500.02, -187500.02, -187500.02, -187500.02, 25315.56, 187500.00, -0.00, -0.00, -0.00
104, 95625.25, -187500.02, -187500.02, -187500.02, -187500.02, -187500.02, 25326.83, 187500.00, -0.00, -0.00, -0.00
105, 95614.70, -187500.02, -187500.02, -187500.02, -187500.02, -187500.02, 25346.23, 187500.00, -0.00, -0.00, -0.00
106, 95546.40, -187500.02, -187500.02, -187500.02, -187500.02, -187500.02, 25378.59, 187500.00, -0.00, -0.00, -0.00
107, 95527.98, -187500.02, -187500.02, -187500.02, -187500.02, -187500.02, 25400.46, 187500.00, -0.00, -0.00, -0.00
108, 95590.74, -187500.02, -187500.02, -187500.02, -187500.02, -187500.02, 25416.30, 187500.00, -0.00, -0.00, -0.00
109, 95588.64, -187500.02, -187500.02, -187500.02, -187500.02, -187500.02, 25432.24, 187500.00, -0.00, -0.00, -0.00
110, 95565.73, -187500.02, -187500.02, -187500.02, -187500.02, -187500.02, 25425.02, 187500.00, -0.00, -0.00, -0.00
111, 95517.07, -187500.02, -187500.02, -187500.02, -187500.02, -187500.02, 25469.68, 187500.00, -0.00, -0.00, -0.00
112, 95615.35, -187500.02, -187500.02, -187500.02, -187500.02, -187500.02, 25467.09, 187500.00, -0.00, -0.00, -0.00
113, 95608.94, -187500.02, -187500.02, -187500.02, -187500.02, -187500.02, 25490.55, 187500.00, -0.00, -0.00, -0.00
114, 95569.15, -187500.02, -187500.02, -187500.02, -187500.02, -187500.02, 25510.09, 187500.00, -0.00, -0.00, -0.00
115, 95521.92, -187500.02, -187500.02, -187500.02, -187500.02, -187500.02, 25536.29, 187500.00, -0.00, -0.00, -0.00
116, 95572.86, -187500.02, -187500.02, -187500.02, -187500.02, -187500.02, 25548.94, 187500.00, -0.00, -0.00, -0.00
117, 95605.65, -187500.02, -187500.02, -187500.02, -187500.02, -187500.02, 25566.01, 187500.00, -0.00, -0.00, -0.00
118, 95552.38, -187500.02, -187500.02, -187500.02, -187500.02, -187500.02, 25612.13, 187500.00, -0.00, -0.00, -0.00
119, 95558.73, -187500.02, -187500.02, -187500.02, -187500.02, -187500.02, 25609.94, 187500.00, -0.00, -0.00, -0.00
120, 95620.83, -187500.02, -187500.02, -187500.02, -187500.02, -187500.02, 25577.30, 187500.00, -0.00, -0.00, -0.00
121, 95651.18, -187500.02, -187500.02, -187500.02, -187500.02, -187500.02, 25605.67, 187500.00, -0.00, -0.00, -0.00
122, 95646.60, -187500.02, -187500.02, -187500.02, -187500.02, -187500.02, 25602.69, 187500.00, -0.00, -0.00, -0.00
123, 95599.81, -187500.02, -187500.02, -187500.02, -187500.02, -187500.02, 25604.68, 187500.00, -0.00, -0.00, -0.00
124, 95610.73, -187500.02, -187500.02, -187500.02, -187500.02, -187500.02, 25597.08, 187500.00, -0.00, -0.00, -0.00
125, 95660.70, -187500.02, -187500.02, -187500.02, -187500.02, -187500.02, 25609.60, 187500.00, -0.00, -0.00, -0.00
126, 95691.19, -187500.02, -187500.02, -187500.02, -187500.02, -187500.02, 25585.50, 187500.00, -0.00, -0.00, -0.00
127, 95612.98, -187500.02, -187500.02, -187500.02, -187500.02, -187500.02, 25603.54, 187500.00, -0.00, -0.00, -0.00
128, 95626.33, -187500.02, -187500.02, -187500.02, -187500.02, -187500.02, 25604.57, 187500.00, -0.00, -0.00, -0.00
129, 95663.74, -187500.02, -187500.02, -187500.02, -187500.02, -187500.02, 25615.19, 187500.00, -0.00, -0.00, -0.00
130, 95665.73, -187500.02, -187500.02, -187500.02, -187500.02, -187500.02, 25621.11, 187500.00, -0.00, -0.00, -0.00
131, 95622.16, -187500.02, -187500.02, -187500.02, -187500.02, -187500.02, 25598.47, 187500.00, -0.00, -0.00, -0.00
132, 95564.19, -187500.02, -187500.02, -187500.02, -187500.02, -187500.02, 25619.63, 187500.00, -0.00, -0.00, -0.00
133, 95634.02, -187500.02, -187500.02, -187500.02, -187500.02, -187500.02, 25627.12, 187500.00, -0.00, -0.00, -0.00
134, 95665.44, -187500.02, -187500.02, -187500.02, -187500.02, -187500.02, 25633.63, 187500.00, -0.00, -0.00, -0.00
135, 95599.46, -187500.02, -187500.02, -187500.02, -187500.02, -187500.02, 25649.77, 187500.00, -0.00, -0.00, -0.00
136, 95548.66, -187500.02, -187500.02, -187500.02, -187500.02, -187500.02, 25678.78, 187500.00, -0.00, -0.00, -0.00
137, 95598.97, -187500.02, -187500.02, -187500.02, -187500.02, -187500.02, 25682.33, 187500.00, -0.00, -0.00, -0.00
138, 95617.38, -187500.02, -187500.02, -187500.02, -187500.02, -187500.02, 25709.60, 187500.00, -0.00, -0.00, -0.00
139, 95589.89, -187500.02, -187500.02, -187500.02, -187500.02, -187500.02, 25728.29, 187500.00, -0.00, -0.00, -0.00
140, 95531.48, -187500.02, -187500.02, -187500.02, -187500.02, -187500.02, 25754.97, 187500.00, -0.00, -0.00, -0.00
141, 95554.80, -187500.02, -187500.02, -187500.02, -187500.02, -187500.02, 25788.46, 187500.00, -0.00, -0.00, -0.00
142, 95620.96, -187500.02, -187500.02, -187500.02, -187500.02, -187500.02, 25800.77, 187500.00, -0.00, -0.00, -0.00
143, 95614.19, -187500.02, -187500.02, -187500.02, -187500.02, -187500.02, 25805.56, 187500.00, -0.00, -0.00, -0.00
144, 95546.62, -187500.02, -187500.02, -187500.02, -187500.02, -187500.02, 25830.93, 187500.00, -0.00, -0.00, -0.00
145, 95569.77, -187500.02, -187500.02, -187500.02, -187500.02, -187500.02, 25820.85, 187500.00, -0.00, -0.00, -0.00
146, 95620.45, -187500.02, -187500.02, -187500.02, -187500.02, -187500.02, 25830.59, 187500.00, -0.00, -0.00, -0.00
147, 95590.95, -187500.02, -187500.02, -187500.02, -187500.02, -187500.02, 25852.88, 187500.00, -0.00, -0.00, -0.00
148, 95523.10, -187500.02, -187500.02, -187500.02, -187500.02, -187500.02, 25891.21, 187500.00, -0.00, -0.00, -0.00
149, 95520.13, -187500.02, -187500.02, -187500.02, -187500.02, -187500.02, 25932.05, 187500.00, -0.00, -0.00, -0.00
150, 95570.63, -187500.02, -187500.02, -187500.02, -187500.02, -187500.02, 25970.31, 187500.00, -0.00, -0.00, -0.00
151, 95610.57, -187500.02, -187500.02, -187500.02, -187500.02, -187500.02, 25972.79, 187500.00, -0.00, -0.00, -0.00
152, 95596.02, -187500.02, -187500.02, -187500.02, -187500.02, -187500.02, 25943.40, 187500.00, -0.00, -0.00, -0.00
153, 95563.70, -187500.02, -187500.02, -187500.02, -187500.02, -187500.02, 25972.79, 187500.00, -0.00, -0.00, -0.00
154, 95636.18, -187500.02, -187500.02, -187500.02, -187500.02, -187500.02, 25988.89, 187500.00, -0.00, -0.00, -0.00
155, 95639.29, -187500.02, -187500.02, -187500.02, -187500.02, -187500.02, 26022.64, 187500.00, -0.00, -0.00, -0.00
156, 95628.56, -187500.02, -187500.02, -187500.02, -187500.02, -187500.02, 26011.66, 187500.00, -0.00, -0.00, -0.00
157, 95606.09, -187500.02, -187500.02, -187500.02, -187500.02, -187500.02, 26005.22, 187500.00, -0.00, -0.00, -0.00
158, 95649.64, -187500.02, -187500.02, -187500.02, -187500.02, -187500.02, 26031.62, 187500.00, -0.00, -0.00, -0.00
159, 95712.47, -187500.02, -187500.02, -187500.02, -187500.02, -187500.02, 26003.10, 187500.00, -0.00, -0.00, -0.00
160, 95648.48, -187500.02, -187500.02, -187500.02, -187500.02, -187500.02, 26003.33, 187500.00, -0.00, -0.00, -0.00
161, 95626.21, -187500.02, -187500.02, -187500.02, -187500.02, -187500.02, 26001.58, 187500.00, -0.00, -0.00, -0.00
162, 95674.74, -187500.02, -187500.02, -187500.02, -187500.02, -187500.02, 25997.49, 187500.00, -0.00, -0.00, -0.00
163, 95708.20, -187500.02, -187500.02, -187500.02, -187500.02, -187500.02, 25980.50, 187500.00, -0.00, -0.00, -0.00
164, 95647.38, -187500.02, -187500.02, -187500.02, -187500.02, -187500.02, 26005.79, 187500.00, -0.00, -0.00, -0.00
165, 95613.56, -187500.02, -187500.02, -187500.02, -187500.02, -187500.02, 25998.10, 187500.00, -0.00, -0.00, -0.00
166, 95645.32, -187500.02, -187500.02, -187500.02, -187500.02, -187500.02, 25999.46, 187500.00, -0.00, -0.00, -0.00
167, 95652.14, -187500.02, -187500.02, -187500.02, -187500.02, -187500.02, 26045.01, 187500.00, -0.00, -0.00, -0.00
168, 95628.20, -187500.02, -187500.02, -187500.02, -187500.02, -187500.02, 26082.34, 187500.00, -0.00, -0.00, -0.00
169, 95601.78, -187500.02, -187500.02, -187500.02, -187500.02, -187500.02, 26065.71, 187500.00, -0.00, -0.00, -0.00
170, 95598.79, -187500.02, -187500.02, -187500.02, -187500.02, -187500.02, 26058.22, 187500.00, -0.00, -0.00, -0.00
171, 95634.35, -187500.02, -187500.02, -187500.02, -187500.02, -187500.02, 26091.82, 187500.00, -0.00, -0.00, -0.00
172, 95632.23, -187500.02, -187500.02, -187500.02, -187500.02, -187500.02, 26104.11, 187500.00, -0.00, -0.00, -0.00
173, 95567.27, -187500.02, -187500.02, -187500.02, -187500.02, -187500.02, 26113.43, 187500.00, -0.00, -0.00, -0.00
174, 95543.35, -187500.02, -187500.02, -187500.02, -187500.02, -187500.02, 26157.13, 187500.00, -0.00, -0.00, -0.00
175, 95609.98, -187500.02, -187500.02, -187500.02, -187500.02, -187500.02, 26181.89, 187500.00, -0.00, -0.00, -0.00
176, 95639.38, -187500.02, -187500.02, -187500.02, -187500.02, -187500.02, 26169.62, 187500.00, -0.00, -0.00, -0.00
177, 95568.70, -187500.02, -187500.02, -187500.02, -187500.02, -187500.02, 26172.66, 187500.00, -0.00, -0.00, -0.00
178, 95553.55, -187500.02, -187500.02, -187500.02, -187500.02, -187500.02, 26207.64, 187500.00, -0.00, -0.00, -0.00
179, 95620.13, -187500.02, -187500.02, -187500.02, -187500.02, -187500.02, 26234.35, 187500.00, -0.00, -0.00, -0.00
180, 95627.27, -187500.02, -187500.02, -187500.02, -187500.02, -187500.02, 26246.51, 187500.00, -0.00, -0.00, -0.00
181, 95562.42, -187500.02, -187500.02, -187500.02, -187500.02, -187500.02, 26278.59, 187500.00, -0.00, -0.00, -0.00
182, 95524.78, -187500.02, -187500.02, -187500.02, -187500.02, -187500.02, 26308.36, 187500.00, -0.00, -0.00, -0.00
183, 95580.30, -187500.02, -187500.02, -187500.02, -187500.02, -187500.02, 26346.31, 187500.00, -0.00, -0.00, -0.00
184, 95605.65, -187500.02, -187500.02, -187500.02, -187500.02, -187500.02, 26336.72, 187500.00, -0.00, -0.00, -0.00
185, 95570.20, -187500.02, -187500.02, -187500.02, -187500.02, -187500.02, 26335.92, 187500.00, -0.00, -0.00, -0.00
186, 95525.23, -187500.02, -187500.02, -187500.02, -187500.02, -187500.02, 26381.23, 187500.00, -0.00, -0.00, -0.00
187, 95606.48, -187500.02, -187500.02, -187500.02, -187500.02, -187500.02, 26383.75, 187500.00, -0.00, -0.00, -0.00
188, 95657.02, -187500.02, -187500.02, -187500.02, -187500.02, -187500.02, 26381.38, 187500.00, -0.00, -0.00, -0.00
189, 95673.76, -187500.02, -187500.02, -187500.02, -187500.02, -187500.02, 26368.75, 187500.00, -0.00, -0.00, -0.00
190, 95620.85, -187500.02, -187500.02, -187500.02, -187500.02, -187500.02, 26362.76, 187500.00, -0.00, -0.00, -0.00
191, 95652.45, -187500.02, -187500.02, -187500.02, -187500.02, -187500.02, 26348.86, 187500.00, -0.00, -0.00, -0.00
192, 95690.72, -187500.02, -187500.02, -187500.02, -187500.02, -187500.02, 26349.51, 187500.00, -0.00, -0.00, -0.00
193, 95685.09, -187500.02, -187500.02, -187500.02, -187500.02, -187500.02, 26342.02, 187500.00, -0.00, -0.00, -0.00
194, 95631.66, -187500.02, -187500.02, -187500.02, -187500.02, -187500.02, 26325.06, 187500.00, -0.00, -0.00, -0.00
195, 95625.19, -187500.02, -187500.02, -187500.02, -187500.02, -187500.02, 26350.85, 187500.00, -0.00, -0.00, -0.00
196, 95679.50, -187500.02, -187500.02, -187500.02, -187500.02, -187500.02, 26352.97, 187500.00, -0.00, -0.00, -0.00
197, 95674.23, -187500.02, -187500.02, -187500.02, -187500.02, -187500.02, 26346.85, 187500.00, -0.00, -0.00, -0.00
198, 95602.84, -187500.02, -187500.02, -187500.02, -187500.02, -187500.02, 26343.72, 187500.00, -0.00, -0.00, -0.00
199, 95556.25, -187500.02, -187500.02, -187500.02, -187500.02, -187500.02, 26367.95, 187500.00, -0.00, -0.00, -0.00
200, 95607.52, -187500.02, -187500.02, -187500.02, -187500.02, -187500.02, 26403.18, 187500.00, -0.00, -0.00, -0.00
201, 95646.35, -187500.02, -187500.02, -187500.02, -187500.02, -187500.02, 26392.58, 187500.00, -0.00, -0.00, -0.00
202, 95591.10, -187500.02, -187500.02, -187500.02, -187500.02, -187500.02, 26409.61, 187500.00, -0.00, -0.00, -0.00
203, 95557.57, -187500.02, -187500.02, -187500.02, -187500.02, -187500.02, 26419.20, 187500.00, -0.00, -0.00, -0.00
204, 95593.47, -187500.02, -187500.02, -187500.02, -187500.02, -187500.02, 26438.22, 187500.00, -0.00, -0.00, -0.00
205, 95602.01, -187500.02, -187500.02, -187500.02, -187500.02, -187500.02, 26446.27, 187500.00, -0.00, -0.00, -0.00
206, 95521.85, -187500.02, -187500.02, -187500.02, -187500.02, -187500.02, 26493.16, 187500.00, -0.00, -0.00, -0.00
207, 95511.66, -187500.02, -187500.02, -187500.02, -187500.02, -187500.02, 26500.45, 187500.00, -0.00, -0.00, -0.00
208, 95554.45, -187500.02, -187500.02, -187500.02, -187500.02, -187500.02, 26517.28, 187500.00, -0.00, -0.00, -0.00
209, 95570.98, -187500.02, -187500.02, -187500.02, -187500.02, -187500.02, 26556.53, 187500.00, -0.00, -0.00, -0.00
210, 95567.54, -187500.02, -187500.02, -187500.02, -187500.02, -187500.02, 26551.28, 187500.00, -0.00, -0.00, -0.00
211, 95542.66, -187500.02, -187500.02, -187500.02, -187500.02, -187500.02, 26533.60, 187500.00, -0.00, -0.00, -0.00
212, 95562.20, -187500.02, -187500.02, -187500.02, -187500.02, -187500.02, 26548.64, 187500.00, -0.00, -0.00, -0.00
213, 95608.04, -187500.02, -187500.02, -187500.02, -187500.02, -187500.02, 26580.56, 187500.00, -0.00, -0.00, -0.00
214, 95578.13, -187500.02, -187500.02, -187500.02, -187500.02, -187500.02, 26586.86, 187500.00, -0.00, -0.00, -0.00
215, 95530.81, -187500.02, -187500.02, -187500.02, -187500.02, -187500.02, 26580.22, 187500.00, -0.00, -0.00, -0.00
216, 95528.96, -187500.02, -187500.02, -187500.02, -187500.02, -187500.02, 26609.71, 187500.00, -0.00, -0.00, -0.00
217, 95575.07, -187500.02, -187500.02, -187500.02, -187500.02, -187500.02, 26627.54, 187500.00, -0.00, -0.00, -0.00
218, 95546.80, -187500.02, -187500.02, -187500.02, -187500.02, -187500.02, 26669.74, 187500.00, -0.00, -0.00, -0.00
219, 95511.41, -187500.02, -187500.02, -187500.02, -187500.02, -187500.02, 26689.93, 187500.00, -0.00, -0.00, -0.00
220, 95528.52, -187500.02, -187500.02, -187500.02, -187500.02, -187500.02, 26704.54, 187500.00, -0.00, -0.00, -0.00
221, 95585.91, -187500.02, -187500.02, -187500.02, -187500.02, -187500.02, 26726.87, 187500.00, -0.00, -0.00, -0.00
222, 95642.28, -187500.02, -187500.02, -187500.02, -187500.02, -187500.02, 26699.18, 187500.00, -0.00, -0.00, -0.00
223, 95616.05, -187500.02, -187500.02, -187500.02, -187500.02, -187500.02, 26669.12, 187500.00, -0.00, -0.00, -0.00
224, 95571.98, -187500.02, -187500.02, -187500.02, -187500.02, -187500.02, 26704.50, 187500.00, -0.00, -0.00, -0.00
225, 95652.25, -187500.02, -187500.02, -187500.02, -187500.02, -187500.02, 26690.84, 187500.00, -0.00, -0.00, -0.00
226, 95680.93, -187500.02, -187500.02, -187500.02, -187500.02, -187500.02, 26673.07, 187500.00, -0.00, -0.00, -0.00
227, 95614.68, -187500.02, -187500.02, -187500.02, -187500.02, -187500.02, 26670.06, 187500.00, -0.00, -0.00, -0.00
228, 95574.02, -187500.02, -187500.02, -187500.02, -187500.02, -187500.02, 26688.74, 187500.00, -0.00, -0.00, -0.00
229, 95628.45, -187500.02, -187500.02, -187500.02, -187500.02, -187500.02, 26696.95, 187500.00, -0.00, -0.00, -0.00
230, 95649.19, -187500.02, -187500.02, -187500.02, -187500.02, -187500.02, 26706.18, 187500.00, -0.00, -0.00, -0.00
231, 95616.47, -187500.02, -187500.02, -187500.02, -187500.02, -187500.02, 26707.45, 187500.00, -0.00, -0.00, -0.00
232, 95571.05, -187500.02, -187500.02, -187500.02, -187500.02, -187500.02, 26710.60, 187500.00, -0.00, -0.00, -0.00
233, 95590.98, -187500.02, -187500.02, -187500.02, -187500.02, -187500.02, 26707.23, 187500.00, -0.00, -0.00, -0.00
234, 95649.64, -187500.02, -187500.02, -187500.02, -187500.02, -187500.02, 26676.76, 187500.00, -0.00, -0.00, -0.00
235, 95600.06, -187500.02, -187500.02, -187500.02, -187500.02, -187500.02, 26675.29, 187500.00, -0.00, -0.00, -0.00
236, 95531.76, -187500.02, -187500.02, -187500.02, -187500.02, -187500.02, 26707.72, 187500.00, -0.00, -0.00, -0.00
237, 95543.27, -187500.02, -187500.02, -187500.02, -187500.02, -187500.02, 26734.00, 187500.00, -0.00, -0.00, -0.00
238, 95567.16, -187500.02, -187500.02, -187500.02, -187500.02, -187500.02, 26768.49, 187500.00, -0.00, -0.00, -0.00
239, 95558.78, -187500.02, -187500.02, -187500.02, -187500.02, -187500.02, 26776.34, 187500.00, -0.00, -0.00, -0.00
240, 95495.73, -187500.02, -187500.02, -187500.02, -187500.02, -187500.02, 26808.90, 187500.00, -0.00, -0.00, -0.00
241, 95516.40, -187500.02, -187500.02, -187500.02, -187500.02, -187500.02, 26826.12, 187500.00, -0.00, -0.00, -0.00
242, 95591.88, -187500.02, -187500.02, -187500.02, -187500.02, -187500.02, 26813.08, 187500.00, -0.00, -0.00, -0.00
243, 95578.83, -187500.02, -187500.02, -187500.02, -187500.02, -187500.02, 26820.19, 187500.00, -0.00, -0.00, -0.00
244, 95536.07, -187500.02, -187500.02, -187500.02, -187500.02, -187500.02, 26817.94, 187500.00, -0.00, -0.00, -0.00
245, 95519.44, -187500.02, -187500.02, -187500.02, -187500.02, -187500.02, 26838.48, 187500.00, -0.00, -0.00, -0.00
246, 95560.25, -187500.02, -187500.02, -187500.02, -187500.02, -187500.02, 26887.78, 187500.00, -0.00, -0.00, -0.00
247, 95572.52, -187500.02, -187500.02, -187500.02, -187500.02, -187500.02, 26899.47, 187500.00, -0.00, -0.00, -0.00
248, 95518.79, -187500.02, -187500.02, -187500.02, -187500.02, -187500.02, 26903.30, 187500.00, -0.00, -0.00, -0.00
249, 95469.05, -187500.02, -187500.02, -187500.02, -187500.02, -187500.02, 26962.17, 187500.00, -0.00, -0.00, -0.00
250, 95540.80, -187500.02, -187500.02, -187500.02, -187500.02, -187500.02, 26977.97, 187500.00, -0.00, -0.00, -0.00
251, 95572.13, -187500.02, -187500.02, -187500.02, -187500.02, -187500.02, 26986.13, 187500.00, -0.00, -0.00, -0.00
252, 95566.91, -187500.02, -187500.02, -187500.02, -187500.02, -187500.02, 26950.53, 187500.00, -0.00, -0.00, -0.00
253, 95518.16, -187500.02, -187500.02, -187500.02, -187500.02, -187500.02, 26969.81, 187500.00, -0.00, -0.00, -0.00
254, 95547.24, -187500.02, -187500.02, -187500.02, -187500.02, -187500.02, 27007.46, 187500.00, -0.00, -0.00, -0.00
255, 95587.86, -187500.02, -187500.02, -187500.02, -187500.02, -187500.02, 27029.00, 187500.00, -0.00, -0.00, -0.00
0, 95572.62, -187500.02, -187500.02, -187500.02, -187500.02, -187500.02, 27029.92, 187500.00, -0.00, -0.00, -0.00
1, 95560.05, -187500.02, -187500.02, -187500.02, -187500.02, -187500.02, 27008.86, 187500.00, -0.00, -0.00, -0.00
2, 95587.99, -187500.02, -187500.02, -187500.02, -187500.02, -187500.02, 27010.32, 187500.00, -0.00, -0.00, -0.00
3, 95660.16, -187500.02, -187500.02, -187500.02, -187500.02, -187500.02, 26977.13, 187500.00, -0.00, -0.00, -0.00
4, 95596.02, -187500.02, -187500.02, -187500.02, -187500.02, -187500.02, 26985.24, 187500.00, -0.00, -0.00, -0.00
5, 95549.93, -187500.02, -187500.02, -187500.02, -187500.02, -187500.02, 27013.36, 187500.00, -0.00, -0.00, -0.00
6, 95578.96, -187500.02, -187500.02, -187500.02, -187500.02, -187500.02, 27016.91, 187500.00, -0.00, -0.00, -0.00
7, 95627.30, -187500.02, -187500.02, -187500.02, -187500.02, -187500.02, 27020.91, 187500.00, -0.00, -0.00, -0.00
8, 95640.01, -187500.02, -187500.02, -187500.02, -187500.02, -187500.02, 26999.07, 187500.00, -0.00, -0.00, -0.00
9, 95588.57, -187500.02, -187500.02, -187500.02, -187500.02, -187500.02, 26994.45, 187500.00, -0.00, -0.00, -0.00
10, 95589.87, -187500.02, -187500.02, -187500.02, -187500.02, -187500.02, 26997.62, 187500.00, -0.00, -0.00, -0.00
11, 95639.34, -187500.02, -187500.02, -187500.02, -187500.02, -187500.02, 26977.33, 187500.00, -0.00, -0.00, -0.00
12, 95594.63, -187500.02, -187500.02, -187500.02, -187500.02, -187500.02, 26989.37, 187500.00, -0.00, -0.00, -0.00
13, 95531.62, -187500.02, -187500.02, -187500.02, -187500.02, -187500.02, 27007.08, 187500.00, -0.00, -0.00, -0.00
14, 95516.17, -187500.02, -187500.02, -187500.02, -187500.02, -187500.02, 27029.65, 187500.00, -0.00, -0.00, -0.00
15, 95577.24, -187500.02, -187500.02, -187500.02, -187500.02, -187500.02, 27026.97, 187500.00, -0.00, -0.00, -0.00
