%OpenBCI Raw EEG Data
%
%Sample Rate = 250.0 Hz
%First Column = SampleIndex
%Other Columns = EEG data in microvolts followed by Accel Data (in G) interleaved with Aux Data
0, -187500.02, -187500.02, 0.00, -187500.02, 182724.63, 0.00, 0.00, 0.00, 0.00, 0.00, 0.00
1, -187500.02, -187500.02, 0.00, -187500.02, 187500.00, 0.00, 0.00, 0.00, 0.00, 0.00, 0.00
2, -187500.02, -187500.02, 0.00, -187500.02, 187500.00, 0.00, 0.00, 0.00, 0.00, 0.00, 0.00
3, -187500.02, -187500.02, 0.00, -187500.02, 180861.61, 0.00, 0.00, 0.00, 0.00, 0.00, 0.00
4, -187500.02, -187500.02, 0.00, -187500.02, 181936.84, 0.00, 0.00, 0.00, 0.00, 0.00, 0.00
5, -187500.02, -187500.02, 0.00, -187500.02, 187500.00, 0.00, 0.00, 0.00, 0.00, 0.00, 0.00
6, -187500.02, -187500.02, 0.00, -187500.02, 187500.00, 0.00, 0.00, 0.00, 0.00, 0.00, 0.00
7, -187500.02, -187500.02, 0.00, -187500.02, 182242.69, 0.00, 0.00, 0.00, 0.00, 0.00, 0.00
8, -187500.02, -187500.02, 0.00, -187500.02, 181119.17, 0.00, 0.00, 0.00, 0.00, 0.00, 0.00
9, -187500.02, -187500.02, 0.00, -187500.02, 187500.00, 0.00, 0.00, 0.00, 0.00, 0.00, 0.00
10, -187500.02, -187500.02, 0.00, -187500.02, 187500.00, 0.00, 0.00, 0.00, 0.00, 0.00, 0.00
11, -187500.02, -187500.02, 0.00, -187500.02, 183297.42, 0.00, 0.00, 0.00, 0.00, 0.00, 0.00
12, -187500.02, -187500.02, 0.00, -187500.02, 180088.73, 0.00, 0.00, 0.00, 0.00, 0.00, 0.00
13, -187500.02, -187500.02, 0.00, -187500.02, 186689.52, 0.00, 0.00, 0.00, 0.00, 0.00, 0.00
14, -187500.02, -187500.02, 0.00, -187500.02, 187500.00, 0.00, 0.00, 0.00, 0.00, 0.00, 0.00
15, -187500.02, -187500.02, 0.00, -187500.02, 184517.42, 0.00, 0.00, 0.00, 0.00, 0.00, 0.00
16, -187500.02, -187500.02, 0.00, -187500.02, 179596.91, 0.00, 0.00, 0.00, 0.00, 0.00, 0.00
17, -187500.02, -187500.02, 0.00, -187500.02, 185019.70, 0.00, 0.00, 0.00, 0.00, 0.00, 0.00
18, -187500.02, -187500.02, 0.00, -187500.02, 187500.00, 0.00, 0.00, 0.00, 0.00, 0.00, 0.00
19, -187500.02, -187500.02, 0.00, -187500.02, 185762.25, 0.00, 0.00, 0.00, 0.00, 0.00, 0.00
20, -187500.02, -187500.02, 0.00, -187500.02, 179422.45, 0.00, 0.00, 0.00, 0.00, 0.00, 0.00
21, -187500.02, -187500.02, 0.00, -187500.02, 183360.61, 0.00, 0.00, 0.00, 0.00, 0.00, 0.00
22, -187500.02, -187500.02, 0.00, -187500.02, 187500.00, 0.00, 0.00, 0.00, 0.00, 0.00, 0.00
23, -187500.02, -187500.02, 0.00, -187500.02, 186971.17, 0.00, 0.00, 0.00, 0.00, 0.00, 0.00
24, -187500.02, -187500.02, 0.00, -187500.02, 179668.48, 0.00, 0.00, 0.00, 0.00, 0.00, 0.00
25, -187500.02, -187500.02, 0.00, -187500.02, 181716.34, 0.00, 0.00, 0.00, 0.00, 0.00, 0.00
26, -187500.02, -187500.02, 0.00, -187500.02, 187500.00, 0.00, 0.00, 0.00, 0.00, 0.00, 0.00
27, -187500.02, -187500.02, 0.00, -187500.02, 187500.00, 0.00, 0.00, 0.00, 0.00, 0.00, 0.00
28, -187500.02, -187500.02, 0.00, -187500.02, 180888.61, 0.00, 0.00, 0.00, 0.00, 0.00, 0.00
29, -187500.02, -187500.02, 0.00, -187500.02, 181121.20, 0.00, 0.00, 0.00, 0.00, 0.00, 0.00
30, -187500.02, -187500.02, 0.00, -187500.02, 187500.00, 0.00, 0.00, 0.00, 0.00, 0.00, 0.00
31, -187500.02, -187500.02, 0.00, -187500.02, 187500.00, 0.00, 0.00, 0.00, 0.00, 0.00, 0.00
32, -187500.02, -187500.02, 0.00, -187500.02, 182535.97, 0.00, 0.00, 0.00, 0.00, 0.00, 0.00
33, -187500.02, -187500.02, 0.00, -187500.02, 180665.30, 0.00, 0.00, 0.00, 0.00, 0.00, 0.00
34, -187500.02, -187500.02, 0.00, -187500.02, 187500.00, 0.00, 0.00, 0.00, 0.00, 0.00, 0.00
35, -187500.02, -187500.02, 0.00, -187500.02, 187500.00, 0.00, 0.00, 0.00, 0.00, 0.00, 0.00
36, -187500.02, -187500.02, 0.00, -187500.02, 184252.11, 0.00, 0.00, 0.00, 0.00, 0.00, 0.00
37, -187500.02, -187500.02, 0.00, -187500.02, 180217.84, 0.00, 0.00, 0.00, 0.00, 0.00, 0.00
38, -187500.02, -187500.02, 0.00, -187500.02, 186422.80, 0.00, 0.00, 0.00, 0.00, 0.00, 0.00
39, -187500.02, -187500.02, 0.00, -187500.02, 187500.00, 0.00, 0.00, 0.00, 0.00, 0.00, 0.00
40, -187500.02, -187500.02, 0.00, -187500.02, 185442.66, 0.00, 0.00, 0.00, 0.00, 0.00, 0.00
41, -187500.02, -187500.02, 0.00, -187500.02, 179881.92, 0.00, 0.00, 0.00, 0.00, 0.00, 0.00
42, -187500.02, -187500.02, 0.00, -187500.02, 184719.02, 0.00, 0.00, 0.00, 0.00, 0.00, 0.00
43, -187500.02, -187500.02, 0.00, -187500.02, 187500.00, 0.00, 0.00, 0.00, 0.00, 0.00, 0.00
44, -187500.02, -187500.02, 0.00, -187500.02, 186765.19, 0.00, 0.00, 0.00, 0.00, 0.00, 0.00
45, -187500.02, -187500.02, 0.00, -187500.02, 179957.69, 0.00, 0.00, 0.00, 0.00, 0.00, 0.00
46, -187500.02, -187500.02, 0.00, -187500.02, 183052.31, 0.00, 0.00, 0.00, 0.00, 0.00, 0.00
47, -187500.02, -187500.02, 0.00, -187500.02, 187500.00, 0.00, 0.00, 0.00, 0.00, 0.00, 0.00
48, -187500.02, -187500.02, 0.00, -187500.02, 187500.00, 0.00, 0.00, 0.00, 0.00, 0.00, 0.00
49, -187500.02, -187500.02, 0.00, -187500.02, 180469.77, 0.00, 0.00, 0.00, 0.00, 0.00, 0.00
50, -187500.02, -187500.02, 0.00, -187500.02, 181632.44, 0.00, 0.00, 0.00, 0.00, 0.00, 0.00
51, -187500.02, -187500.02, 0.00, -187500.02, 187500.00, 0.00, 0.00, 0.00, 0.00, 0.00, 0.00
52, -187500.02, -187500.02, 0.00, -187500.02, 187500.00, 0.00, 0.00, 0.00, 0.00, 0.00, 0.00
53, -187500.02, -187500.02, 0.00, -187500.02, 181246.31, 0.00, 0.00, 0.00, 0.00, 0.00, 0.00
54, -187500.02, -187500.02, 0.00, -187500.02, 180451.80, 0.00, 0.00, 0.00, 0.00, 0.00, 0.00
55, -187500.02, -187500.02, 0.00, -187500.02, 187500.00, 0.00, 0.00, 0.00, 0.00, 0.00, 0.00
56, -187500.02, -187500.02, 0.00, -187500.02, 187500.00, 0.00, 0.00, 0.00, 0.00, 0.00, 0.00
57, -187500.02, -187500.02, 0.00, -187500.02, 182796.05, 0.00, 0.00, 0.00, 0.00, 0.00, 0.00
58, -187500.02, -187500.02, 0.00, -187500.02, 180087.97, 0.00, 0.00, 0.00, 0.00, 0.00, 0.00
59, -187500.02, -187500.02, 0.00, -187500.02, 186984.97, 0.00, 0.00, 0.00, 0.00, 0.00, 0.00
60, -187500.02, -187500.02, 0.00, -187500.02, 187500.00, 0.00, 0.00, 0.00, 0.00, 0.00, 0.00
61, -187500.02, -187500.02, 0.00, -187500.02, 184740.98, 0.00, 0.00, 0.00, 0.00, 0.00, 0.00
62, -187500.02, -187500.02, 0.00, -187500.02, 180172.80, 0.00, 0.00, 0.00, 0.00, 0.00, 0.00
63, -187500.02, -187500.02, 0.00, -187500.02, 185967.98, 0.00, 0.00, 0.00, 0.00, 0.00, 0.00
64, -187500.02, -187500.02, 0.00, -187500.02, 187500.00, 0.00, 0.00, 0.00, 0.00, 0.00, 0.00
65, -187500.02, -187500.02, 0.00, -187500.02, 186622.80, 0.00, 0.00, 0.00, 0.00, 0.00, 0.00
66, -187500.02, -187500.02, 0.00, -187500.02, 180473.33, 0.00, 0.00, 0.00, 0.00, 0.00, 0.00
67, -187500.02, -187500.02, 0.00, -187500.02, 184602.98, 0.00, 0.00, 0.00, 0.00, 0.00, 0.00
68, -187500.02, -187500.02, 0.00, -187500.02, 187500.00, 0.00, 0.00, 0.00, 0.00, 0.00, 0.00
69, -187500.02, -187500.02, 0.00, -187500.02, 187500.00, 0.00, 0.00, 0.00, 0.00, 0.00, 0.00
70, -187500.02, -187500.02, 0.00, -187500.02, 180671.58, 0.00, 0.00, 0.00, 0.00, 0.00, 0.00
71, -187500.02, -187500.02, 0.00, -187500.02, 183005.77, 0.00, 0.00, 0.00, 0.00, 0.00, 0.00
72, -187500.02, -187500.02, 0.00, -187500.02, 187500.00, 0.00, 0.00, 0.00, 0.00, 0.00, 0.00
73, -187500.02, -187500.02, 0.00, -187500.02, 187500.00, 0.00, 0.00, 0.00, 0.00, 0.00, 0.00
74, -187500.02, -187500.02, 0.00, -187500.02, 181319.45, 0.00, 0.00, 0.00, 0.00, 0.00, 0.00
75, -187500.02, -187500.02, 0.00, -187500.02, 181639.08, 0.00, 0.00, 0.00, 0.00, 0.00, 0.00
76, -187500.02, -187500.02, 0.00, -187500.02, 187500.00, 0.00, 0.00, 0.00, 0.00, 0.00, 0.00
77, -187500.02, -187500.02, 0.00, -187500.02, 187500.00, 0.00, 0.00, 0.00, 0.00, 0.00, 0.00
78, -187500.02, -187500.02, 0.00, -187500.02, 182253.08, 0.00, 0.00, 0.00, 0.00, 0.00, 0.00
79, -187500.02, -187500.02, 0.00, -187500.02, 180479.75, 0.00, 0.00, 0.00, 0.00, 0.00, 0.00
80, -187500.02, -187500.02, 0.00, -187500.02, 187500.00, 0.00, 0.00, 0.00, 0.00, 0.00, 0.00
81, -187500.02, -187500.02, 0.00, -187500.02, 187500.00, 0.00, 0.00, 0.00, 0.00, 0.00, 0.00
82, -187500.02, -187500.02, 0.00, -187500.02, 183540.83, 0.00, 0.00, 0.00, 0.00, 0.00, 0.00
83, -187500.02, -187500.02, 0.00, -187500.02, 179822.92, 0.00, 0.00, 0.00, 0.00, 0.00, 0.00
84, -187500.02, -187500.02, 0.00, -187500.02, 186117.30, 0.00, 0.00, 0.00, 0.00, 0.00, 0.00
85, -187500.02, -187500.02, 0.00, -187500.02, 187500.00, 0.00, 0.00, 0.00, 0.00, 0.00, 0.00
86, -187500.02, -187500.02, 0.00, -187500.02, 185111.80, 0.00, 0.00, 0.00, 0.00, 0.00, 0.00
87, -187500.02, -187500.02, 0.00, -187500.02, 179819.08, 0.00, 0.00, 0.00, 0.00, 0.00, 0.00
88, -187500.02, -187500.02, 0.00, -187500.02, 185048.30, 0.00, 0.00, 0.00, 0.00, 0.00, 0.00
89, -187500.02, -187500.02, 0.00, -187500.02, 187500.00, 0.00, 0.00, 0.00, 0.00, 0.00, 0.00
90, -187500.02, -187500.02, 0.00, -187500.02, 187047.11, 0.00, 0.00, 0.00, 0.00, 0.00, 0.00
91, -187500.02, -187500.02, 0.00, -187500.02, 180589.48, 0.00, 0.00, 0.00, 0.00, 0.00, 0.00
92, -187500.02, -187500.02, 0.00, -187500.02, 184067.03, 0.00, 0.00, 0.00, 0.00, 0.00, 0.00
93, -187500.02, -187500.02, 0.00, -187500.02, 187500.00, 0.00, 0.00, 0.00, 0.00, 0.00, 0.00
94, -187500.02, -187500.02, 0.00, -187500.02, 187500.00, 0.00, 0.00, 0.00, 0.00, 0.00, 0.00
95, -187500.02, -187500.02, 0.00, -187500.02, 181381.06, 0.00, 0.00, 0.00, 0.00, 0.00, 0.00
96, -187500.02, -187500.02, 0.00, -187500.02, 182862.67, 0.00, 0.00, 0.00, 0.00, 0.00, 0.00
97, -187500.02, -187500.02, 0.00, -187500.02, 187500.00, 0.00, 0.00, 0.00, 0.00, 0.00, 0.00
98, -187500.02, -187500.02, 0.00, -187500.02, 187500.00, 0.00, 0.00, 0.00, 0.00, 0.00, 0.00
99, -187500.02, -187500.02, 0.00, -187500.02, 182015.08, 0.00, 0.00, 0.00, 0.00, 0.00, 0.00
100, -187500.02, -187500.02, 0.00, -187500.02, 181441.98, 0.00, 0.00, 0.00, 0.00, 0.00, 0.00
101, -187500.02, -187500.02, 0.00, -187500.02, 187500.00, 0.00, 0.00, 0.00, 0.00, 0.00, 0.00
102, -187500.02, -187500.02, 0.00, -187500.02, 187500.00, 0.00, 0.00, 0.00, 0.00, 0.00, 0.00
103, -187500.02, -187500.02, 0.00, -187500.02, 183048.59, 0.00, 0.00, 0.00, 0.00, 0.00, 0.00
104, -187500.02, -187500.02, 0.00, -187500.02, 180368.06, 0.00, 0.00, 0.00, 0.00, 0.00, 0.00
105, -187500.02, -187500.02, 0.00, -187500.02, 187249.34, 0.00, 0.00, 0.00, 0.00, 0.00, 0.00
106, -187500.02, -187500.02, 0.00, -187500.02, 187500.00, 0.00, 0.00, 0.00, 0.00, 0.00, 0.00
107, -187500.02, -187500.02, 0.00, -187500.02, 184222.13, 0.00, 0.00, 0.00, 0.00, 0.00, 0.00
108, -187500.02, -187500.02, 0.00, -187500.02, 179765.89, 0.00, 0.00, 0.00, 0.00, 0.00, 0.00
109, -187500.02, -187500.02, 0.00, -187500.02, 185596.20, 0.00, 0.00, 0.00, 0.00, 0.00, 0.00
110, -187500.02, -187500.02, 0.00, -187500.02, 187500.00, 0.00, 0.00, 0.00, 0.00, 0.00, 0.00
111, -187500.02, -187500.02, 0.00, -187500.02, 185590.39, 0.00, 0.00, 0.00, 0.00, 0.00, 0.00
112, -187500.02, -187500.02, 0.00, -187500.02, 179582.78, 0.00, 0.00, 0.00, 0.00, 0.00, 0.00
113, -187500.02, -187500.02, 0.00, -187500.02, 184001.00, 0.00, 0.00, 0.00, 0.00, 0.00, 0.00
114, -187500.02, -187500.02, 0.00, -187500.02, 187500.00, 0.00, 0.00, 0.00, 0.00, 0.00, 0.00
115, -187500.02, -187500.02, 0.00, -187500.02, 187190.31, 0.00, 0.00, 0.00, 0.00, 0.00, 0.00
116, -187500.02, -187500.02, 0.00, -187500.02, 180252.86, 0.00, 0.00, 0.00, 0.00, 0.00, 0.00
117, -187500.02, -187500.02, 0.00, -187500.02, 183047.59, 0.00, 0.00, 0.00, 0.00, 0.00, 0.00
118, -187500.02, -187500.02, 0.00, -187500.02, 187500.00, 0.00, 0.00, 0.00, 0.00, 0.00, 0.00
119, -187500.02, -187500.02, 0.00, -187500.02, 187500.00, 0.00, 0.00, 0.00, 0.00, 0.00, 0.00
120, -187500.02, -187500.02, 0.00, -187500.02, 181414.83, 0.00, 0.00, 0.00, 0.00, 0.00, 0.00
121, -187500.02, -187500.02, 0.00, -187500.02, 182209.77, 0.00, 0.00, 0.00, 0.00, 0.00, 0.00
122, -187500.02, -187500.02, 0.00, -187500.02, 187500.00, 0.00, 0.00, 0.00, 0.00, 0.00, 0.00
123, -187500.02, -187500.02, 0.00, -187500.02, 187500.00, 0.00, 0.00, 0.00, 0.00, 0.00, 0.00
124, -187500.02, -187500.02, 0.00, -187500.02, 182996.08, 0.00, 0.00, 0.00, 0.00, 0.00, 0.00
125, -187500.02, -187500.02, 0.00, -187500.02, 181553.30, 0.00, 0.00, 0.00, 0.00, 0.00, 0.00
126, -187500.02, -187500.02, 0.00, -187500.02, 187500.00, 0.00, 0.00, 0.00, 0.00, 0.00, 0.00
127, -187500.02, -187500.02, 0.00, -187500.02, 187500.00, 0.00, 0.00, 0.00, 0.00, 0.00, 0.00
128, -187500.02, -187500.02, 0.00, -187500.02, 184104.81, 0.00, 0.00, 0.00, 0.00, 0.00, 0.00
129, -187500.02, -187500.02, 0.00, -187500.02, 180649.23, 0.00, 0.00, 0.00, 0.00, 0.00, 0.00
130, -187500.02, -187500.02, 0.00, -187500.02, 187103.94, 0.00, 0.00, 0.00, 0.00, 0.00, 0.00
131, -187500.02, -187500.02, 0.00, -187500.02, 187500.00, 0.00, 0.00, 0.00, 0.00, 0.00, 0.00
132, -187500.02, -187500.02, 0.00, -187500.02, 185364.17, 0.00, 0.00, 0.00, 0.00, 0.00, 0.00
133, -187500.02, -187500.02, 0.00, -187500.02, 180140.44, 0.00, 0.00, 0.00, 0.00, 0.00, 0.00
134, -187500.02, -187500.02, 0.00, -187500.02, 185361.94, 0.00, 0.00, 0.00, 0.00, 0.00, 0.00
135, -187500.02, -187500.02, 0.00, -187500.02, 187500.00, 0.00, 0.00, 0.00, 0.00, 0.00, 0.00
136, -187500.02, -187500.02, 0.00, -187500.02, 186562.41, 0.00, 0.00, 0.00, 0.00, 0.00, 0.00
137, -187500.02, -187500.02, 0.00, -187500.02, 180042.47, 0.00, 0.00, 0.00, 0.00, 0.00, 0.00
138, -187500.02, -187500.02, 0.00, -187500.02, 183697.72, 0.00, 0.00, 0.00, 0.00, 0.00, 0.00
139, -187500.02, -187500.02, 0.00, -187500.02, 187500.00, 0.00, 0.00, 0.00, 0.00, 0.00, 0.00
140, -187500.02, -187500.02, 0.00, -187500.02, 187500.00, 0.00, 0.00, 0.00, 0.00, 0.00, 0.00
141, -187500.02, -187500.02, 0.00, -187500.02, 180455.89, 0.00, 0.00, 0.00, 0.00, 0.00, 0.00
142, -187500.02, -187500.02, 0.00, -187500.02, 182184.64, 0.00, 0.00, 0.00, 0.00, 0.00, 0.00
143, -187500.02, -187500.02, 0.00, -187500.02, 187500.00, 0.00, 0.00, 0.00, 0.00, 0.00, 0.00
144, -187500.02, -187500.02, 0.00, -187500.02, 187500.00, 0.00, 0.00, 0.00, 0.00, 0.00, 0.00
145, -187500.02, -187500.02, 0.00, -187500.02, 181653.27, 0.00, 0.00, 0.00, 0.00, 0.00, 0.00
146, -187500.02, -187500.02, 0.00, -187500.02, 181547.48, 0.00, 0.00, 0.00, 0.00, 0.00, 0.00
147, -187500.02, -187500.02, 0.00, -187500.02, 187500.00, 0.00, 0.00, 0.00, 0.00, 0.00, 0.00
148, -187500.02, -187500.02, 0.00, -187500.02, 187500.00, 0.00, 0.00, 0.00, 0.00, 0.00, 0.00
149, -187500.02, -187500.02, 0.00, -187500.02, 183309.95, 0.00, 0.00, 0.00, 0.00, 0.00, 0.00
150, -187500.02, -187500.02, 0.00, -187500.02, 180951.11, 0.00, 0.00, 0.00, 0.00, 0.00, 0.00
151, -187500.02, -187500.02, 0.00, -187500.02, 187500.00, 0.00, 0.00, 0.00, 0.00, 0.00, 0.00
152, -187500.02, -187500.02, 0.00, -187500.02, 187500.00, 0.00, 0.00, 0.00, 0.00, 0.00, 0.00
153, -187500.02, -187500.02, 0.00, -187500.02, 184487.69, 0.00, 0.00, 0.00, 0.00, 0.00, 0.00
154, -187500.02, -187500.02, 0.00, -187500.02, 180250.31, 0.00, 0.00, 0.00, 0.00, 0.00, 0.00
155, -187500.02, -187500.02, 0.00, -187500.02, 186234.33, 0.00, 0.00, 0.00, 0.00, 0.00, 0.00
156, -187500.02, -187500.02, 0.00, -187500.02, 187500.00, 0.00, 0.00, 0.00, 0.00, 0.00, 0.00
157, -187500.02, -187500.02, 0.00, -187500.02, 185790.02, 0.00, 0.00, 0.00, 0.00, 0.00, 0.00
158, -187500.02, -187500.02, 0.00, -187500.02, 179969.78, 0.00, 0.00, 0.00, 0.00, 0.00, 0.00
159, -187500.02, -187500.02, 0.00, -187500.02, 184587.25, 0.00, 0.00, 0.00, 0.00, 0.00, 0.00
160, -187500.02, -187500.02, 0.00, -187500.02, 187500.00, 0.00, 0.00, 0.00, 0.00, 0.00, 0.00
161, -187500.02, -187500.02, 0.00, -187500.02, 187333.78, 0.00, 0.00, 0.00, 0.00, 0.00, 0.00
162, -187500.02, -187500.02, 0.00, -187500.02, 180593.14, 0.00, 0.00, 0.00, 0.00, 0.00, 0.00
163, -187500.02, -187500.02, 0.00, -187500.02, 183602.03, 0.00, 0.00, 0.00, 0.00, 0.00, 0.00
164, -187500.02, -187500.02, 0.00, -187500.02, 187500.00, 0.00, 0.00, 0.00, 0.00, 0.00, 0.00
165, -187500.02, -187500.02, 0.00, -187500.02, 187500.00, 0.00, 0.00, 0.00, 0.00, 0.00, 0.00
166, -187500.02, -187500.02, 0.00, -187500.02, 181708.56, 0.00, 0.00, 0.00, 0.00, 0.00, 0.00
167, -187500.02, -187500.02, 0.00, -187500.02, 182595.19, 0.00, 0.00, 0.00, 0.00, 0.00, 0.00
168, -187500.02, -187500.02, 0.00, -187500.02, 187500.00, 0.00, 0.00, 0.00, 0.00, 0.00, 0.00
169, -187500.02, -187500.02, 0.00, -187500.02, 187500.00, 0.00, 0.00, 0.00, 0.00, 0.00, 0.00
170, -187500.02, -187500.02, 0.00, -187500.02, 182557.05, 0.00, 0.00, 0.00, 0.00, 0.00, 0.00
171, -187500.02, -187500.02, 0.00, -187500.02, 181329.70, 0.00, 0.00, 0.00, 0.00, 0.00, 0.00
172, -187500.02, -187500.02, 0.00, -187500.02, 187500.00, 0.00, 0.00, 0.00, 0.00, 0.00, 0.00
173, -187500.02, -187500.02, 0.00, -187500.02, 187500.00, 0.00, 0.00, 0.00, 0.00, 0.00, 0.00
174, -187500.02, -187500.02, 0.00, -187500.02, 183613.67, 0.00, 0.00, 0.00, 0.00, 0.00, 0.00
175, -187500.02, -187500.02, 0.00, -187500.02, 180429.59, 0.00, 0.00, 0.00, 0.00, 0.00, 0.00
176, -187500.02, -187500.02, 0.00, -187500.02, 186972.25, 0.00, 0.00, 0.00, 0.00, 0.00, 0.00
177, -187500.02, -187500.02, 0.00, -187500.02, 187500.00, 0.00, 0.00, 0.00, 0.00, 0.00, 0.00
178, -187500.02, -187500.02, 0.00, -187500.02, 184877.39, 0.00, 0.00, 0.00, 0.00, 0.00, 0.00
179, -187500.02, -187500.02, 0.00, -187500.02, 179932.97, 0.00, 0.00, 0.00, 0.00, 0.00, 0.00
180, -187500.02, -187500.02, 0.00, -187500.02, 185392.69, 0.00, 0.00, 0.00, 0.00, 0.00, 0.00
181, -187500.02, -187500.02, 0.00, -187500.02, 187500.00, 0.00, 0.00, 0.00, 0.00, 0.00, 0.00
182, -187500.02, -187500.02, 0.00, -187500.02, 186471.75, 0.00, 0.00, 0.00, 0.00, 0.00, 0.00
183, -187500.02, -187500.02, 0.00, -187500.02, 180265.20, 0.00, 0.00, 0.00, 0.00, 0.00, 0.00
184, -187500.02, -187500.02, 0.00, -187500.02, 184305.86, 0.00, 0.00, 0.00, 0.00, 0.00, 0.00
185, -187500.02, -187500.02, 0.00, -187500.02, 187500.00, 0.00, 0.00, 0.00, 0.00, 0.00, 0.00
186, -187500.02, -187500.02, 0.00, -187500.02, 187500.00, 0.00, 0.00, 0.00, 0.00, 0.00, 0.00
187, -187500.02, -187500.02, 0.00, -187500.02, 181312.72, 0.00, 0.00, 0.00, 0.00, 0.00, 0.00
188, -187500.02, -187500.02, 0.00, -187500.02, 183461.06, 0.00, 0.00, 0.00, 0.00, 0.00, 0.00
189, -187500.02, -187500.02, 0.00, -187500.02, 187500.00, 0.00, 0.00, 0.00, 0.00, 0.00, 0.00
190, -187500.02, -187500.02, 0.00, -187500.02, 187500.00, 0.00, 0.00, 0.00, 0.00, 0.00, 0.00
191, -187500.02, -187500.02, 0.00, -187500.02, 182531.63, 0.00, 0.00, 0.00, 0.00, 0.00, 0.00
192, -187500.02, -187500.02, 0.00, -187500.02, 182399.59, 0.00, 0.00, 0.00, 0.00, 0.00, 0.00
193, -187500.02, -187500.02, 0.00, -187500.02, 187500.00, 0.00, 0.00, 0.00, 0.00, 0.00, 0.00
194, -187500.02, -187500.02, 0.00, -187500.02, 187500.00, 0.00, 0.00, 0.00, 0.00, 0.00, 0.00
195, -187500.02, -187500.02, 0.00, -187500.02, 183357.02, 0.00, 0.00, 0.00, 0.00, 0.00, 0.00
196, -187500.02, -187500.02, 0.00, -187500.02, 181267.48, 0.00, 0.00, 0.00, 0.00, 0.00, 0.00
197, -187500.02, -187500.02, 0.00, -187500.02, 187500.00, 0.00, 0.00, 0.00, 0.00, 0.00, 0.00
198, -187500.02, -187500.02, 0.00, -187500.02, 187500.00, 0.00, 0.00, 0.00, 0.00, 0.00, 0.00
199, -187500.02, -187500.02, 0.00, -187500.02, 184559.78, 0.00, 0.00, 0.00, 0.00, 0.00, 0.00
200, -187500.02, -187500.02, 0.00, -187500.02, 180490.47, 0.00, 0.00, 0.00, 0.00, 0.00, 0.00
201, -187500.02, -187500.02, 0.00, -187500.02, 186623.25, 0.00, 0.00, 0.00, 0.00, 0.00, 0.00
202, -187500.02, -187500.02, 0.00, -187500.02, 187500.00, 0.00, 0.00, 0.00, 0.00, 0.00, 0.00
203, -187500.02, -187500.02, 0.00, -187500.02, 185775.02, 0.00, 0.00, 0.00, 0.00, 0.00, 0.00
204, -187500.02, -187500.02, 0.00, -187500.02, 180125.11, 0.00, 0.00, 0.00, 0.00, 0.00, 0.00
205, -187500.02, -187500.02, 0.00, -187500.02, 184905.77, 0.00, 0.00, 0.00, 0.00, 0.00, 0.00
206, -187500.02, -187500.02, 0.00, -187500.02, 187500.00, 0.00, 0.00, 0.00, 0.00, 0.00, 0.00
207, -187500.02, -187500.02, 0.00, -187500.02, 187064.47, 0.00, 0.00, 0.00, 0.00, 0.00, 0.00
208, -187500.02, -187500.02, 0.00, -187500.02, 180286.58, 0.00, 0.00, 0.00, 0.00, 0.00, 0.00
209, -187500.02, -187500.02, 0.00, -187500.02, 183331.44, 0.00, 0.00, 0.00, 0.00, 0.00, 0.00
210, -187500.02, -187500.02, 0.00, -187500.02, 187500.00, 0.00, 0.00, 0.00, 0.00, 0.00, 0.00
211, -187500.02, -187500.02, 0.00, -187500.02, 187500.00, 0.00, 0.00, 0.00, 0.00, 0.00, 0.00
212, -187500.02, -187500.02, 0.00, -187500.02, 181207.58, 0.00, 0.00, 0.00, 0.00, 0.00, 0.00
213, -187500.02, -187500.02, 0.00, -187500.02, 182492.28, 0.00, 0.00, 0.00, 0.00, 0.00, 0.00
214, -187500.02, -187500.02, 0.00, -187500.02, 187500.00, 0.00, 0.00, 0.00, 0.00, 0.00, 0.00
215, -187500.02, -187500.02, 0.00, -187500.02, 187500.00, 0.00, 0.00, 0.00, 0.00, 0.00, 0.00
216, -187500.02, -187500.02, 0.00, -187500.02, 182681.72, 0.00, 0.00, 0.00, 0.00, 0.00, 0.00
217, -187500.02, -187500.02, 0.00, -187500.02, 181875.25, 0.00, 0.00, 0.00, 0.00, 0.00, 0.00
218, -187500.02, -187500.02, 0.00, -187500.02, 187500.00, 0.00, 0.00, 0.00, 0.00, 0.00, 0.00
219, -187500.02, -187500.02, 0.00, -187500.02, 187500.00, 0.00, 0.00, 0.00, 0.00, 0.00, 0.00
220, -187500.02, -187500.02, 0.00, -187500.02, 184258.25, 0.00, 0.00, 0.00, 0.00, 0.00, 0.00
221, -187500.02, -187500.02, 0.00, -187500.02, 181281.25, 0.00, 0.00, 0.00, 0.00, 0.00, 0.00
222, -187500.02, -187500.02, 0.00, -187500.02, 187500.00, 0.00, 0.00, 0.00, 0.00, 0.00, 0.00
223, -187500.02, -187500.02, 0.00, -187500.02, 187500.00, 0.00, 0.00, 0.00, 0.00, 0.00, 0.00
224, -187500.02, -187500.02, 0.00, -187500.02, 185275.23, 0.00, 0.00, 0.00, 0.00, 0.00, 0.00
225, -187500.02, -187500.02, 0.00, -187500.02, 180519.44, 0.00, 0.00, 0.00, 0.00, 0.00, 0.00
226, -187500.02, -187500.02, 0.00, -187500.02, 186096.48, 0.00, 0.00, 0.00, 0.00, 0.00, 0.00
227, -187500.02, -187500.02, 0.00, -187500.02, 187500.00, 0.00, 0.00, 0.00, 0.00, 0.00, 0.00
228, -187500.02, -187500.02, 0.00, -187500.02, 186371.19, 0.00, 0.00, 0.00, 0.00, 0.00, 0.00
229, -187500.02, -187500.02, 0.00, -187500.02, 180125.19, 0.00, 0.00, 0.00, 0.00, 0.00, 0.00
230, -187500.02, -187500.02, 0.00, -187500.02, 184220.09, 0.00, 0.00, 0.00, 0.00, 0.00, 0.00
231, -187500.02, -187500.02, 0.00, -187500.02, 187500.00, 0.00, 0.00, 0.00, 0.00, 0.00, 0.00
232, -187500.02, -187500.02, 0.00, -187500.02, 187500.00, 0.00, 0.00, 0.00, 0.00, 0.00, 0.00
233, -187500.02, -187500.02, 0.00, -187500.02, 180291.69, 0.00, 0.00, 0.00, 0.00, 0.00, 0.00
234, -187500.02, -187500.02, 0.00, -187500.02, 182506.75, 0.00, 0.00, 0.00, 0.00, 0.00, 0.00
235, -187500.02, -187500.02, 0.00, -187500.02, 187500.00, 0.00, 0.00, 0.00, 0.00, 0.00, 0.00
236, -187500.02, -187500.02, 0.00, -187500.02, 187500.00, 0.00, 0.00, 0.00, 0.00, 0.00, 0.00
237, -187500.02, -187500.02, 0.00, -187500.02, 180844.56, 0.00, 0.00, 0.00, 0.00, 0.00, 0.00
238, -187500.02, -187500.02, 0.00, -187500.02, 181050.08, 0.00, 0.00, 0.00, 0.00, 0.00, 0.00
239, -187500.02, -187500.02, 0.00, -187500.02, 187500.00, 0.00, 0.00, 0.00, 0.00, 0.00, 0.00
240, -187500.02, -187500.02, 0.00, -187500.02, 187500.00, 0.00, 0.00, 0.00, 0.00, 0.00, 0.00
241, -187500.02, -187500.02, 0.00, -187500.02, 182133.50, 0.00, 0.00, 0.00, 0.00, 0.00, 0.00
242, -187500.02, -187500.02, 0.00, -187500.02, 180425.84, 0.00, 0.00, 0.00, 0.00, 0.00, 0.00
243, -187500.02, -187500.02, 0.00, -187500.02, 187500.00, 0.00, 0.00, 0.00, 0.00, 0.00, 0.00
244, -187500.02, -187500.02, 0.00, -187500.02, 187500.00, 0.00, 0.00, 0.00, 0.00, 0.00, 0.00
245, -187500.02, -187500.02, 0.00, -187500.02, 183818.39, 0.00, 0.00, 0.00, 0.00, 0.00, 0.00
246, -187500.02, -187500.02, 0.00, -187500.02, 180162.05, 0.00, 0.00, 0.00, 0.00, 0.00, 0.00
247, -187500.02, -187500.02, 0.00, -187500.02, 186575.77, 0.00, 0.00, 0.00, 0.00, 0.00, 0.00
248, -187500.02, -187500.02, 0.00, -187500.02, 187500.00, 0.00, 0.00, 0.00, 0.00, 0.00, 0.00
249, -187500.02, -187500.02, 0.00, -187500.02, 185615.50, 0.00, 0.00, 0.00, 0.00, 0.00, 0.00
250, -187500.02, -187500.02, 0.00, -187500.02, 180179.73, 0.00, 0.00, 0.00, 0.00, 0.00, 0.00
251, -187500.02, -187500.02, 0.00, -187500.02, 185188.17, 0.00, 0.00, 0.00, 0.00, 0.00, 0.00
252, -187500.02, -187500.02, 0.00, -187500.02, 187500.00, 0.00, 0.00, 0.00, 0.00, 0.00, 0.00
253, -187500.02, -187500.02, 0.00, -187500.02, 186739.52, 0.00, 0.00, 0.00, 0.00, 0.00, 0.00
254, -187500.02, -187500.02, 0.00, -187500.02, 180003.63, 0.00, 0.00, 0.00, 0.00, 0.00, 0.00
255, -187500.02, -187500.02, 0.00, -187500.02, 183344.56, 0.00, 0.00, 0.00, 0.00, 0.00, 0.00
0, -187500.02, -187500.02, 0.00, -187500.02, 187500.00, 0.00, 0.00, 0.00, 0.00, 0.00, 0.00
1, -187500.02, -187500.02, 0.00, -187500.02, 187500.00, 0.00, 0.00, 0.00, 0.00, 0.00, 0.00
2, -187500.02, -187500.02, 0.00, -187500.02, 180381.48, 0.00, 0.00, 0.00, 0.00, 0.00, 0.00
3, -187500.02, -187500.02, 0.00, -187500.02, 181768.25, 0.00, 0.00, 0.00, 0.00, 0.00, 0.00
4, -187500.02, -187500.02, 0.00, -187500.02, 187500.00, 0.00, 0.00, 0.00, 0.00, 0.00, 0.00
5, -187500.02, -187500.02, 0.00, -187500.02, 187500.00, 0.00, 0.00, 0.00, 0.00, 0.00, 0.00
6, -187500.02, -187500.02, 0.00, -187500.02, 181078.94, 0.00, 0.00, 0.00, 0.00, 0.00, 0.00
7, -187500.02, -187500.02, 0.00, -187500.02, 180451.14, 0.00, 0.00, 0.00, 0.00, 0.00, 0.00
8, -187500.02, -187500.02, 0.00, -187500.02, 187500.00, 0.00, 0.00, 0.00, 0.00, 0.00, 0.00
9, -187500.02, -187500.02, 0.00, -187500.02, 187500.00, 0.00, 0.00, 0.00, 0.00, 0.00, 0.00
10, -187500.02, -187500.02, 0.00, -187500.02, 182690.45, 0.00, 0.00, 0.00, 0.00, 0.00, 0.00
11, -187500.02, -187500.02, 0.00, -187500.02, 180155.05, 0.00, 0.00, 0.00, 0.00, 0.00, 0.00
12, -187500.02, -187500.02, 0.00, -187500.02, 187068.05, 0.00, 0.00, 0.00, 0.00, 0.00, 0.00
13, -187500.02, -187500.02, 0.00, -187500.02, 187500.00, 0.00, 0.00, 0.00, 0.00, 0.00, 0.00
14, -187500.02, -187500.02, 0.00, -187500.02, 184561.88, 0.00, 0.00, 0.00, 0.00, 0.00, 0.00
15, -187500.02, -187500.02, 0.00, -187500.02, 180059.08, 0.00, 0.00, 0.00, 0.00, 0.00, 0.00
16, -187500.02, -187500.02, 0.00, -187500.02, 185767.33, 0.00, 0.00, 0.00, 0.00, 0.00, 0.00
17, -187500.02, -187500.02, 0.00, -187500.02, 187500.00, 0.00, 0.00, 0.00, 0.00, 0.00, 0.00
18, -187500.02, -187500.02, 0.00, -187500.02, 185769.88, 0.00, 0.00, 0.00, 0.00, 0.00, 0.00
19, -187500.02, -187500.02, 0.00, -187500.02, 179718.72, 0.00, 0.00, 0.00, 0.00, 0.00, 0.00
20, -187500.02, -187500.02, 0.00, -187500.02, 184103.52, 0.00, 0.00, 0.00, 0.00, 0.00, 0.00
21, -187500.02, -187500.02, 0.00, -187500.02, 187500.00, 0.00, 0.00, 0.00, 0.00, 0.00, 0.00
22, -187500.02, -187500.02, 0.00, -187500.02, 186941.95, 0.00, 0.00, 0.00, 0.00, 0.00, 0.00
23, -187500.02, -187500.02, 0.00, -187500.02, 179834.66, 0.00, 0.00, 0.00, 0.00, 0.00, 0.00
24, -187500.02, -187500.02, 0.00, -187500.02, 182338.48, 0.00, 0.00, 0.00, 0.00, 0.00, 0.00
25, -187500.02, -187500.02, 0.00, -187500.02, 187500.00, 0.00, 0.00, 0.00, 0.00, 0.00, 0.00
26, -187500.02, -187500.02, 0.00, -187500.02, 187500.00, 0.00, 0.00, 0.00, 0.00, 0.00, 0.00
27, -187500.02, -187500.02, 0.00, -187500.02, 180888.02, 0.00, 0.00, 0.00, 0.00, 0.00, 0.00
28, -187500.02, -187500.02, 0.00, -187500.02, 181593.02, 0.00, 0.00, 0.00, 0.00, 0.00, 0.00
29, -187500.02, -187500.02, 0.00, -187500.02, 187500.00, 0.00, 0.00, 0.00, 0.00, 0.00, 0.00
30, -187500.02, -187500.02, 0.00, -187500.02, 187500.00, 0.00, 0.00, 0.00, 0.00, 0.00, 0.00
31, -187500.02, -187500.02, 0.00, -187500.02, 182426.34, 0.00, 0.00, 0.00, 0.00, 0.00, 0.00
32, -187500.02, -187500.02, 0.00, -187500.02, 180865.08, 0.00, 0.00, 0.00, 0.00, 0.00, 0.00
33, -187500.02, -187500.02, 0.00, -187500.02, 187500.00, 0.00, 0.00, 0.00, 0.00, 0.00, 0.00
34, -187500.02, -187500.02, 0.00, -187500.02, 187500.00, 0.00, 0.00, 0.00, 0.00, 0.00, 0.00
35, -187500.02, -187500.02, 0.00, -187500.02, 183587.25, 0.00, 0.00, 0.00, 0.00, 0.00, 0.00
36, -187500.02, -187500.02, 0.00, -187500.02, 180051.31, 0.00, 0.00, 0.00, 0.00, 0.00, 0.00
37, -187500.02, -187500.02, 0.00, -187500.02, 186508.22, 0.00, 0.00, 0.00, 0.00, 0.00, 0.00
38, -187500.02, -187500.02, 0.00, -187500.02, 187500.00, 0.00, 0.00, 0.00, 0.00, 0.00, 0.00
39, -187500.02, -187500.02, 0.00, -187500.02, 184840.11, 0.00, 0.00, 0.00, 0.00, 0.00, 0.00
40, -187500.02, -187500.02, 0.00, -187500.02, 179582.78, 0.00, 0.00, 0.00, 0.00, 0.00, 0.00
41, -187500.02, -187500.02, 0.00, -187500.02, 184802.27, 0.00, 0.00, 0.00, 0.00, 0.00, 0.00
42, -187500.02, -187500.02, 0.00, -187500.02, 187500.00, 0.00, 0.00, 0.00, 0.00, 0.00, 0.00
43, -187500.02, -187500.02, 0.00, -187500.02, 186165.28, 0.00, 0.00, 0.00, 0.00, 0.00, 0.00
44, -187500.02, -187500.02, 0.00, -187500.02, 179628.95, 0.00, 0.00, 0.00, 0.00, 0.00, 0.00
45, -187500.02, -187500.02, 0.00, -187500.02, 183316.81, 0.00, 0.00, 0.00, 0.00, 0.00, 0.00
46, -187500.02, -187500.02, 0.00, -187500.02, 187500.00, 0.00, 0.00, 0.00, 0.00, 0.00, 0.00
47, -187500.02, -187500.02, 0.00, -187500.02, 187500.00, 0.00, 0.00, 0.00, 0.00, 0.00, 0.00
48, -187500.02, -187500.02, 0.00, -187500.02, 180567.00, 0.00, 0.00, 0.00, 0.00, 0.00, 0.00
49, -187500.02, -187500.02, 0.00, -187500.02, 182543.30, 0.00, 0.00, 0.00, 0.00, 0.00, 0.00
50, -187500.02, -187500.02, 0.00, -187500.02, 187500.00, 0.00, 0.00, 0.00, 0.00, 0.00, 0.00
51, -187500.02, -187500.02, 0.00, -187500.02, 187500.00, 0.00, 0.00, 0.00, 0.00, 0.00, 0.00
52, -187500.02, -187500.02, 0.00, -187500.02, 181123.27, 0.00, 0.00, 0.00, 0.00, 0.00, 0.00
53, -187500.02, -187500.02, 0.00, -187500.02, 181071.14, 0.00, 0.00, 0.00, 0.00, 0.00, 0.00
54, -187500.02, -187500.02, 0.00, -187500.02, 187500.00, 0.00, 0.00, 0.00, 0.00, 0.00, 0.00
55, -187500.02, -187500.02, 0.00, -187500.02, 187500.00, 0.00, 0.00, 0.00, 0.00, 0.00, 0.00
56, -187500.02, -187500.02, 0.00, -187500.02, 182893.28, 0.00, 0.00, 0.00, 0.00, 0.00, 0.00
57, -187500.02, -187500.02, 0.00, -187500.02, 180372.22, 0.00, 0.00, 0.00, 0.00, 0.00, 0.00
58, -187500.02, -187500.02, 0.00, -187500.02, 187500.00, 0.00, 0.00, 0.00, 0.00, 0.00, 0.00
59, -187500.02, -187500.02, 0.00, -187500.02, 187500.00, 0.00, 0.00, 0.00, 0.00, 0.00, 0.00
60, -187500.02, -187500.02, 0.00, -187500.02, 184147.70, 0.00, 0.00, 0.00, 0.00, 0.00, 0.00
61, -187500.02, -187500.02, 0.00, -187500.02, 179532.16, 0.00, 0.00, 0.00, 0.00, 0.00, 0.00
62, -187500.02, -187500.02, 0.00, -187500.02, 186187.86, 0.00, 0.00, 0.00, 0.00, 0.00, 0.00
63, -187500.02, -187500.02, 0.00, -187500.02, 187500.00, 0.00, 0.00, 0.00, 0.00, 0.00, 0.00
64, -187500.02, -187500.02, 0.00, -187500.02, 185631.39, 0.00, 0.00, 0.00, 0.00, 0.00, 0.00
65, -187500.02, -187500.02, 0.00, -187500.02, 179259.48, 0.00, 0.00, 0.00, 0.00, 0.00, 0.00
66, -187500.02, -187500.02, 0.00, -187500.02, 184391.53, 0.00, 0.00, 0.00, 0.00, 0.00, 0.00
67, -187500.02, -187500.02, 0.00, -187500.02, 187500.00, 0.00, 0.00, 0.00, 0.00, 0.00, 0.00
68, -187500.02, -187500.02, 0.00, -187500.02, 187043.91, 0.00, 0.00, 0.00, 0.00, 0.00, 0.00
69, -187500.02, -187500.02, 0.00, -187500.02, 179387.45, 0.00, 0.00, 0.00, 0.00, 0.00, 0.00
70, -187500.02, -187500.02, 0.00, -187500.02, 182621.88, 0.00, 0.00, 0.00, 0.00, 0.00, 0.00
71, -187500.02, -187500.02, 0.00, -187500.02, 187500.00, 0.00, 0.00, 0.00, 0.00, 0.00, 0.00
72, -187500.02, -187500.02, 0.00, -187500.02, 187500.00, 0.00, 0.00, 0.00, 0.00, 0.00, 0.00
73, -187500.02, -187500.02, 0.00, -187500.02, 180059.48, 0.00, 0.00, 0.00, 0.00, 0.00, 0.00
74, -187500.02, -187500.02, 0.00, -187500.02, 181118.23, 0.00, 0.00, 0.00, 0.00, 0.00, 0.00
75, -187500.02, -187500.02, 0.00, -187500.02, 187500.00, 0.00, 0.00, 0.00, 0.00, 0.00, 0.00
76, -187500.02, -187500.02, 0.00, -187500.02, 187500.00, 0.00, 0.00, 0.00, 0.00, 0.00, 0.00
77, -187500.02, -187500.02, 0.00, -187500.02, 181500.58, 0.00, 0.00, 0.00, 0.00, 0.00, 0.00
78, -187500.02, -187500.02, 0.00, -187500.02, 180389.39, 0.00, 0.00, 0.00, 0.00, 0.00, 0.00
79, -187500.02, -187500.02, 0.00, -187500.02, 187500.00, 0.00, 0.00, 0.00, 0.00, 0.00, 0.00
80, -187500.02, -187500.02, 0.00, -187500.02, 187500.00, 0.00, 0.00, 0.00, 0.00, 0.00, 0.00
81, -187500.02, -187500.02, 0.00, -187500.02, 183509.52, 0.00, 0.00, 0.00, 0.00, 0.00, 0.00
82, -187500.02, -187500.02, 0.00, -187500.02, 180165.53, 0.00, 0.00, 0.00, 0.00, 0.00, 0.00
83, -187500.02, -187500.02, 0.00, -187500.02, 187500.00, 0.00, 0.00, 0.00, 0.00, 0.00, 0.00
84, -187500.02, -187500.02, 0.00, -187500.02, 187500.00, 0.00, 0.00, 0.00, 0.00, 0.00, 0.00
85, -187500.02, -187500.02, 0.00, -187500.02, 185495.69, 0.00, 0.00, 0.00, 0.00, 0.00, 0.00
86, -187500.02, -187500.02, 0.00, -187500.02, 180053.17, 0.00, 0.00, 0.00, 0.00, 0.00, 0.00
87, -187500.02, -187500.02, 0.00, -187500.02, 186165.69, 0.00, 0.00, 0.00, 0.00, 0.00, 0.00
88, -187500.02, -187500.02, 0.00, -187500.02, 187500.00, 0.00, 0.00, 0.00, 0.00, 0.00, 0.00
89, -187500.02, -187500.02, 0.00, -187500.02, 187015.44, 0.00, 0.00, 0.00, 0.00, 0.00, 0.00
90, -187500.02, -187500.02, 0.00, -187500.02, 180005.09, 0.00, 0.00, 0.00, 0.00, 0.00, 0.00
91, -187500.02, -187500.02, 0.00, -187500.02, 184312.28, 0.00, 0.00, 0.00, 0.00, 0.00, 0.00
92, -187500.02, -187500.02, 0.00, -187500.02, 187500.00, 0.00, 0.00, 0.00, 0.00, 0.00, 0.00
93, -187500.02, -187500.02, 0.00, -187500.02, 187500.00, 0.00, 0.00, 0.00, 0.00, 0.00, 0.00
94, -187500.02, -187500.02, 0.00, -187500.02, 180321.70, 0.00, 0.00, 0.00, 0.00, 0.00, 0.00
95, -187500.02, -187500.02, 0.00, -187500.02, 182617.67, 0.00, 0.00, 0.00, 0.00, 0.00, 0.00
96, -187500.02, -187500.02, 0.00, -187500.02, 187500.00, 0.00, 0.00, 0.00, 0.00, 0.00, 0.00
97, -187500.02, -187500.02, 0.00, -187500.02, 187500.00, 0.00, 0.00, 0.00, 0.00, 0.00, 0.00
98, -187500.02, -187500.02, 0.00, -187500.02, 181088.31, 0.00, 0.00, 0.00, 0.00, 0.00, 0.00
99, -187500.02, -187500.02, 0.00, -187500.02, 181186.20, 0.00, 0.00, 0.00, 0.00, 0.00, 0.00
100, -187500.02, -187500.02, 0.00, -187500.02, 187500.00, 0.00, 0.00, 0.00, 0.00, 0.00, 0.00
101, -187500.02, -187500.02, 0.00, -187500.02, 187500.00, 0.00, 0.00, 0.00, 0.00, 0.00, 0.00
102, -187500.02, -187500.02, 0.00, -187500.02, 182288.84, 0.00, 0.00, 0.00, 0.00, 0.00, 0.00
103, -187500.02, -187500.02, 0.00, -187500.02, 180066.25, 0.00, 0.00, 0.00, 0.00, 0.00, 0.00
104, -187500.02, -187500.02, 0.00, -187500.02, 187500.00, 0.00, 0.00, 0.00, 0.00, 0.00, 0.00
105, -187500.02, -187500.02, 0.00, -187500.02, 187500.00, 0.00, 0.00, 0.00, 0.00, 0.00, 0.00
106, -187500.02, -187500.02, 0.00, -187500.02, 184053.53, 0.00, 0.00, 0.00, 0.00, 0.00, 0.00
107, -187500.02, -187500.02, 0.00, -187500.02, 179908.64, 0.00, 0.00, 0.00, 0.00, 0.00, 0.00
108, -187500.02, -187500.02, 0.00, -187500.02, 186899.78, 0.00, 0.00, 0.00, 0.00, 0.00, 0.00
109, -187500.02, -187500.02, 0.00, -187500.02, 187500.00, 0.00, 0.00, 0.00, 0.00, 0.00, 0.00
110, -187500.02, -187500.02, 0.00, -187500.02, 186184.28, 0.00, 0.00, 0.00, 0.00, 0.00, 0.00
111, -187500.02, -187500.02, 0.00, -187500.02, 180113.06, 0.00, 0.00, 0.00, 0.00, 0.00, 0.00
112, -187500.02, -187500.02, 0.00, -187500.02, 185639.39, 0.00, 0.00, 0.00, 0.00, 0.00, 0.00
113, -187500.02, -187500.02, 0.00, -187500.02, 187500.00, 0.00, 0.00, 0.00, 0.00, 0.00, 0.00
114, -187500.02, -187500.02, 0.00, -187500.02, 187500.00, 0.00, 0.00, 0.00, 0.00, 0.00, 0.00
115, -187500.02, -187500.02, 0.00, -187500.02, 180580.05, 0.00, 0.00, 0.00, 0.00, 0.00, 0.00
116, -187500.02, -187500.02, 0.00, -187500.02, 184025.81, 0.00, 0.00, 0.00, 0.00, 0.00, 0.00
117, -187500.02, -187500.02, 0.00, -187500.02, 187500.00, 0.00, 0.00, 0.00, 0.00, 0.00, 0.00
118, -187500.02, -187500.02, 0.00, -187500.02, 187500.00, 0.00, 0.00, 0.00, 0.00, 0.00, 0.00
119, -187500.02, -187500.02, 0.00, -187500.02, 181017.63, 0.00, 0.00, 0.00, 0.00, 0.00, 0.00
120, -187500.02, -187500.02, 0.00, -187500.02, 182303.75, 0.00, 0.00, 0.00, 0.00, 0.00, 0.00
121, -187500.02, -187500.02, 0.00, -187500.02, 187500.00, 0.00, 0.00, 0.00, 0.00, 0.00, 0.00
122, -187500.02, -187500.02, 0.00, -187500.02, 187500.00, 0.00, 0.00, 0.00, 0.00, 0.00, 0.00
123, -187500.02, -187500.02, 0.00, -187500.02, 181767.31, 0.00, 0.00, 0.00, 0.00, 0.00, 0.00
124, -187500.02, -187500.02, 0.00, -187500.02, 180844.52, 0.00, 0.00, 0.00, 0.00, 0.00, 0.00
125, -187500.02, -187500.02, 0.00, -187500.02, 187500.00, 0.00, 0.00, 0.00, 0.00, 0.00, 0.00
126, -187500.02, -187500.02, 0.00, -187500.02, 187500.00, 0.00, 0.00, 0.00, 0.00, 0.00, 0.00
127, -187500.02, -187500.02, 0.00, -187500.02, 182873.45, 0.00, 0.00, 0.00, 0.00, 0.00, 0.00
128, -187500.02, -187500.02, 0.00, -187500.02, 179619.13, 0.00, 0.00, 0.00, 0.00, 0.00, 0.00
129, -187500.02, -187500.02, 0.00, -187500.02, 187032.59, 0.00, 0.00, 0.00, 0.00, 0.00, 0.00
130, -187500.02, -187500.02, 0.00, -187500.02, 187500.00, 0.00, 0.00, 0.00, 0.00, 0.00, 0.00
131, -187500.02, -187500.02, 0.00, -187500.02, 184169.27, 0.00, 0.00, 0.00, 0.00, 0.00, 0.00
132, -187500.02, -187500.02, 0.00, -187500.02, 178852.34, 0.00, 0.00, 0.00, 0.00, 0.00, 0.00
133, -187500.02, -187500.02, 0.00, -187500.02, 185057.27, 0.00, 0.00, 0.00, 0.00, 0.00, 0.00
134, -187500.02, -187500.02, 0.00, -187500.02, 187500.00, 0.00, 0.00, 0.00, 0.00, 0.00, 0.00
135, -187500.02, -187500.02, 0.00, -187500.02, 185717.69, 0.00, 0.00, 0.00, 0.00, 0.00, 0.00
136, -187500.02, -187500.02, 0.00, -187500.02, 179041.95, 0.00, 0.00, 0.00, 0.00, 0.00, 0.00
137, -187500.02, -187500.02, 0.00, -187500.02, 183753.50, 0.00, 0.00, 0.00, 0.00, 0.00, 0.00
138, -187500.02, -187500.02, 0.00, -187500.02, 187500.00, 0.00, 0.00, 0.00, 0.00, 0.00, 0.00
139, -187500.02, -187500.02, 0.00, -187500.02, 187500.00, 0.00, 0.00, 0.00, 0.00, 0.00, 0.00
140, -187500.02, -187500.02, 0.00, -187500.02, 179818.13, 0.00, 0.00, 0.00, 0.00, 0.00, 0.00
141, -187500.02, -187500.02, 0.00, -187500.02, 182598.56, 0.00, 0.00, 0.00, 0.00, 0.00, 0.00
142, -187500.02, -187500.02, 0.00, -187500.02, 187500.00, 0.00, 0.00, 0.00, 0.00, 0.00, 0.00
143, -187500.02, -187500.02, 0.00, -187500.02, 187500.00, 0.00, 0.00, 0.00, 0.00, 0.00, 0.00
144, -187500.02, -187500.02, 0.00, -187500.02, 181000.13, 0.00, 0.00, 0.00, 0.00, 0.00, 0.00
145, -187500.02, -187500.02, 0.00, -187500.02, 181199.69, 0.00, 0.00, 0.00, 0.00, 0.00, 0.00
146, -187500.02, -187500.02, 0.00, -187500.02, 187500.00, 0.00, 0.00, 0.00, 0.00, 0.00, 0.00
147, -187500.02, -187500.02, 0.00, -187500.02, 187500.00, 0.00, 0.00, 0.00, 0.00, 0.00, 0.00
148, -187500.02, -187500.02, 0.00, -187500.02, 181909.31, 0.00, 0.00, 0.00, 0.00, 0.00, 0.00
149, -187500.02, -187500.02, 0.00, -187500.02, 179893.30, 0.00, 0.00, 0.00, 0.00, 0.00, 0.00
150, -187500.02, -187500.02, 0.00, -187500.02, 187500.00, 0.00, 0.00, 0.00, 0.00, 0.00, 0.00
151, -187500.02, -187500.02, 0.00, -187500.02, 187500.00, 0.00, 0.00, 0.00, 0.00, 0.00, 0.00
152, -187500.02, -187500.02, 0.00, -187500.02, 183306.53, 0.00, 0.00, 0.00, 0.00, 0.00, 0.00
153, -187500.02, -187500.02, 0.00, -187500.02, 179092.42, 0.00, 0.00, 0.00, 0.00, 0.00, 0.00
154, -187500.02, -187500.02, 0.00, -187500.02, 186075.00, 0.00, 0.00, 0.00, 0.00, 0.00, 0.00
155, -187500.02, -187500.02, 0.00, -187500.02, 187500.00, 0.00, 0.00, 0.00, 0.00, 0.00, 0.00
156, -187500.02, -187500.02, 0.00, -187500.02, 184757.70, 0.00, 0.00, 0.00, 0.00, 0.00, 0.00
157, -187500.02, -187500.02, 0.00, -187500.02, 178727.53, 0.00, 0.00, 0.00, 0.00, 0.00, 0.00
158, -187500.02, -187500.02, 0.00, -187500.02, 184309.64, 0.00, 0.00, 0.00, 0.00, 0.00, 0.00
159, -187500.02, -187500.02, 0.00, -187500.02, 187500.00, 0.00, 0.00, 0.00, 0.00, 0.00, 0.00
160, -187500.02, -187500.02, 0.00, -187500.02, 186286.11, 0.00, 0.00, 0.00, 0.00, 0.00, 0.00
161, -187500.02, -187500.02, 0.00, -187500.02, 178929.84, 0.00, 0.00, 0.00, 0.00, 0.00, 0.00
162, -187500.02, -187500.02, 0.00, -187500.02, 182749.11, 0.00, 0.00, 0.00, 0.00, 0.00, 0.00
163, -187500.02, -187500.02, 0.00, -187500.02, 187500.00, 0.00, 0.00, 0.00, 0.00, 0.00, 0.00
164, -187500.02, -187500.02, 0.00, -187500.02, 187500.00, 0.00, 0.00, 0.00, 0.00, 0.00, 0.00
165, -187500.02, -187500.02, 0.00, -187500.02, 179514.20, 0.00, 0.00, 0.00, 0.00, 0.00, 0.00
166, -187500.02, -187500.02, 0.00, -187500.02, 181151.78, 0.00, 0.00, 0.00, 0.00, 0.00, 0.00
167, -187500.02, -187500.02, 0.00, -187500.02, 187500.00, 0.00, 0.00, 0.00, 0.00, 0.00, 0.00
168, -187500.02, -187500.02, 0.00, -187500.02, 187500.00, 0.00, 0.00, 0.00, 0.00, 0.00, 0.00
169, -187500.02, -187500.02, 0.00, -187500.02, 181007.53, 0.00, 0.00, 0.00, 0.00, 0.00, 0.00
170, -187500.02, -187500.02, 0.00, -187500.02, 180543.48, 0.00, 0.00, 0.00, 0.00, 0.00, 0.00
171, -187500.02, -187500.02, 0.00, -187500.02, 187500.00, 0.00, 0.00, 0.00, 0.00, 0.00, 0.00
172, -187500.02, -187500.02, 0.00, -187500.02, 187500.00, 0.00, 0.00, 0.00, 0.00, 0.00, 0.00
173, -187500.02, -187500.02, 0.00, -187500.02, 183017.03, 0.00, 0.00, 0.00, 0.00, 0.00, 0.00
174, -187500.02, -187500.02, 0.00, -187500.02, 180265.47, 0.00, 0.00, 0.00, 0.00, 0.00, 0.00
175, -187500.02, -187500.02, 0.00, -187500.02, 187500.00, 0.00, 0.00, 0.00, 0.00, 0.00, 0.00
176, -187500.02, -187500.02, 0.00, -187500.02, 187500.00, 0.00, 0.00, 0.00, 0.00, 0.00, 0.00
177, -187500.02, -187500.02, 0.00, -187500.02, 184907.81, 0.00, 0.00, 0.00, 0.00, 0.00, 0.00
178, -187500.02, -187500.02, 0.00, -187500.02, 179993.81, 0.00, 0.00, 0.00, 0.00, 0.00, 0.00
179, -187500.02, -187500.02, 0.00, -187500.02, 186403.66, 0.00, 0.00, 0.00, 0.00, 0.00, 0.00
180, -187500.02, -187500.02, 0.00, -187500.02, 187500.00, 0.00, 0.00, 0.00, 0.00, 0.00, 0.00
181, -187500.02, -187500.02, 0.00, -187500.02, 186374.89, 0.00, 0.00, 0.00, 0.00, 0.00, 0.00
182, -187500.02, -187500.02, 0.00, -187500.02, 179735.88, 0.00, 0.00, 0.00, 0.00, 0.00, 0.00
183, -187500.02, -187500.02, 0.00, -187500.02, 184515.45, 0.00, 0.00, 0.00, 0.00, 0.00, 0.00
184, -187500.02, -187500.02, 0.00, -187500.02, 187500.00, 0.00, 0.00, 0.00, 0.00, 0.00, 0.00
185, -187500.02, -187500.02, 0.00, -187500.02, 187500.00, 0.00, 0.00, 0.00, 0.00, 0.00, 0.00
186, -187500.02, -187500.02, 0.00, -187500.02, 179968.33, 0.00, 0.00, 0.00, 0.00, 0.00, 0.00
187, -187500.02, -187500.02, 0.00, -187500.02, 182899.42, 0.00, 0.00, 0.00, 0.00, 0.00, 0.00
188, -187500.02, -187500.02, 0.00, -187500.02, 187500.00, 0.00, 0.00, 0.00, 0.00, 0.00, 0.00
189, -187500.02, -187500.02, 0.00, -187500.02, 187500.00, 0.00, 0.00, 0.00, 0.00, 0.00, 0.00
190, -187500.02, -187500.02, 0.00, -187500.02, 180704.23, 0.00, 0.00, 0.00, 0.00, 0.00, 0.00
191, -187500.02, -187500.02, 0.00, -187500.02, 181323.11, 0.00, 0.00, 0.00, 0.00, 0.00, 0.00
192, -187500.02, -187500.02, 0.00, -187500.02, 187500.00, 0.00, 0.00, 0.00, 0.00, 0.00, 0.00
193, -187500.02, -187500.02, 0.00, -187500.02, 187500.00, 0.00, 0.00, 0.00, 0.00, 0.00, 0.00
194, -187500.02, -187500.02, 0.00, -187500.02, 181725.89, 0.00, 0.00, 0.00, 0.00, 0.00, 0.00
195, -187500.02, -187500.02, 0.00, -187500.02, 180038.33, 0.00, 0.00, 0.00, 0.00, 0.00, 0.00
196, -187500.02, -187500.02, 0.00, -187500.02, 187500.00, 0.00, 0.00, 0.00, 0.00, 0.00, 0.00
197, -187500.02, -187500.02, 0.00, -187500.02, 187500.00, 0.00, 0.00, 0.00, 0.00, 0.00, 0.00
198, -187500.02, -187500.02, 0.00, -187500.02, 183094.83, 0.00, 0.00, 0.00, 0.00, 0.00, 0.00
199, -187500.02, -187500.02, 0.00, -187500.02, 179241.52, 0.00, 0.00, 0.00, 0.00, 0.00, 0.00
200, -187500.02, -187500.02, 0.00, -187500.02, 186369.16, 0.00, 0.00, 0.00, 0.00, 0.00, 0.00
201, -187500.02, -187500.02, 0.00, -187500.02, 187500.00, 0.00, 0.00, 0.00, 0.00, 0.00, 0.00
202, -187500.02, -187500.02, 0.00, -187500.02, 184868.34, 0.00, 0.00, 0.00, 0.00, 0.00, 0.00
203, -187500.02, -187500.02, 0.00, -187500.02, 179254.88, 0.00, 0.00, 0.00, 0.00, 0.00, 0.00
204, -187500.02, -187500.02, 0.00, -187500.02, 185167.17, 0.00, 0.00, 0.00, 0.00, 0.00, 0.00
205, -187500.02, -187500.02, 0.00, -187500.02, 187500.00, 0.00, 0.00, 0.00, 0.00, 0.00, 0.00
206, -187500.02, -187500.02, 0.00, -187500.02, 186932.69, 0.00, 0.00, 0.00, 0.00, 0.00, 0.00
207, -187500.02, -187500.02, 0.00, -187500.02, 179894.55, 0.00, 0.00, 0.00, 0.00, 0.00, 0.00
208, -187500.02, -187500.02, 0.00, -187500.02, 184020.92, 0.00, 0.00, 0.00, 0.00, 0.00, 0.00
209, -187500.02, -187500.02, 0.00, -187500.02, 187500.00, 0.00, 0.00, 0.00, 0.00, 0.00, 0.00
210, -187500.02, -187500.02, 0.00, -187500.02, 187500.00, 0.00, 0.00, 0.00, 0.00, 0.00, 0.00
211, -187500.02, -187500.02, 0.00, -187500.02, 180672.45, 0.00, 0.00, 0.00, 0.00, 0.00, 0.00
212, -187500.02, -187500.02, 0.00, -187500.02, 182497.05, 0.00, 0.00, 0.00, 0.00, 0.00, 0.00
213, -187500.02, -187500.02, 0.00, -187500.02, 187500.00, 0.00, 0.00, 0.00, 0.00, 0.00, 0.00
214, -187500.02, -187500.02, 0.00, -187500.02, 187500.00, 0.00, 0.00, 0.00, 0.00, 0.00, 0.00
215, -187500.02, -187500.02, 0.00, -187500.02, 181434.27, 0.00, 0.00, 0.00, 0.00, 0.00, 0.00
216, -187500.02, -187500.02, 0.00, -187500.02, 181018.13, 0.00, 0.00, 0.00, 0.00, 0.00, 0.00
217, -187500.02, -187500.02, 0.00, -187500.02, 187500.00, 0.00, 0.00, 0.00, 0.00, 0.00, 0.00
218, -187500.02, -187500.02, 0.00, -187500.02, 187500.00, 0.00, 0.00, 0.00, 0.00, 0.00, 0.00
219, -187500.02, -187500.02, 0.00, -187500.02, 182564.53, 0.00, 0.00, 0.00, 0.00, 0.00, 0.00
220, -187500.02, -187500.02, 0.00, -187500.02, 179829.36, 0.00, 0.00, 0.00, 0.00, 0.00, 0.00
221, -187500.02, -187500.02, 0.00, -187500.02, 187500.00, 0.00, 0.00, 0.00, 0.00, 0.00, 0.00
222, -187500.02, -187500.02, 0.00, -187500.02, 187500.00, 0.00, 0.00, 0.00, 0.00, 0.00, 0.00
223, -187500.02, -187500.02, 0.00, -187500.02, 183914.95, 0.00, 0.00, 0.00, 0.00, 0.00, 0.00
224, -187500.02, -187500.02, 0.00, -187500.02, 179185.75, 0.00, 0.00, 0.00, 0.00, 0.00, 0.00
225, -187500.02, -187500.02, 0.00, -187500.02, 185776.47, 0.00, 0.00, 0.00, 0.00, 0.00, 0.00
226, -187500.02, -187500.02, 0.00, -187500.02, 187500.00, 0.00, 0.00, 0.00, 0.00, 0.00, 0.00
227, -187500.02, -187500.02, 0.00, -187500.02, 185347.44, 0.00, 0.00, 0.00, 0.00, 0.00, 0.00
228, -187500.02, -187500.02, 0.00, -187500.02, 178843.78, 0.00, 0.00, 0.00, 0.00, 0.00, 0.00
229, -187500.02, -187500.02, 0.00, -187500.02, 183842.28, 0.00, 0.00, 0.00, 0.00, 0.00, 0.00
230, -187500.02, -187500.02, 0.00, -187500.02, 187500.00, 0.00, 0.00, 0.00, 0.00, 0.00, 0.00
231, -187500.02, -187500.02, 0.00, -187500.02, 186718.17, 0.00, 0.00, 0.00, 0.00, 0.00, 0.00
232, -187500.02, -187500.02, 0.00, -187500.02, 179088.14, 0.00, 0.00, 0.00, 0.00, 0.00, 0.00
233, -187500.02, -187500.02, 0.00, -187500.02, 182245.44, 0.00, 0.00, 0.00, 0.00, 0.00, 0.00
234, -187500.02, -187500.02, 0.00, -187500.02, 187500.00, 0.00, 0.00, 0.00, 0.00, 0.00, 0.00
235, -187500.02, -187500.02, 0.00, -187500.02, 187500.00, 0.00, 0.00, 0.00, 0.00, 0.00, 0.00
236, -187500.02, -187500.02, 0.00, -187500.02, 180225.94, 0.00, 0.00, 0.00, 0.00, 0.00, 0.00
237, -187500.02, -187500.02, 0.00, -187500.02, 181322.89, 0.00, 0.00, 0.00, 0.00, 0.00, 0.00
238, -187500.02, -187500.02, 0.00, -187500.02, 187500.00, 0.00, 0.00, 0.00, 0.00, 0.00, 0.00
239, -187500.02, -187500.02, 0.00, -187500.02, 187500.00, 0.00, 0.00, 0.00, 0.00, 0.00, 0.00
240, -187500.02, -187500.02, 0.00, -187500.02, 181963.75, 0.00, 0.00, 0.00, 0.00, 0.00, 0.00
241, -187500.02, -187500.02, 0.00, -187500.02, 180698.52, 0.00, 0.00, 0.00, 0.00, 0.00, 0.00
242, -187500.02, -187500.02, 0.00, -187500.02, 187500.00, 0.00, 0.00, 0.00, 0.00, 0.00, 0.00
243, -187500.02, -187500.02, 0.00, -187500.02, 187500.00, 0.00, 0.00, 0.00, 0.00, 0.00, 0.00
244, -187500.02, -187500.02, 0.00, -187500.02, 183769.20, 0.00, 0.00, 0.00, 0.00, 0.00, 0.00
245, -187500.02, -187500.02, 0.00, -187500.02, 180150.05, 0.00, 0.00, 0.00, 0.00, 0.00, 0.00
246, -187500.02, -187500.02, 0.00, -187500.02, 187363.67, 0.00, 0.00, 0.00, 0.00, 0.00, 0.00
247, -187500.02, -187500.02, 0.00, -187500.02, 187500.00, 0.00, 0.00, 0.00, 0.00, 0.00, 0.00
248, -187500.02, -187500.02, 0.00, -187500.02, 185141.42, 0.00, 0.00, 0.00, 0.00, 0.00, 0.00
249, -187500.02, -187500.02, 0.00, -187500.02, 179578.02, 0.00, 0.00, 0.00, 0.00, 0.00, 0.00
250, -187500.02, -187500.02, 0.00, -187500.02, 185573.86, 0.00, 0.00, 0.00, 0.00, 0.00, 0.00
251, -187500.02, -187500.02, 0.00, -187500.02, 187500.00, 0.00, 0.00, 0.00, 0.00, 0.00, 0.00
252, -187500.02, -187500.02, 0.00, -187500.02, 186597.36, 0.00, 0.00, 0.00, 0.00, 0.00, 0.00
253, -187500.02, -187500.02, 0.00, -187500.02, 179519.91, 0.00, 0.00, 0.00, 0.00, 0.00, 0.00
254, -187500.02, -187500.02, 0.00, -187500.02, 183779.34, 0.00, 0.00, 0.00, 0.00, 0.00, 0.00
255, -187500.02, -187500.02, 0.00, -187500.02, 187500.00, 0.00, 0.00, 0.00, 0.00, 0.00, 0.00
0, -187500.02, -187500.02, 0.00, -187500.02, 187500.00, 0.00, 0.00, 0.00, 0.00, 0.00, 0.00
1, -187500.02, -187500.02, 0.00, -187500.02, 179917.80, 0.00, 0.00, 0.00, 0.00, 0.00, 0.00
2, -187500.02, -187500.02, 0.00, -187500.02, 182060.45, 0.00, 0.00, 0.00, 0.00, 0.00, 0.00
3, -187500.02, -187500.02, 0.00, -187500.02, 187500.00, 0.00, 0.00, 0.00, 0.00, 0.00, 0.00
4, -187500.02, -187500.02, 0.00, -187500.02, 187500.00, 0.00, 0.00, 0.00, 0.00, 0.00, 0.00
5, -187500.02, -187500.02, 0.00, -187500.02, 180680.41, 0.00, 0.00, 0.00, 0.00, 0.00, 0.00
6, -187500.02, -187500.02, 0.00, -187500.02, 180580.61, 0.00, 0.00, 0.00, 0.00, 0.00, 0.00
7, -187500.02, -187500.02, 0.00, -187500.02, 187500.00, 0.00, 0.00, 0.00, 0.00, 0.00, 0.00
8, -187500.02, -187500.02, 0.00, -187500.02, 187500.00, 0.00, 0.00, 0.00, 0.00, 0.00, 0.00
9, -187500.02, -187500.02, 0.00, -187500.02, 182344.45, 0.00, 0.00, 0.00, 0.00, 0.00, 0.00
10, -187500.02, -187500.02, 0.00, -187500.02, 180066.00, 0.00, 0.00, 0.00, 0.00, 0.00, 0.00
11, -187500.02, -187500.02, 0.00, -187500.02, 187500.00, 0.00, 0.00, 0.00, 0.00, 0.00, 0.00
12, -187500.02, -187500.02, 0.00, -187500.02, 187500.00, 0.00, 0.00, 0.00, 0.00, 0.00, 0.00
13, -187500.02, -187500.02, 0.00, -187500.02, 184339.81, 0.00, 0.00, 0.00, 0.00, 0.00, 0.00
14, -187500.02, -187500.02, 0.00, -187500.02, 179983.80, 0.00, 0.00, 0.00, 0.00, 0.00, 0.00
15, -187500.02, -187500.02, 0.00, -187500.02, 186893.41, 0.00, 0.00, 0.00, 0.00, 0.00, 0.00
16, -187500.02, -187500.02, 0.00, -187500.02, 187500.00, 0.00, 0.00, 0.00, 0.00, 0.00, 0.00
17, -187500.02, -187500.02, 0.00, -187500.02, 186347.77, 0.00, 0.00, 0.00, 0.00, 0.00, 0.00
18, -187500.02, -187500.02, 0.00, -187500.02, 180016.89, 0.00, 0.00, 0.00, 0.00, 0.00, 0.00
19, -187500.02, -187500.02, 0.00, -187500.02, 185240.36, 0.00, 0.00, 0.00, 0.00, 0.00, 0.00
20, -187500.02, -187500.02, 0.00, -187500.02, 187500.00, 0.00, 0.00, 0.00, 0.00, 0.00, 0.00
21, -187500.02, -187500.02, 0.00, -187500.02, 187500.00, 0.00, 0.00, 0.00, 0.00, 0.00, 0.00
22, -187500.02, -187500.02, 0.00, -187500.02, 180035.41, 0.00, 0.00, 0.00, 0.00, 0.00, 0.00
23, -187500.02, -187500.02, 0.00, -187500.02, 183409.13, 0.00, 0.00, 0.00, 0.00, 0.00, 0.00
24, -187500.02, -187500.02, 0.00, -187500.02, 187500.00, 0.00, 0.00, 0.00, 0.00, 0.00, 0.00
25, -187500.02, -187500.02, 0.00, -187500.02, 187500.00, 0.00, 0.00, 0.00, 0.00, 0.00, 0.00
26, -187500.02, -187500.02, 0.00, -187500.02, 180601.78, 0.00, 0.00, 0.00, 0.00, 0.00, 0.00
27, -187500.02, -187500.02, 0.00, -187500.02, 181725.38, 0.00, 0.00, 0.00, 0.00, 0.00, 0.00
28, -187500.02, -187500.02, 0.00, -187500.02, 187500.00, 0.00, 0.00, 0.00, 0.00, 0.00, 0.00
29, -187500.02, -187500.02, 0.00, -187500.02, 187500.00, 0.00, 0.00, 0.00, 0.00, 0.00, 0.00
30, -187500.02, -187500.02, 0.00, -187500.02, 181489.20, 0.00, 0.00, 0.00, 0.00, 0.00, 0.00
31, -187500.02, -187500.02, 0.00, -187500.02, 180368.41, 0.00, 0.00, 0.00, 0.00, 0.00, 0.00
32, -187500.02, -187500.02, 0.00, -187500.02, 187500.00, 0.00, 0.00, 0.00, 0.00, 0.00, 0.00
33, -187500.02, -187500.02, 0.00, -187500.02, 187500.00, 0.00, 0.00, 0.00, 0.00, 0.00, 0.00
34, -187500.02, -187500.02, 0.00, -187500.02, 182909.70, 0.00, 0.00, 0.00, 0.00, 0.00, 0.00
35, -187500.02, -187500.02, 0.00, -187500.02, 179562.64, 0.00, 0.00, 0.00, 0.00, 0.00, 0.00
36, -187500.02, -187500.02, 0.00, -187500.02, 186935.61, 0.00, 0.00, 0.00, 0.00, 0.00, 0.00
37, -187500.02, -187500.02, 0.00, -187500.02, 187500.00, 0.00, 0.00, 0.00, 0.00, 0.00, 0.00
38, -187500.02, -187500.02, 0.00, -187500.02, 184619.33, 0.00, 0.00, 0.00, 0.00, 0.00, 0.00
39, -187500.02, -187500.02, 0.00, -187500.02, 179426.72, 0.00, 0.00, 0.00, 0.00, 0.00, 0.00
40, -187500.02, -187500.02, 0.00, -187500.02, 185735.81, 0.00, 0.00, 0.00, 0.00, 0.00, 0.00
41, -187500.02, -187500.02, 0.00, -187500.02, 187500.00, 0.00, 0.00, 0.00, 0.00, 0.00, 0.00
42, -187500.02, -187500.02, 0.00, -187500.02, 186648.42, 0.00, 0.00, 0.00, 0.00, 0.00, 0.00
43, -187500.02, -187500.02, 0.00, -187500.02, 179936.25, 0.00, 0.00, 0.00, 0.00, 0.00, 0.00
44, -187500.02, -187500.02, 0.00, -187500.02, 184552.02, 0.00, 0.00, 0.00, 0.00, 0.00, 0.00
45, -187500.02, -187500.02, 0.00, -187500.02, 187500.00, 0.00, 0.00, 0.00, 0.00, 0.00, 0.00
46, -187500.02, -187500.02, 0.00, -187500.02, 187500.00, 0.00, 0.00, 0.00, 0.00, 0.00, 0.00
47, -187500.02, -187500.02, 0.00, -187500.02, 180635.45, 0.00, 0.00, 0.00, 0.00, 0.00, 0.00
48, -187500.02, -187500.02, 0.00, -187500.02, 183032.02, 0.00, 0.00, 0.00, 0.00, 0.00, 0.00
49, -187500.02, -187500.02, 0.00, -187500.02, 187500.00, 0.00, 0.00, 0.00, 0.00, 0.00, 0.00
50, -187500.02, -187500.02, 0.00, -187500.02, 187500.00, 0.00, 0.00, 0.00, 0.00, 0.00, 0.00
51, -187500.02, -187500.02, 0.00, -187500.02, 181345.13, 0.00, 0.00, 0.00, 0.00, 0.00, 0.00
52, -187500.02, -187500.02, 0.00, -187500.02, 181545.84, 0.00, 0.00, 0.00, 0.00, 0.00, 0.00
53, -187500.02, -187500.02, 0.00, -187500.02, 187500.00, 0.00, 0.00, 0.00, 0.00, 0.00, 0.00
54, -187500.02, -187500.02, 0.00, -187500.02, 187500.00, 0.00, 0.00, 0.00, 0.00, 0.00, 0.00
55, -187500.02, -187500.02, 0.00, -187500.02, 182371.14, 0.00, 0.00, 0.00, 0.00, 0.00, 0.00
56, -187500.02, -187500.02, 0.00, -187500.02, 180294.16, 0.00, 0.00, 0.00, 0.00, 0.00, 0.00
57, -187500.02, -187500.02, 0.00, -187500.02, 187500.00, 0.00, 0.00, 0.00, 0.00, 0.00, 0.00
58, -187500.02, -187500.02, 0.00, -187500.02, 187500.00, 0.00, 0.00, 0.00, 0.00, 0.00, 0.00
59, -187500.02, -187500.02, 0.00, -187500.02, 183738.94, 0.00, 0.00, 0.00, 0.00, 0.00, 0.00
60, -187500.02, -187500.02, 0.00, -187500.02, 179515.34, 0.00, 0.00, 0.00, 0.00, 0.00, 0.00
61, -187500.02, -187500.02, 0.00, -187500.02, 186359.42, 0.00, 0.00, 0.00, 0.00, 0.00, 0.00
62, -187500.02, -187500.02, 0.00, -187500.02, 187500.00, 0.00, 0.00, 0.00, 0.00, 0.00, 0.00
63, -187500.02, -187500.02, 0.00, -187500.02, 185197.78, 0.00, 0.00, 0.00, 0.00, 0.00, 0.00
64, -187500.02, -187500.02, 0.00, -187500.02, 179087.61, 0.00, 0.00, 0.00, 0.00, 0.00, 0.00
65, -187500.02, -187500.02, 0.00, -187500.02, 184600.30, 0.00, 0.00, 0.00, 0.00, 0.00, 0.00
66, -187500.02, -187500.02, 0.00, -187500.02, 187500.00, 0.00, 0.00, 0.00, 0.00, 0.00, 0.00
67, -187500.02, -187500.02, 0.00, -187500.02, 186990.39, 0.00, 0.00, 0.00, 0.00, 0.00, 0.00
68, -187500.02, -187500.02, 0.00, -187500.02, 179727.89, 0.00, 0.00, 0.00, 0.00, 0.00, 0.00
69, -187500.02, -187500.02, 0.00, -187500.02, 183462.31, 0.00, 0.00, 0.00, 0.00, 0.00, 0.00
70, -187500.02, -187500.02, 0.00, -187500.02, 187500.00, 0.00, 0.00, 0.00, 0.00, 0.00, 0.00
71, -187500.02, -187500.02, 0.00, -187500.02, 187500.00, 0.00, 0.00, 0.00, 0.00, 0.00, 0.00
72, -187500.02, -187500.02, 0.00, -187500.02, 180915.11, 0.00, 0.00, 0.00, 0.00, 0.00, 0.00
73, -187500.02, -187500.02, 0.00, -187500.02, 182537.13, 0.00, 0.00, 0.00, 0.00, 0.00, 0.00
74, -187500.02, -187500.02, 0.00, -187500.02, 187500.00, 0.00, 0.00, 0.00, 0.00, 0.00, 0.00
75, -187500.02, -187500.02, 0.00, -187500.02, 187500.00, 0.00, 0.00, 0.00, 0.00, 0.00, 0.00
76, -187500.02, -187500.02, 0.00, -187500.02, 182273.47, 0.00, 0.00, 0.00, 0.00, 0.00, 0.00
77, -187500.02, -187500.02, 0.00, -187500.02, 181415.25, 0.00, 0.00, 0.00, 0.00, 0.00, 0.00
78, -187500.02, -187500.02, 0.00, -187500.02, 187500.00, 0.00, 0.00, 0.00, 0.00, 0.00, 0.00
79, -187500.02, -187500.02, 0.00, -187500.02, 187500.00, 0.00, 0.00, 0.00, 0.00, 0.00, 0.00
80, -187500.02, -187500.02, 0.00, -187500.02, 183420.06, 0.00, 0.00, 0.00, 0.00, 0.00, 0.00
81, -187500.02, -187500.02, 0.00, -187500.02, 180348.80, 0.00, 0.00, 0.00, 0.00, 0.00, 0.00
82, -187500.02, -187500.02, 0.00, -187500.02, 187500.00, 0.00, 0.00, 0.00, 0.00, 0.00, 0.00
83, -187500.02, -187500.02, 0.00, -187500.02, 187500.00, 0.00, 0.00, 0.00, 0.00, 0.00, 0.00
84, -187500.02, -187500.02, 0.00, -187500.02, 184706.36, 0.00, 0.00, 0.00, 0.00, 0.00, 0.00
85, -187500.02, -187500.02, 0.00, -187500.02, 179600.66, 0.00, 0.00, 0.00, 0.00, 0.00, 0.00
86, -187500.02, -187500.02, 0.00, -187500.02, 185942.17, 0.00, 0.00, 0.00, 0.00, 0.00, 0.00
87, -187500.02, -187500.02, 0.00, -187500.02, 187500.00, 0.00, 0.00, 0.00, 0.00, 0.00, 0.00
88, -187500.02, -187500.02, 0.00, -187500.02, 186233.20, 0.00, 0.00, 0.00, 0.00, 0.00, 0.00
89, -187500.02, -187500.02, 0.00, -187500.02, 179520.39, 0.00, 0.00, 0.00, 0.00, 0.00, 0.00
90, -187500.02, -187500.02, 0.00, -187500.02, 184117.48, 0.00, 0.00, 0.00, 0.00, 0.00, 0.00
91, -187500.02, -187500.02, 0.00, -187500.02, 187500.00, 0.00, 0.00, 0.00, 0.00, 0.00, 0.00
92, -187500.02, -187500.02, 0.00, -187500.02, 187500.00, 0.00, 0.00, 0.00, 0.00, 0.00, 0.00
93, -187500.02, -187500.02, 0.00, -187500.02, 179772.45, 0.00, 0.00, 0.00, 0.00, 0.00, 0.00
94, -187500.02, -187500.02, 0.00, -187500.02, 182448.09, 0.00, 0.00, 0.00, 0.00, 0.00, 0.00
95, -187500.02, -187500.02, 0.00, -187500.02, 187500.00, 0.00, 0.00, 0.00, 0.00, 0.00, 0.00
96, -187500.02, -187500.02, 0.00, -187500.02, 187500.00, 0.00, 0.00, 0.00, 0.00, 0.00, 0.00
97, -187500.02, -187500.02, 0.00, -187500.02, 180440.13, 0.00, 0.00, 0.00, 0.00, 0.00, 0.00
98, -187500.02, -187500.02, 0.00, -187500.02, 180877.48, 0.00, 0.00, 0.00, 0.00, 0.00, 0.00
99, -187500.02, -187500.02, 0.00, -187500.02, 187500.00, 0.00, 0.00, 0.00, 0.00, 0.00, 0.00
100, -187500.02, -187500.02, 0.00, -187500.02, 187500.00, 0.00, 0.00, 0.00, 0.00, 0.00, 0.00
101, -187500.02, -187500.02, 0.00, -187500.02, 181994.14, 0.00, 0.00, 0.00, 0.00, 0.00, 0.00
102, -187500.02, -187500.02, 0.00, -187500.02, 180284.47, 0.00, 0.00, 0.00, 0.00, 0.00, 0.00
103, -187500.02, -187500.02, 0.00, -187500.02, 187500.00, 0.00, 0.00, 0.00, 0.00, 0.00, 0.00
104, -187500.02, -187500.02, 0.00, -187500.02, 187500.00, 0.00, 0.00, 0.00, 0.00, 0.00, 0.00
105, -187500.02, -187500.02, 0.00, -187500.02, 183968.00, 0.00, 0.00, 0.00, 0.00, 0.00, 0.00
106, -187500.02, -187500.02, 0.00, -187500.02, 180122.53, 0.00, 0.00, 0.00, 0.00, 0.00, 0.00
107, -187500.02, -187500.02, 0.00, -187500.02, 187243.95, 0.00, 0.00, 0.00, 0.00, 0.00, 0.00
108, -187500.02, -187500.02, 0.00, -187500.02, 187500.00, 0.00, 0.00, 0.00, 0.00, 0.00, 0.00
109, -187500.02, -187500.02, 0.00, -187500.02, 185847.03, 0.00, 0.00, 0.00, 0.00, 0.00, 0.00
110, -187500.02, -187500.02, 0.00, -187500.02, 180027.25, 0.00, 0.00, 0.00, 0.00, 0.00, 0.00
111, -187500.02, -187500.02, 0.00, -187500.02, 185646.41, 0.00, 0.00, 0.00, 0.00, 0.00, 0.00
112, -187500.02, -187500.02, 0.00, -187500.02, 187500.00, 0.00, 0.00, 0.00, 0.00, 0.00, 0.00
113, -187500.02, -187500.02, 0.00, -187500.02, 187270.98, 0.00, 0.00, 0.00, 0.00, 0.00, 0.00
114, -187500.02, -187500.02, 0.00, -187500.02, 179966.98, 0.00, 0.00, 0.00, 0.00, 0.00, 0.00
115, -187500.02, -187500.02, 0.00, -187500.02, 183749.53, 0.00, 0.00, 0.00, 0.00, 0.00, 0.00
116, -187500.02, -187500.02, 0.00, -187500.02, 187500.00, 0.00, 0.00, 0.00, 0.00, 0.00, 0.00
117, -187500.02, -187500.02, 0.00, -187500.02, 187500.00, 0.00, 0.00, 0.00, 0.00, 0.00, 0.00
118, -187500.02, -187500.02, 0.00, -187500.02, 180327.97, 0.00, 0.00, 0.00, 0.00, 0.00, 0.00
119, -187500.02, -187500.02, 0.00, -187500.02, 181988.30, 0.00, 0.00, 0.00, 0.00, 0.00, 0.00
120, -187500.02, -187500.02, 0.00, -187500.02, 187500.00, 0.00, 0.00, 0.00, 0.00, 0.00, 0.00
121, -187500.02, -187500.02, 0.00, -187500.02, 187500.00, 0.00, 0.00, 0.00, 0.00, 0.00, 0.00
122, -187500.02, -187500.02, 0.00, -187500.02, 181167.00, 0.00, 0.00, 0.00, 0.00, 0.00, 0.00
123, -187500.02, -187500.02, 0.00, -187500.02, 180588.36, 0.00, 0.00, 0.00, 0.00, 0.00, 0.00
124, -187500.02, -187500.02, 0.00, -187500.02, 187500.00, 0.00, 0.00, 0.00, 0.00, 0.00, 0.00
125, -187500.02, -187500.02, 0.00, -187500.02, 187500.00, 0.00, 0.00, 0.00, 0.00, 0.00, 0.00
126, -187500.02, -187500.02, 0.00, -187500.02, 182277.13, 0.00, 0.00, 0.00, 0.00, 0.00, 0.00
127, -187500.02, -187500.02, 0.00, -187500.02, 179456.20, 0.00, 0.00, 0.00, 0.00, 0.00, 0.00
128, -187500.02, -187500.02, 0.00, -187500.02, 187065.98, 0.00, 0.00, 0.00, 0.00, 0.00, 0.00
129, -187500.02, -187500.02, 0.00, -187500.02, 187500.00, 0.00, 0.00, 0.00, 0.00, 0.00, 0.00
130, -187500.02, -187500.02, 0.00, -187500.02, 183951.94, 0.00, 0.00, 0.00, 0.00, 0.00, 0.00
131, -187500.02, -187500.02, 0.00, -187500.02, 179283.92, 0.00, 0.00, 0.00, 0.00, 0.00, 0.00
132, -187500.02, -187500.02, 0.00, -187500.02, 185916.47, 0.00, 0.00, 0.00, 0.00, 0.00, 0.00
133, -187500.02, -187500.02, 0.00, -187500.02, 187500.00, 0.00, 0.00, 0.00, 0.00, 0.00, 0.00
134, -187500.02, -187500.02, 0.00, -187500.02, 185974.64, 0.00, 0.00, 0.00, 0.00, 0.00, 0.00
135, -187500.02, -187500.02, 0.00, -187500.02, 179646.39, 0.00, 0.00, 0.00, 0.00, 0.00, 0.00
136, -187500.02, -187500.02, 0.00, -187500.02, 184742.50, 0.00, 0.00, 0.00, 0.00, 0.00, 0.00
137, -187500.02, -187500.02, 0.00, -187500.02, 187500.00, 0.00, 0.00, 0.00, 0.00, 0.00, 0.00
138, -187500.02, -187500.02, 0.00, -187500.02, 187500.00, 0.00, 0.00, 0.00, 0.00, 0.00, 0.00
139, -187500.02, -187500.02, 0.00, -187500.02, 180287.17, 0.00, 0.00, 0.00, 0.00, 0.00, 0.00
140, -187500.02, -187500.02, 0.00, -187500.02, 183252.53, 0.00, 0.00, 0.00, 0.00, 0.00, 0.00
141, -187500.02, -187500.02, 0.00, -187500.02, 187500.00, 0.00, 0.00, 0.00, 0.00, 0.00, 0.00
142, -187500.02, -187500.02, 0.00, -187500.02, 187500.00, 0.00, 0.00, 0.00, 0.00, 0.00, 0.00
143, -187500.02, -187500.02, 0.00, -187500.02, 180942.14, 0.00, 0.00, 0.00, 0.00, 0.00, 0.00
144, -187500.02, -187500.02, 0.00, -187500.02, 181659.73, 0.00, 0.00, 0.00, 0.00, 0.00, 0.00
145, -187500.02, -187500.02, 0.00, -187500.02, 187500.00, 0.00, 0.00, 0.00, 0.00, 0.00, 0.00
146, -187500.02, -187500.02, 0.00, -187500.02, 187500.00, 0.00, 0.00, 0.00, 0.00, 0.00, 0.00
147, -187500.02, -187500.02, 0.00, -187500.02, 181912.81, 0.00, 0.00, 0.00, 0.00, 0.00, 0.00
148, -187500.02, -187500.02, 0.00, -187500.02, 180411.09, 0.00, 0.00, 0.00, 0.00, 0.00, 0.00
149, -187500.02, -187500.02, 0.00, -187500.02, 187500.00, 0.00, 0.00, 0.00, 0.00, 0.00, 0.00
150, -187500.02, -187500.02, 0.00, -187500.02, 187500.00, 0.00, 0.00, 0.00, 0.00, 0.00, 0.00
151, -187500.02, -187500.02, 0.00, -187500.02, 183179.48, 0.00, 0.00, 0.00, 0.00, 0.00, 0.00
152, -187500.02, -187500.02, 0.00, -187500.02, 179478.22, 0.00, 0.00, 0.00, 0.00, 0.00, 0.00
153, -187500.02, -187500.02, 0.00, -187500.02, 186723.36, 0.00, 0.00, 0.00, 0.00, 0.00, 0.00
154, -187500.02, -187500.02, 0.00, -187500.02, 187500.00, 0.00, 0.00, 0.00, 0.00, 0.00, 0.00
155, -187500.02, -187500.02, 0.00, -187500.02, 184622.14, 0.00, 0.00, 0.00, 0.00, 0.00, 0.00
156, -187500.02, -187500.02, 0.00, -187500.02, 179009.73, 0.00, 0.00, 0.00, 0.00, 0.00, 0.00
157, -187500.02, -187500.02, 0.00, -187500.02, 184869.80, 0.00, 0.00, 0.00, 0.00, 0.00, 0.00
158, -187500.02, -187500.02, 0.00, -187500.02, 187500.00, 0.00, 0.00, 0.00, 0.00, 0.00, 0.00
159, -187500.02, -187500.02, 0.00, -187500.02, 186401.06, 0.00, 0.00, 0.00, 0.00, 0.00, 0.00
160, -187500.02, -187500.02, 0.00, -187500.02, 179458.03, 0.00, 0.00, 0.00, 0.00, 0.00, 0.00
161, -187500.02, -187500.02, 0.00, -187500.02, 183684.55, 0.00, 0.00, 0.00, 0.00, 0.00, 0.00
162, -187500.02, -187500.02, 0.00, -187500.02, 187500.00, 0.00, 0.00, 0.00, 0.00, 0.00, 0.00
163, -187500.02, -187500.02, 0.00, -187500.02, 187500.00, 0.00, 0.00, 0.00, 0.00, 0.00, 0.00
164, -187500.02, -187500.02, 0.00, -187500.02, 180422.25, 0.00, 0.00, 0.00, 0.00, 0.00, 0.00
165, -187500.02, -187500.02, 0.00, -187500.02, 182671.45, 0.00, 0.00, 0.00, 0.00, 0.00, 0.00
166, -187500.02, -187500.02, 0.00, -187500.02, 187500.00, 0.00, 0.00, 0.00, 0.00, 0.00, 0.00
167, -187500.02, -187500.02, 0.00, -187500.02, 187500.00, 0.00, 0.00, 0.00, 0.00, 0.00, 0.00
168, -187500.02, -187500.02, 0.00, -187500.02, 181735.14, 0.00, 0.00, 0.00, 0.00, 0.00, 0.00
169, -187500.02, -187500.02, 0.00, -187500.02, 181537.67, 0.00, 0.00, 0.00, 0.00, 0.00, 0.00
170, -187500.02, -187500.02, 0.00, -187500.02, 187500.00, 0.00, 0.00, 0.00, 0.00, 0.00, 0.00
171, -187500.02, -187500.02, 0.00, -187500.02, 187500.00, 0.00, 0.00, 0.00, 0.00, 0.00, 0.00
172, -187500.02, -187500.02, 0.00, -187500.02, 182778.80, 0.00, 0.00, 0.00, 0.00, 0.00, 0.00
173, -187500.02, -187500.02, 0.00, -187500.02, 180355.19, 0.00, 0.00, 0.00, 0.00, 0.00, 0.00
174, -187500.02, -187500.02, 0.00, -187500.02, 187500.00, 0.00, 0.00, 0.00, 0.00, 0.00, 0.00
175, -187500.02, -187500.02, 0.00, -187500.02, 187500.00, 0.00, 0.00, 0.00, 0.00, 0.00, 0.00
176, -187500.02, -187500.02, 0.00, -187500.02, 184154.47, 0.00, 0.00, 0.00, 0.00, 0.00, 0.00
177, -187500.02, -187500.02, 0.00, -187500.02, 179555.31, 0.00, 0.00, 0.00, 0.00, 0.00, 0.00
178, -187500.02, -187500.02, 0.00, -187500.02, 186195.19, 0.00, 0.00, 0.00, 0.00, 0.00, 0.00
179, -187500.02, -187500.02, 0.00, -187500.02, 187500.00, 0.00, 0.00, 0.00, 0.00, 0.00, 0.00
180, -187500.02, -187500.02, 0.00, -187500.02, 185550.94, 0.00, 0.00, 0.00, 0.00, 0.00, 0.00
181, -187500.02, -187500.02, 0.00, -187500.02, 179252.89, 0.00, 0.00, 0.00, 0.00, 0.00, 0.00
182, -187500.02, -187500.02, 0.00, -187500.02, 184355.89, 0.00, 0.00, 0.00, 0.00, 0.00, 0.00
183, -187500.02, -187500.02, 0.00, -187500.02, 187500.00, 0.00, 0.00, 0.00, 0.00, 0.00, 0.00
184, -187500.02, -187500.02, 0.00, -187500.02, 186936.86, 0.00, 0.00, 0.00, 0.00, 0.00, 0.00
185, -187500.02, -187500.02, 0.00, -187500.02, 179356.84, 0.00, 0.00, 0.00, 0.00, 0.00, 0.00
186, -187500.02, -187500.02, 0.00, -187500.02, 182576.73, 0.00, 0.00, 0.00, 0.00, 0.00, 0.00
187, -187500.02, -187500.02, 0.00, -187500.02, 187500.00, 0.00, 0.00, 0.00, 0.00, 0.00, 0.00
188, -187500.02, -187500.02, 0.00, -187500.02, 187500.00, 0.00, 0.00, 0.00, 0.00, 0.00, 0.00
189, -187500.02, -187500.02, 0.00, -187500.02, 180408.83, 0.00, 0.00, 0.00, 0.00, 0.00, 0.00
190, -187500.02, -187500.02, 0.00, -187500.02, 181645.53, 0.00, 0.00, 0.00, 0.00, 0.00, 0.00
191, -187500.02, -187500.02, 0.00, -187500.02, 187500.00, 0.00, 0.00, 0.00, 0.00, 0.00, 0.00
192, -187500.02, -187500.02, 0.00, -187500.02, 187500.00, 0.00, 0.00, 0.00, 0.00, 0.00, 0.00
193, -187500.02, -187500.02, 0.00, -187500.02, 182020.84, 0.00, 0.00, 0.00, 0.00, 0.00, 0.00
194, -187500.02, -187500.02, 0.00, -187500.02, 180923.63, 0.00, 0.00, 0.00, 0.00, 0.00, 0.00
195, -187500.02, -187500.02, 0.00, -187500.02, 187500.00, 0.00, 0.00, 0.00, 0.00, 0.00, 0.00
196, -187500.02, -187500.02, 0.00, -187500.02, 187500.00, 0.00, 0.00, 0.00, 0.00, 0.00, 0.00
197, -187500.02, -187500.02, 0.00, -187500.02, 183632.27, 0.00, 0.00, 0.00, 0.00, 0.00, 0.00
198, -187500.02, -187500.02, 0.00, -187500.02, 180167.95, 0.00, 0.00, 0.00, 0.00, 0.00, 0.00
199, -187500.02, -187500.02, 0.00, -187500.02, 187394.88, 0.00, 0.00, 0.00, 0.00, 0.00, 0.00
200, -187500.02, -187500.02, 0.00, -187500.02, 187500.00, 0.00, 0.00, 0.00, 0.00, 0.00, 0.00
201, -187500.02, -187500.02, 0.00, -187500.02, 184964.61, 0.00, 0.00, 0.00, 0.00, 0.00, 0.00
202, -187500.02, -187500.02, 0.00, -187500.02, 179484.08, 0.00, 0.00, 0.00, 0.00, 0.00, 0.00
203, -187500.02, -187500.02, 0.00, -187500.02, 185415.22, 0.00, 0.00, 0.00, 0.00, 0.00, 0.00
204, -187500.02, -187500.02, 0.00, -187500.02, 187500.00, 0.00, 0.00, 0.00, 0.00, 0.00, 0.00
205, -187500.02, -187500.02, 0.00, -187500.02, 186221.45, 0.00, 0.00, 0.00, 0.00, 0.00, 0.00
206, -187500.02, -187500.02, 0.00, -187500.02, 179266.89, 0.00, 0.00, 0.00, 0.00, 0.00, 0.00
207, -187500.02, -187500.02, 0.00, -187500.02, 183649.75, 0.00, 0.00, 0.00, 0.00, 0.00, 0.00
208, -187500.02, -187500.02, 0.00, -187500.02, 187500.00, 0.00, 0.00, 0.00, 0.00, 0.00, 0.00
209, -187500.02, -187500.02, 0.00, -187500.02, 187500.00, 0.00, 0.00, 0.00, 0.00, 0.00, 0.00
210, -187500.02, -187500.02, 0.00, -187500.02, 179517.83, 0.00, 0.00, 0.00, 0.00, 0.00, 0.00
211, -187500.02, -187500.02, 0.00, -187500.02, 181878.89, 0.00, 0.00, 0.00, 0.00, 0.00, 0.00
212, -187500.02, -187500.02, 0.00, -187500.02, 187500.00, 0.00, 0.00, 0.00, 0.00, 0.00, 0.00
213, -187500.02, -187500.02, 0.00, -187500.02, 187500.00, 0.00, 0.00, 0.00, 0.00, 0.00, 0.00
214, -187500.02, -187500.02, 0.00, -187500.02, 180284.45, 0.00, 0.00, 0.00, 0.00, 0.00, 0.00
215, -187500.02, -187500.02, 0.00, -187500.02, 180339.17, 0.00, 0.00, 0.00, 0.00, 0.00, 0.00
216, -187500.02, -187500.02, 0.00, -187500.02, 187500.00, 0.00, 0.00, 0.00, 0.00, 0.00, 0.00
217, -187500.02, -187500.02, 0.00, -187500.02, 187500.00, 0.00, 0.00, 0.00, 0.00, 0.00, 0.00
218, -187500.02, -187500.02, 0.00, -187500.02, 181784.78, 0.00, 0.00, 0.00, 0.00, 0.00, 0.00
219, -187500.02, -187500.02, 0.00, -187500.02, 179781.33, 0.00, 0.00, 0.00, 0.00, 0.00, 0.00
220, -187500.02, -187500.02, 0.00, -187500.02, 187500.00, 0.00, 0.00, 0.00, 0.00, 0.00, 0.00
221, -187500.02, -187500.02, 0.00, -187500.02, 187500.00, 0.00, 0.00, 0.00, 0.00, 0.00, 0.00
222, -187500.02, -187500.02, 0.00, -187500.02, 183770.73, 0.00, 0.00, 0.00, 0.00, 0.00, 0.00
223, -187500.02, -187500.02, 0.00, -187500.02, 179577.81, 0.00, 0.00, 0.00, 0.00, 0.00, 0.00
224, -187500.02, -187500.02, 0.00, -187500.02, 186495.38, 0.00, 0.00, 0.00, 0.00, 0.00, 0.00
225, -187500.02, -187500.02, 0.00, -187500.02, 187500.00, 0.00, 0.00, 0.00, 0.00, 0.00, 0.00
226, -187500.02, -187500.02, 0.00, -187500.02, 185772.00, 0.00, 0.00, 0.00, 0.00, 0.00, 0.00
227, -187500.02, -187500.02, 0.00, -187500.02, 179680.61, 0.00, 0.00, 0.00, 0.00, 0.00, 0.00
228, -187500.02, -187500.02, 0.00, -187500.02, 184931.38, 0.00, 0.00, 0.00, 0.00, 0.00, 0.00
229, -187500.02, -187500.02, 0.00, -187500.02, 187500.00, 0.00, 0.00, 0.00, 0.00, 0.00, 0.00
230, -187500.02, -187500.02, 0.00, -187500.02, 187119.48, 0.00, 0.00, 0.00, 0.00, 0.00, 0.00
231, -187500.02, -187500.02, 0.00, -187500.02, 179646.34, 0.00, 0.00, 0.00, 0.00, 0.00, 0.00
232, -187500.02, -187500.02, 0.00, -187500.02, 183000.16, 0.00, 0.00, 0.00, 0.00, 0.00, 0.00
233, -187500.02, -187500.02, 0.00, -187500.02, 187500.00, 0.00, 0.00, 0.00, 0.00, 0.00, 0.00
234, -187500.02, -187500.02, 0.00, -187500.02, 187500.00, 0.00, 0.00, 0.00, 0.00, 0.00, 0.00
235, -187500.02, -187500.02, 0.00, -187500.02, 180145.63, 0.00, 0.00, 0.00, 0.00, 0.00, 0.00
236, -187500.02, -187500.02, 0.00, -187500.02, 181415.77, 0.00, 0.00, 0.00, 0.00, 0.00, 0.00
237, -187500.02, -187500.02, 0.00, -187500.02, 187500.00, 0.00, 0.00, 0.00, 0.00, 0.00, 0.00
238, -187500.02, -187500.02, 0.00, -187500.02, 187500.00, 0.00, 0.00, 0.00, 0.00, 0.00, 0.00
239, -187500.02, -187500.02, 0.00, -187500.02, 181151.56, 0.00, 0.00, 0.00, 0.00, 0.00, 0.00
240, -187500.02, -187500.02, 0.00, -187500.02, 180071.48, 0.00, 0.00, 0.00, 0.00, 0.00, 0.00
241, -187500.02, -187500.02, 0.00, -187500.02, 187500.00, 0.00, 0.00, 0.00, 0.00, 0.00, 0.00
242, -187500.02, -187500.02, 0.00, -187500.02, 187500.00, 0.00, 0.00, 0.00, 0.00, 0.00, 0.00
243, -187500.02, -187500.02, 0.00, -187500.02, 182451.42, 0.00, 0.00, 0.00, 0.00, 0.00, 0.00
244, -187500.02, -187500.02, 0.00, -187500.02, 179027.47, 0.00, 0.00, 0.00, 0.00, 0.00, 0.00
245, -187500.02, -187500.02, 0.00, -187500.02, 186367.28, 0.00, 0.00, 0.00, 0.00, 0.00, 0.00
246, -187500.02, -187500.02, 0.00, -187500.02, 187500.00, 0.00, 0.00, 0.00, 0.00, 0.00, 0.00
247, -187500.02, -187500.02, 0.00, -187500.02, 184167.03, 0.00, 0.00, 0.00, 0.00, 0.00, 0.00
248, -187500.02, -187500.02, 0.00, -187500.02, 179005.25, 0.00, 0.00, 0.00, 0.00, 0.00, 0.00
249, -187500.02, -187500.02, 0.00, -187500.02, 185185.52, 0.00, 0.00, 0.00, 0.00, 0.00, 0.00
250, -187500.02, -187500.02, 0.00, -187500.02, 187500.00, 0.00, 0.00, 0.00, 0.00, 0.00, 0.00
251, -187500.02, -187500.02, 0.00, -187500.02, 186239.75, 0.00, 0.00, 0.00, 0.00, 0.00, 0.00
252, -187500.02, -187500.02, 0.00, -187500.02, 179460.27, 0.00, 0.00, 0.00, 0.00, 0.00, 0.00
253, -187500.02, -187500.02, 0.00, -187500.02, 184089.45, 0.00, 0.00, 0.00, 0.00, 0.00, 0.00
254, -187500.02, -187500.02, 0.00, -187500.02, 187500.00, 0.00, 0.00, 0.00, 0.00, 0.00, 0.00
255, -187500.02, -187500.02, 0.00, -187500.02, 187500.00, 0.00, 0.00, 0.00, 0.00, 0.00, 0.00
0, -187500.02, -187500.02, 0.00, -187500.02, 180213.39, 0.00, 0.00, 0.00, 0.00, 0.00, 0.00
1, -187500.02, -187500.02, 0.00, -187500.02, 182540.08, 0.00, 0.00, 0.00, 0.00, 0.00, 0.00
2, -187500.02, -187500.02, 0.00, -187500.02, 187500.00, 0.00, 0.00, 0.00, 0.00, 0.00, 0.00
3, -187500.02, -187500.02, 0.00, -187500.02, 187500.00, 0.00, 0.00, 0.00, 0.00, 0.00, 0.00
4, -187500.02, -187500.02, 0.00, -187500.02, 180874.80, 0.00, 0.00, 0.00, 0.00, 0.00, 0.00
5, -187500.02, -187500.02, 0.00, -187500.02, 180911.39, 0.00, 0.00, 0.00, 0.00, 0.00, 0.00
6, -187500.02, -187500.02, 0.00, -187500.02, 187500.00, 0.00, 0.00, 0.00, 0.00, 0.00, 0.00
7, -187500.02, -187500.02, 0.00, -187500.02, 187500.00, 0.00, 0.00, 0.00, 0.00, 0.00, 0.00
8, -187500.02, -187500.02, 0.00, -187500.02, 182027.27, 0.00, 0.00, 0.00, 0.00, 0.00, 0.00
9, -187500.02, -187500.02, 0.00, -187500.02, 179765.22, 0.00, 0.00, 0.00, 0.00, 0.00, 0.00
10, -187500.02, -187500.02, 0.00, -187500.02, 187478.11, 0.00, 0.00, 0.00, 0.00, 0.00, 0.00
11, -187500.02, -187500.02, 0.00, -187500.02, 187500.00, 0.00, 0.00, 0.00, 0.00, 0.00, 0.00
12, -187500.02, -187500.02, 0.00, -187500.02, 183344.27, 0.00, 0.00, 0.00, 0.00, 0.00, 0.00
13, -187500.02, -187500.02, 0.00, -187500.02, 178915.61, 0.00, 0.00, 0.00, 0.00, 0.00, 0.00
14, -187500.02, -187500.02, 0.00, -187500.02, 185736.33, 0.00, 0.00, 0.00, 0.00, 0.00, 0.00
15, -187500.02, -187500.02, 0.00, -187500.02, 187500.00, 0.00, 0.00, 0.00, 0.00, 0.00, 0.00
16, -187500.02, -187500.02, 0.00, -187500.02, 184756.00, 0.00, 0.00, 0.00, 0.00, 0.00, 0.00
17, -187500.02, -187500.02, 0.00, -187500.02, 178605.31, 0.00, 0.00, 0.00, 0.00, 0.00, 0.00
18, -187500.02, -187500.02, 0.00, -187500.02, 183999.36, 0.00, 0.00, 0.00, 0.00, 0.00, 0.00
19, -187500.02, -187500.02, 0.00, -187500.02, 187500.00, 0.00, 0.00, 0.00, 0.00, 0.00, 0.00
20, -187500.02, -187500.02, 0.00, -187500.02, 186518.31, 0.00, 0.00, 0.00, 0.00, 0.00, 0.00
21, -187500.02, -187500.02, 0.00, -187500.02, 179127.09, 0.00, 0.00, 0.00, 0.00, 0.00, 0.00
22, -187500.02, -187500.02, 0.00, -187500.02, 182812.75, 0.00, 0.00, 0.00, 0.00, 0.00, 0.00
23, -187500.02, -187500.02, 0.00, -187500.02, 187500.00, 0.00, 0.00, 0.00, 0.00, 0.00, 0.00
24, -187500.02, -187500.02, 0.00, -187500.02, 187500.00, 0.00, 0.00, 0.00, 0.00, 0.00, 0.00
25, -187500.02, -187500.02, 0.00, -187500.02, 180300.00, 0.00, 0.00, 0.00, 0.00, 0.00, 0.00
26, -187500.02, -187500.02, 0.00, -187500.02, 181772.38, 0.00, 0.00, 0.00, 0.00, 0.00, 0.00
27, -187500.02, -187500.02, 0.00, -187500.02, 187500.00, 0.00, 0.00, 0.00, 0.00, 0.00, 0.00
28, -187500.02, -187500.02, 0.00, -187500.02, 187500.00, 0.00, 0.00, 0.00, 0.00, 0.00, 0.00
29, -187500.02, -187500.02, 0.00, -187500.02, 181741.89, 0.00, 0.00, 0.00, 0.00, 0.00, 0.00
30, -187500.02, -187500.02, 0.00, -187500.02, 180770.31, 0.00, 0.00, 0.00, 0.00, 0.00, 0.00
31, -187500.02, -187500.02, 0.00, -187500.02, 187500.00, 0.00, 0.00, 0.00, 0.00, 0.00, 0.00
32, -187500.02, -187500.02, 0.00, -187500.02, 187500.00, 0.00, 0.00, 0.00, 0.00, 0.00, 0.00
33, -187500.02, -187500.02, 0.00, -187500.02, 182811.20, 0.00, 0.00, 0.00, 0.00, 0.00, 0.00
34, -187500.02, -187500.02, 0.00, -187500.02, 179594.81, 0.00, 0.00, 0.00, 0.00, 0.00, 0.00
35, -187500.02, -187500.02, 0.00, -187500.02, 187057.23, 0.00, 0.00, 0.00, 0.00, 0.00, 0.00
36, -187500.02, -187500.02, 0.00, -187500.02, 187500.00, 0.00, 0.00, 0.00, 0.00, 0.00, 0.00
37, -187500.02, -187500.02, 0.00, -187500.02, 184244.19, 0.00, 0.00, 0.00, 0.00, 0.00, 0.00
38, -187500.02, -187500.02, 0.00, -187500.02, 178987.48, 0.00, 0.00, 0.00, 0.00, 0.00, 0.00
39, -187500.02, -187500.02, 0.00, -187500.02, 185274.97, 0.00, 0.00, 0.00, 0.00, 0.00, 0.00
40, -187500.02, -187500.02, 0.00, -187500.02, 187500.00, 0.00, 0.00, 0.00, 0.00, 0.00, 0.00
41, -187500.02, -187500.02, 0.00, -187500.02, 185527.39, 0.00, 0.00, 0.00, 0.00, 0.00, 0.00
42, -187500.02, -187500.02, 0.00, -187500.02, 178689.06, 0.00, 0.00, 0.00, 0.00, 0.00, 0.00
43, -187500.02, -187500.02, 0.00, -187500.02, 183290.41, 0.00, 0.00, 0.00, 0.00, 0.00, 0.00
44, -187500.02, -187500.02, 0.00, -187500.02, 187500.00, 0.00, 0.00, 0.00, 0.00, 0.00, 0.00
45, -187500.02, -187500.02, 0.00, -187500.02, 186847.97, 0.00, 0.00, 0.00, 0.00, 0.00, 0.00
46, -187500.02, -187500.02, 0.00, -187500.02, 178934.77, 0.00, 0.00, 0.00, 0.00, 0.00, 0.00
47, -187500.02, -187500.02, 0.00, -187500.02, 181504.09, 0.00, 0.00, 0.00, 0.00, 0.00, 0.00
48, -187500.02, -187500.02, 0.00, -187500.02, 187500.00, 0.00, 0.00, 0.00, 0.00, 0.00, 0.00
49, -187500.02, -187500.02, 0.00, -187500.02, 187500.00, 0.00, 0.00, 0.00, 0.00, 0.00, 0.00
50, -187500.02, -187500.02, 0.00, -187500.02, 180119.02, 0.00, 0.00, 0.00, 0.00, 0.00, 0.00
51, -187500.02, -187500.02, 0.00, -187500.02, 180676.39, 0.00, 0.00, 0.00, 0.00, 0.00, 0.00
52, -187500.02, -187500.02, 0.00, -187500.02, 187500.00, 0.00, 0.00, 0.00, 0.00, 0.00, 0.00
53, -187500.02, -187500.02, 0.00, -187500.02, 187500.00, 0.00, 0.00, 0.00, 0.00, 0.00, 0.00
54, -187500.02, -187500.02, 0.00, -187500.02, 181811.56, 0.00, 0.00, 0.00, 0.00, 0.00, 0.00
55, -187500.02, -187500.02, 0.00, -187500.02, 180016.05, 0.00, 0.00, 0.00, 0.00, 0.00, 0.00
56, -187500.02, -187500.02, 0.00, -187500.02, 187500.00, 0.00, 0.00, 0.00, 0.00, 0.00, 0.00
57, -187500.02, -187500.02, 0.00, -187500.02, 187500.00, 0.00, 0.00, 0.00, 0.00, 0.00, 0.00
58, -187500.02, -187500.02, 0.00, -187500.02, 183728.94, 0.00, 0.00, 0.00, 0.00, 0.00, 0.00
59, -187500.02, -187500.02, 0.00, -187500.02, 179585.02, 0.00, 0.00, 0.00, 0.00, 0.00, 0.00
60, -187500.02, -187500.02, 0.00, -187500.02, 186508.78, 0.00, 0.00, 0.00, 0.00, 0.00, 0.00
61, -187500.02, -187500.02, 0.00, -187500.02, 187500.00, 0.00, 0.00, 0.00, 0.00, 0.00, 0.00
62, -187500.02, -187500.02, 0.00, -187500.02, 185074.97, 0.00, 0.00, 0.00, 0.00, 0.00, 0.00
63, -187500.02, -187500.02, 0.00, -187500.02, 179065.55, 0.00, 0.00, 0.00, 0.00, 0.00, 0.00
64, -187500.02, -187500.02, 0.00, -187500.02, 184618.98, 0.00, 0.00, 0.00, 0.00, 0.00, 0.00
65, -187500.02, -187500.02, 0.00, -187500.02, 187500.00, 0.00, 0.00, 0.00, 0.00, 0.00, 0.00
66, -187500.02, -187500.02, 0.00, -187500.02, 186401.22, 0.00, 0.00, 0.00, 0.00, 0.00, 0.00
67, -187500.02, -187500.02, 0.00, -187500.02, 179050.78, 0.00, 0.00, 0.00, 0.00, 0.00, 0.00
68, -187500.02, -187500.02, 0.00, -187500.02, 182747.19, 0.00, 0.00, 0.00, 0.00, 0.00, 0.00
69, -187500.02, -187500.02, 0.00, -187500.02, 187500.00, 0.00, 0.00, 0.00, 0.00, 0.00, 0.00
70, -187500.02, -187500.02, 0.00, -187500.02, 187500.00, 0.00, 0.00, 0.00, 0.00, 0.00, 0.00
71, -187500.02, -187500.02, 0.00, -187500.02, 179259.39, 0.00, 0.00, 0.00, 0.00, 0.00, 0.00
72, -187500.02, -187500.02, 0.00, -187500.02, 180922.23, 0.00, 0.00, 0.00, 0.00, 0.00, 0.00
73, -187500.02, -187500.02, 0.00, -187500.02, 187500.00, 0.00, 0.00, 0.00, 0.00, 0.00, 0.00
74, -187500.02, -187500.02, 0.00, -187500.02, 187500.00, 0.00, 0.00, 0.00, 0.00, 0.00, 0.00
75, -187500.02, -187500.02, 0.00, -187500.02, 180193.64, 0.00, 0.00, 0.00, 0.00, 0.00, 0.00
76, -187500.02, -187500.02, 0.00, -187500.02, 179396.23, 0.00, 0.00, 0.00, 0.00, 0.00, 0.00
77, -187500.02, -187500.02, 0.00, -187500.02, 187500.00, 0.00, 0.00, 0.00, 0.00, 0.00, 0.00
78, -187500.02, -187500.02, 0.00, -187500.02, 187500.00, 0.00, 0.00, 0.00, 0.00, 0.00, 0.00
79, -187500.02, -187500.02, 0.00, -187500.02, 181795.41, 0.00, 0.00, 0.00, 0.00, 0.00, 0.00
80, -187500.02, -187500.02, 0.00, -187500.02, 178985.09, 0.00, 0.00, 0.00, 0.00, 0.00, 0.00
81, -187500.02, -187500.02, 0.00, -187500.02, 186715.67, 0.00, 0.00, 0.00, 0.00, 0.00, 0.00
82, -187500.02, -187500.02, 0.00, -187500.02, 187500.00, 0.00, 0.00, 0.00, 0.00, 0.00, 0.00
83, -187500.02, -187500.02, 0.00, -187500.02, 183837.42, 0.00, 0.00, 0.00, 0.00, 0.00, 0.00
84, -187500.02, -187500.02, 0.00, -187500.02, 179033.95, 0.00, 0.00, 0.00, 0.00, 0.00, 0.00
85, -187500.02, -187500.02, 0.00, -187500.02, 185583.73, 0.00, 0.00, 0.00, 0.00, 0.00, 0.00
86, -187500.02, -187500.02, 0.00, -187500.02, 187500.00, 0.00, 0.00, 0.00, 0.00, 0.00, 0.00
87, -187500.02, -187500.02, 0.00, -187500.02, 185743.53, 0.00, 0.00, 0.00, 0.00, 0.00, 0.00
88, -187500.02, -187500.02, 0.00, -187500.02, 179130.66, 0.00, 0.00, 0.00, 0.00, 0.00, 0.00
89, -187500.02, -187500.02, 0.00, -187500.02, 183924.97, 0.00, 0.00, 0.00, 0.00, 0.00, 0.00
90, -187500.02, -187500.02, 0.00, -187500.02, 187500.00, 0.00, 0.00, 0.00, 0.00, 0.00, 0.00
91, -187500.02, -187500.02, 0.00, -187500.02, 187096.70, 0.00, 0.00, 0.00, 0.00, 0.00, 0.00
92, -187500.02, -187500.02, 0.00, -187500.02, 179217.88, 0.00, 0.00, 0.00, 0.00, 0.00, 0.00
93, -187500.02, -187500.02, 0.00, -187500.02, 182050.66, 0.00, 0.00, 0.00, 0.00, 0.00, 0.00
94, -187500.02, -187500.02, 0.00, -187500.02, 187500.00, 0.00, 0.00, 0.00, 0.00, 0.00, 0.00
95, -187500.02, -187500.02, 0.00, -187500.02, 187500.00, 0.00, 0.00, 0.00, 0.00, 0.00, 0.00
96, -187500.02, -187500.02, 0.00, -187500.02, 179761.31, 0.00, 0.00, 0.00, 0.00, 0.00, 0.00
97, -187500.02, -187500.02, 0.00, -187500.02, 180345.41, 0.00, 0.00, 0.00, 0.00, 0.00, 0.00
98, -187500.02, -187500.02, 0.00, -187500.02, 187500.00, 0.00, 0.00, 0.00, 0.00, 0.00, 0.00
99, -187500.02, -187500.02, 0.00, -187500.02, 187500.00, 0.00, 0.00, 0.00, 0.00, 0.00, 0.00
100, -187500.02, -187500.02, 0.00, -187500.02, 180733.09, 0.00, 0.00, 0.00, 0.00, 0.00, 0.00
101, -187500.02, -187500.02, 0.00, -187500.02, 179027.98, 0.00, 0.00, 0.00, 0.00, 0.00, 0.00
102, -187500.02, -187500.02, 0.00, -187500.02, 186987.78, 0.00, 0.00, 0.00, 0.00, 0.00, 0.00
103, -187500.02, -187500.02, 0.00, -187500.02, 187500.00, 0.00, 0.00, 0.00, 0.00, 0.00, 0.00
104, -187500.02, -187500.02, 0.00, -187500.02, 182035.94, 0.00, 0.00, 0.00, 0.00, 0.00, 0.00
105, -187500.02, -187500.02, 0.00, -187500.02, 178181.78, 0.00, 0.00, 0.00, 0.00, 0.00, 0.00
106, -187500.02, -187500.02, 0.00, -187500.02, 185388.67, 0.00, 0.00, 0.00, 0.00, 0.00, 0.00
107, -187500.02, -187500.02, 0.00, -187500.02, 187500.00, 0.00, 0.00, 0.00, 0.00, 0.00, 0.00
108, -187500.02, -187500.02, 0.00, -187500.02, 183764.44, 0.00, 0.00, 0.00, 0.00, 0.00, 0.00
109, -187500.02, -187500.02, 0.00, -187500.02, 178104.19, 0.00, 0.00, 0.00, 0.00, 0.00, 0.00
110, -187500.02, -187500.02, 0.00, -187500.02, 184112.30, 0.00, 0.00, 0.00, 0.00, 0.00, 0.00
111, -187500.02, -187500.02, 0.00, -187500.02, 187500.00, 0.00, 0.00, 0.00, 0.00, 0.00, 0.00
112, -187500.02, -187500.02, 0.00, -187500.02, 185880.55, 0.00, 0.00, 0.00, 0.00, 0.00, 0.00
113, -187500.02, -187500.02, 0.00, -187500.02, 178779.28, 0.00, 0.00, 0.00, 0.00, 0.00, 0.00
114, -187500.02, -187500.02, 0.00, -187500.02, 182937.69, 0.00, 0.00, 0.00, 0.00, 0.00, 0.00
115, -187500.02, -187500.02, 0.00, -187500.02, 187500.00, 0.00, 0.00, 0.00, 0.00, 0.00, 0.00
116, -187500.02, -187500.02, 0.00, -187500.02, 187500.00, 0.00, 0.00, 0.00, 0.00, 0.00, 0.00
117, -187500.02, -187500.02, 0.00, -187500.02, 179754.16, 0.00, 0.00, 0.00, 0.00, 0.00, 0.00
118, -187500.02, -187500.02, 0.00, -187500.02, 181613.13, 0.00, 0.00, 0.00, 0.00, 0.00, 0.00
119, -187500.02, -187500.02, 0.00, -187500.02, 187500.00, 0.00, 0.00, 0.00, 0.00, 0.00, 0.00
120, -187500.02, -187500.02, 0.00, -187500.02, 187500.00, 0.00, 0.00, 0.00, 0.00, 0.00, 0.00
121, -187500.02, -187500.02, 0.00, -187500.02, 180441.00, 0.00, 0.00, 0.00, 0.00, 0.00, 0.00
122, -187500.02, -187500.02, 0.00, -187500.02, 180026.06, 0.00, 0.00, 0.00, 0.00, 0.00, 0.00
123, -187500.02, -187500.02, 0.00, -187500.02, 187500.00, 0.00, 0.00, 0.00, 0.00, 0.00, 0.00
124, -187500.02, -187500.02, 0.00, -187500.02, 187500.00, 0.00, 0.00, 0.00, 0.00, 0.00, 0.00
125, -187500.02, -187500.02, 0.00, -187500.02, 181478.92, 0.00, 0.00, 0.00, 0.00, 0.00, 0.00
126, -187500.02, -187500.02, 0.00, -187500.02, 178795.22, 0.00, 0.00, 0.00, 0.00, 0.00, 0.00
127, -187500.02, -187500.02, 0.00, -187500.02, 186516.38, 0.00, 0.00, 0.00, 0.00, 0.00, 0.00
128, -187500.02, -187500.02, 0.00, -187500.02, 187500.00, 0.00, 0.00, 0.00, 0.00, 0.00, 0.00
129, -187500.02, -187500.02, 0.00, -187500.02, 182923.30, 0.00, 0.00, 0.00, 0.00, 0.00, 0.00
130, -187500.02, -187500.02, 0.00, -187500.02, 178134.48, 0.00, 0.00, 0.00, 0.00, 0.00, 0.00
131, -187500.02, -187500.02, 0.00, -187500.02, 184748.88, 0.00, 0.00, 0.00, 0.00, 0.00, 0.00
132, -187500.02, -187500.02, 0.00, -187500.02, 187500.00, 0.00, 0.00, 0.00, 0.00, 0.00, 0.00
133, -187500.02, -187500.02, 0.00, -187500.02, 184337.16, 0.00, 0.00, 0.00, 0.00, 0.00, 0.00
134, -187500.02, -187500.02, 0.00, -187500.02, 177899.89, 0.00, 0.00, 0.00, 0.00, 0.00, 0.00
135, -187500.02, -187500.02, 0.00, -187500.02, 183033.78, 0.00, 0.00, 0.00, 0.00, 0.00, 0.00
136, -187500.02, -187500.02, 0.00, -187500.02, 187500.00, 0.00, 0.00, 0.00, 0.00, 0.00, 0.00
137, -187500.02, -187500.02, 0.00, -187500.02, 186216.42, 0.00, 0.00, 0.00, 0.00, 0.00, 0.00
138, -187500.02, -187500.02, 0.00, -187500.02, 178615.47, 0.00, 0.00, 0.00, 0.00, 0.00, 0.00
139, -187500.02, -187500.02, 0.00, -187500.02, 181924.50, 0.00, 0.00, 0.00, 0.00, 0.00, 0.00
140, -187500.02, -187500.02, 0.00, -187500.02, 187500.00, 0.00, 0.00, 0.00, 0.00, 0.00, 0.00
141, -187500.02, -187500.02, 0.00, -187500.02, 187500.00, 0.00, 0.00, 0.00, 0.00, 0.00, 0.00
142, -187500.02, -187500.02, 0.00, -187500.02, 179878.78, 0.00, 0.00, 0.00, 0.00, 0.00, 0.00
143, -187500.02, -187500.02, 0.00, -187500.02, 180975.16, 0.00, 0.00, 0.00, 0.00, 0.00, 0.00
144, -187500.02, -187500.02, 0.00, -187500.02, 187500.00, 0.00, 0.00, 0.00, 0.00, 0.00, 0.00
145, -187500.02, -187500.02, 0.00, -187500.02, 187500.00, 0.00, 0.00, 0.00, 0.00, 0.00, 0.00
146, -187500.02, -187500.02, 0.00, -187500.02, 181551.61, 0.00, 0.00, 0.00, 0.00, 0.00, 0.00
147, -187500.02, -187500.02, 0.00, -187500.02, 180150.31, 0.00, 0.00, 0.00, 0.00, 0.00, 0.00
148, -187500.02, -187500.02, 0.00, -187500.02, 187500.00, 0.00, 0.00, 0.00, 0.00, 0.00, 0.00
149, -187500.02, -187500.02, 0.00, -187500.02, 187500.00, 0.00, 0.00, 0.00, 0.00, 0.00, 0.00
150, -187500.02, -187500.02, 0.00, -187500.02, 182784.61, 0.00, 0.00, 0.00, 0.00, 0.00, 0.00
151, -187500.02, -187500.02, 0.00, -187500.02, 179182.63, 0.00, 0.00, 0.00, 0.00, 0.00, 0.00
152, -187500.02, -187500.02, 0.00, -187500.02, 186472.11, 0.00, 0.00, 0.00, 0.00, 0.00, 0.00
153, -187500.02, -187500.02, 0.00, -187500.02, 187500.00, 0.00, 0.00, 0.00, 0.00, 0.00, 0.00
154, -187500.02, -187500.02, 0.00, -187500.02, 184211.50, 0.00, 0.00, 0.00, 0.00, 0.00, 0.00
155, -187500.02, -187500.02, 0.00, -187500.02, 178615.11, 0.00, 0.00, 0.00, 0.00, 0.00, 0.00
156, -187500.02, -187500.02, 0.00, -187500.02, 184650.95, 0.00, 0.00, 0.00, 0.00, 0.00, 0.00
157, -187500.02, -187500.02, 0.00, -187500.02, 187500.00, 0.00, 0.00, 0.00, 0.00, 0.00, 0.00
158, -187500.02, -187500.02, 0.00, -187500.02, 185648.98, 0.00, 0.00, 0.00, 0.00, 0.00, 0.00
159, -187500.02, -187500.02, 0.00, -187500.02, 178522.95, 0.00, 0.00, 0.00, 0.00, 0.00, 0.00
160, -187500.02, -187500.02, 0.00, -187500.02, 182805.77, 0.00, 0.00, 0.00, 0.00, 0.00, 0.00
161, -187500.02, -187500.02, 0.00, -187500.02, 187500.00, 0.00, 0.00, 0.00, 0.00, 0.00, 0.00
162, -187500.02, -187500.02, 0.00, -187500.02, 187152.67, 0.00, 0.00, 0.00, 0.00, 0.00, 0.00
163, -187500.02, -187500.02, 0.00, -187500.02, 179021.22, 0.00, 0.00, 0.00, 0.00, 0.00, 0.00
164, -187500.02, -187500.02, 0.00, -187500.02, 181182.55, 0.00, 0.00, 0.00, 0.00, 0.00, 0.00
165, -187500.02, -187500.02, 0.00, -187500.02, 187500.00, 0.00, 0.00, 0.00, 0.00, 0.00, 0.00
166, -187500.02, -187500.02, 0.00, -187500.02, 187500.00, 0.00, 0.00, 0.00, 0.00, 0.00, 0.00
167, -187500.02, -187500.02, 0.00, -187500.02, 180433.06, 0.00, 0.00, 0.00, 0.00, 0.00, 0.00
168, -187500.02, -187500.02, 0.00, -187500.02, 180514.42, 0.00, 0.00, 0.00, 0.00, 0.00, 0.00
169, -187500.02, -187500.02, 0.00, -187500.02, 187500.00, 0.00, 0.00, 0.00, 0.00, 0.00, 0.00
170, -187500.02, -187500.02, 0.00, -187500.02, 187500.00, 0.00, 0.00, 0.00, 0.00, 0.00, 0.00
171, -187500.02, -187500.02, 0.00, -187500.02, 182347.16, 0.00, 0.00, 0.00, 0.00, 0.00, 0.00
172, -187500.02, -187500.02, 0.00, -187500.02, 180060.64, 0.00, 0.00, 0.00, 0.00, 0.00, 0.00
173, -187500.02, -187500.02, 0.00, -187500.02, 187500.00, 0.00, 0.00, 0.00, 0.00, 0.00, 0.00
174, -187500.02, -187500.02, 0.00, -187500.02, 187500.00, 0.00, 0.00, 0.00, 0.00, 0.00, 0.00
175, -187500.02, -187500.02, 0.00, -187500.02, 184019.42, 0.00, 0.00, 0.00, 0.00, 0.00, 0.00
176, -187500.02, -187500.02, 0.00, -187500.02, 179556.27, 0.00, 0.00, 0.00, 0.00, 0.00, 0.00
177, -187500.02, -187500.02, 0.00, -187500.02, 186385.95, 0.00, 0.00, 0.00, 0.00, 0.00, 0.00
178, -187500.02, -187500.02, 0.00, -187500.02, 187500.00, 0.00, 0.00, 0.00, 0.00, 0.00, 0.00
179, -187500.02, -187500.02, 0.00, -187500.02, 185434.61, 0.00, 0.00, 0.00, 0.00, 0.00, 0.00
180, -187500.02, -187500.02, 0.00, -187500.02, 179192.59, 0.00, 0.00, 0.00, 0.00, 0.00, 0.00
181, -187500.02, -187500.02, 0.00, -187500.02, 184561.23, 0.00, 0.00, 0.00, 0.00, 0.00, 0.00
182, -187500.02, -187500.02, 0.00, -187500.02, 187500.00, 0.00, 0.00, 0.00, 0.00, 0.00, 0.00
183, -187500.02, -187500.02, 0.00, -187500.02, 186886.64, 0.00, 0.00, 0.00, 0.00, 0.00, 0.00
184, -187500.02, -187500.02, 0.00, -187500.02, 179304.69, 0.00, 0.00, 0.00, 0.00, 0.00, 0.00
185, -187500.02, -187500.02, 0.00, -187500.02, 182695.33, 0.00, 0.00, 0.00, 0.00, 0.00, 0.00
186, -187500.02, -187500.02, 0.00, -187500.02, 187500.00, 0.00, 0.00, 0.00, 0.00, 0.00, 0.00
187, -187500.02, -187500.02, 0.00, -187500.02, 187500.00, 0.00, 0.00, 0.00, 0.00, 0.00, 0.00
188, -187500.02, -187500.02, 0.00, -187500.02, 179921.50, 0.00, 0.00, 0.00, 0.00, 0.00, 0.00
189, -187500.02, -187500.02, 0.00, -187500.02, 181013.39, 0.00, 0.00, 0.00, 0.00, 0.00, 0.00
190, -187500.02, -187500.02, 0.00, -187500.02, 187500.00, 0.00, 0.00, 0.00, 0.00, 0.00, 0.00
191, -187500.02, -187500.02, 0.00, -187500.02, 187500.00, 0.00, 0.00, 0.00, 0.00, 0.00, 0.00
192, -187500.02, -187500.02, 0.00, -187500.02, 180917.03, 0.00, 0.00, 0.00, 0.00, 0.00, 0.00
193, -187500.02, -187500.02, 0.00, -187500.02, 179853.63, 0.00, 0.00, 0.00, 0.00, 0.00, 0.00
194, -187500.02, -187500.02, 0.00, -187500.02, 187500.00, 0.00, 0.00, 0.00, 0.00, 0.00, 0.00
195, -187500.02, -187500.02, 0.00, -187500.02, 187500.00, 0.00, 0.00, 0.00, 0.00, 0.00, 0.00
196, -187500.02, -187500.02, 0.00, -187500.02, 182721.17, 0.00, 0.00, 0.00, 0.00, 0.00, 0.00
197, -187500.02, -187500.02, 0.00, -187500.02, 179500.22, 0.00, 0.00, 0.00, 0.00, 0.00, 0.00
198, -187500.02, -187500.02, 0.00, -187500.02, 187102.84, 0.00, 0.00, 0.00, 0.00, 0.00, 0.00
199, -187500.02, -187500.02, 0.00, -187500.02, 187500.00, 0.00, 0.00, 0.00, 0.00, 0.00, 0.00
200, -187500.02, -187500.02, 0.00, -187500.02, 184709.16, 0.00, 0.00, 0.00, 0.00, 0.00, 0.00
201, -187500.02, -187500.02, 0.00, -187500.02, 179511.39, 0.00, 0.00, 0.00, 0.00, 0.00, 0.00
202, -187500.02, -187500.02, 0.00, -187500.02, 185931.69, 0.00, 0.00, 0.00, 0.00, 0.00, 0.00
203, -187500.02, -187500.02, 0.00, -187500.02, 187500.00, 0.00, 0.00, 0.00, 0.00, 0.00, 0.00
204, -187500.02, -187500.02, 0.00, -187500.02, 186614.84, 0.00, 0.00, 0.00, 0.00, 0.00, 0.00
205, -187500.02, -187500.02, 0.00, -187500.02, 179693.89, 0.00, 0.00, 0.00, 0.00, 0.00, 0.00
206, -187500.02, -187500.02, 0.00, -187500.02, 184211.92, 0.00, 0.00, 0.00, 0.00, 0.00, 0.00
207, -187500.02, -187500.02, 0.00, -187500.02, 187500.00, 0.00, 0.00, 0.00, 0.00, 0.00, 0.00
208, -187500.02, -187500.02, 0.00, -187500.02, 187500.00, 0.00, 0.00, 0.00, 0.00, 0.00, 0.00
209, -187500.02, -187500.02, 0.00, -187500.02, 179960.23, 0.00, 0.00, 0.00, 0.00, 0.00, 0.00
210, -187500.02, -187500.02, 0.00, -187500.02, 182366.63, 0.00, 0.00, 0.00, 0.00, 0.00, 0.00
211, -187500.02, -187500.02, 0.00, -187500.02, 187500.00, 0.00, 0.00, 0.00, 0.00, 0.00, 0.00
212, -187500.02, -187500.02, 0.00, -187500.02, 187500.00, 0.00, 0.00, 0.00, 0.00, 0.00, 0.00
213, -187500.02, -187500.02, 0.00, -187500.02, 180563.42, 0.00, 0.00, 0.00, 0.00, 0.00, 0.00
214, -187500.02, -187500.02, 0.00, -187500.02, 180736.41, 0.00, 0.00, 0.00, 0.00, 0.00, 0.00
215, -187500.02, -187500.02, 0.00, -187500.02, 187500.00, 0.00, 0.00, 0.00, 0.00, 0.00, 0.00
216, -187500.02, -187500.02, 0.00, -187500.02, 187500.00, 0.00, 0.00, 0.00, 0.00, 0.00, 0.00
217, -187500.02, -187500.02, 0.00, -187500.02, 181664.64, 0.00, 0.00, 0.00, 0.00, 0.00, 0.00
218, -187500.02, -187500.02, 0.00, -187500.02, 179551.53, 0.00, 0.00, 0.00, 0.00, 0.00, 0.00
219, -187500.02, -187500.02, 0.00, -187500.02, 187500.00, 0.00, 0.00, 0.00, 0.00, 0.00, 0.00
220, -187500.02, -187500.02, 0.00, -187500.02, 187500.00, 0.00, 0.00, 0.00, 0.00, 0.00, 0.00
221, -187500.02, -187500.02, 0.00, -187500.02, 183086.08, 0.00, 0.00, 0.00, 0.00, 0.00, 0.00
222, -187500.02, -187500.02, 0.00, -187500.02, 178846.53, 0.00, 0.00, 0.00, 0.00, 0.00, 0.00
223, -187500.02, -187500.02, 0.00, -187500.02, 185888.52, 0.00, 0.00, 0.00, 0.00, 0.00, 0.00
224, -187500.02, -187500.02, 0.00, -187500.02, 187500.00, 0.00, 0.00, 0.00, 0.00, 0.00, 0.00
225, -187500.02, -187500.02, 0.00, -187500.02, 184955.63, 0.00, 0.00, 0.00, 0.00, 0.00, 0.00
226, -187500.02, -187500.02, 0.00, -187500.02, 179098.33, 0.00, 0.00, 0.00, 0.00, 0.00, 0.00
227, -187500.02, -187500.02, 0.00, -187500.02, 184803.28, 0.00, 0.00, 0.00, 0.00, 0.00, 0.00
228, -187500.02, -187500.02, 0.00, -187500.02, 187500.00, 0.00, 0.00, 0.00, 0.00, 0.00, 0.00
229, -187500.02, -187500.02, 0.00, -187500.02, 187067.58, 0.00, 0.00, 0.00, 0.00, 0.00, 0.00
230, -187500.02, -187500.02, 0.00, -187500.02, 179792.13, 0.00, 0.00, 0.00, 0.00, 0.00, 0.00
231, -187500.02, -187500.02, 0.00, -187500.02, 183558.80, 0.00, 0.00, 0.00, 0.00, 0.00, 0.00
232, -187500.02, -187500.02, 0.00, -187500.02, 187500.00, 0.00, 0.00, 0.00, 0.00, 0.00, 0.00
233, -187500.02, -187500.02, 0.00, -187500.02, 187500.00, 0.00, 0.00, 0.00, 0.00, 0.00, 0.00
234, -187500.02, -187500.02, 0.00, -187500.02, 180700.09, 0.00, 0.00, 0.00, 0.00, 0.00, 0.00
235, -187500.02, -187500.02, 0.00, -187500.02, 182213.05, 0.00, 0.00, 0.00, 0.00, 0.00, 0.00
236, -187500.02, -187500.02, 0.00, -187500.02, 187500.00, 0.00, 0.00, 0.00, 0.00, 0.00, 0.00
237, -187500.02, -187500.02, 0.00, -187500.02, 187500.00, 0.00, 0.00, 0.00, 0.00, 0.00, 0.00
238, -187500.02, -187500.02, 0.00, -187500.02, 181515.22, 0.00, 0.00, 0.00, 0.00, 0.00, 0.00
239, -187500.02, -187500.02, 0.00, -187500.02, 180732.05, 0.00, 0.00, 0.00, 0.00, 0.00, 0.00
240, -187500.02, -187500.02, 0.00, -187500.02, 187500.00, 0.00, 0.00, 0.00, 0.00, 0.00, 0.00
241, -187500.02, -187500.02, 0.00, -187500.02, 187500.00, 0.00, 0.00, 0.00, 0.00, 0.00, 0.00
242, -187500.02, -187500.02, 0.00, -187500.02, 182732.92, 0.00, 0.00, 0.00, 0.00, 0.00, 0.00
243, -187500.02, -187500.02, 0.00, -187500.02, 179700.63, 0.00, 0.00, 0.00, 0.00, 0.00, 0.00
244, -187500.02, -187500.02, 0.00, -187500.02, 187261.52, 0.00, 0.00, 0.00, 0.00, 0.00, 0.00
245, -187500.02, -187500.02, 0.00, -187500.02, 187500.00, 0.00, 0.00, 0.00, 0.00, 0.00, 0.00
246, -187500.02, -187500.02, 0.00, -187500.02, 184245.95, 0.00, 0.00, 0.00, 0.00, 0.00, 0.00
247, -187500.02, -187500.02, 0.00, -187500.02, 179079.53, 0.00, 0.00, 0.00, 0.00, 0.00, 0.00
248, -187500.02, -187500.02, 0.00, -187500.02, 185518.05, 0.00, 0.00, 0.00, 0.00, 0.00, 0.00
249, -187500.02, -187500.02, 0.00, -187500.02, 187500.00, 0.00, 0.00, 0.00, 0.00, 0.00, 0.00
250, -187500.02, -187500.02, 0.00, -187500.02, 185706.98, 0.00, 0.00, 0.00, 0.00, 0.00, 0.00
251, -187500.02, -187500.02, 0.00, -187500.02, 178939.64, 0.00, 0.00, 0.00, 0.00, 0.00, 0.00
252, -187500.02, -187500.02, 0.00, -187500.02, 183679.44, 0.00, 0.00, 0.00, 0.00, 0.00, 0.00
253, -187500.02, -187500.02, 0.00, -187500.02, 187500.00, 0.00, 0.00, 0.00, 0.00, 0.00, 0.00
254, -187500.02, -187500.02, 0.00, -187500.02, 187434.25, 0.00, 0.00, 0.00, 0.00, 0.00, 0.00
255, -187500.02, -187500.02, 0.00, -187500.02, 179724.78, 0.00, 0.00, 0.00, 0.00, 0.00, 0.00
0, -187500.02, -187500.02, 0.00, -187500.02, 182683.95, 0.00, 0.00, 0.00, 0.00, 0.00, 0.00
1, -187500.02, -187500.02, 0.00, -187500.02, 187500.00, 0.00, 0.00, 0.00, 0.00, 0.00, 0.00
2, -187500.02, -187500.02, 0.00, -187500.02, 187500.00, 0.00, 0.00, 0.00, 0.00, 0.00, 0.00
3, -187500.02, -187500.02, 0.00, -187500.02, 181123.48, 0.00, 0.00, 0.00, 0.00, 0.00, 0.00
4, -187500.02, -187500.02, 0.00, -187500.02, 181733.27, 0.00, 0.00, 0.00, 0.00, 0.00, 0.00
5, -187500.02, -187500.02, 0.00, -187500.02, 187500.00, 0.00, 0.00, 0.00, 0.00, 0.00, 0.00
6, -187500.02, -187500.02, 0.00, -187500.02, 187500.00, 0.00, 0.00, 0.00, 0.00, 0.00, 0.00
7, -187500.02, -187500.02, 0.00, -187500.02, 182663.70, 0.00, 0.00, 0.00, 0.00, 0.00, 0.00
8, -187500.02, -187500.02, 0.00, -187500.02, 180860.50, 0.00, 0.00, 0.00, 0.00, 0.00, 0.00
9, -187500.02, -187500.02, 0.00, -187500.02, 187500.00, 0.00, 0.00, 0.00, 0.00, 0.00, 0.00
10, -187500.02, -187500.02, 0.00, -187500.02, 187500.00, 0.00, 0.00, 0.00, 0.00, 0.00, 0.00
11, -187500.02, -187500.02, 0.00, -187500.02, 183764.19, 0.00, 0.00, 0.00, 0.00, 0.00, 0.00
12, -187500.02, -187500.02, 0.00, -187500.02, 179749.80, 0.00, 0.00, 0.00, 0.00, 0.00, 0.00
13, -187500.02, -187500.02, 0.00, -187500.02, 186944.06, 0.00, 0.00, 0.00, 0.00, 0.00, 0.00
14, -187500.02, -187500.02, 0.00, -187500.02, 187500.00, 0.00, 0.00, 0.00, 0.00, 0.00, 0.00
15, -187500.02, -187500.02, 0.00, -187500.02, 185134.67, 0.00, 0.00, 0.00, 0.00, 0.00, 0.00
16, -187500.02, -187500.02, 0.00, -187500.02, 179251.34, 0.00, 0.00, 0.00, 0.00, 0.00, 0.00
17, -187500.02, -187500.02, 0.00, -187500.02, 185019.02, 0.00, 0.00, 0.00, 0.00, 0.00, 0.00
18, -187500.02, -187500.02, 0.00, -187500.02, 187500.00, 0.00, 0.00, 0.00, 0.00, 0.00, 0.00
19, -187500.02, -187500.02, 0.00, -187500.02, 186627.38, 0.00, 0.00, 0.00, 0.00, 0.00, 0.00
20, -187500.02, -187500.02, 0.00, -187500.02, 179282.13, 0.00, 0.00, 0.00, 0.00, 0.00, 0.00
21, -187500.02, -187500.02, 0.00, -187500.02, 183189.81, 0.00, 0.00, 0.00, 0.00, 0.00, 0.00
22, -187500.02, -187500.02, 0.00, -187500.02, 187500.00, 0.00, 0.00, 0.00, 0.00, 0.00, 0.00
23, -187500.02, -187500.02, 0.00, -187500.02, 187500.00, 0.00, 0.00, 0.00, 0.00, 0.00, 0.00
24, -187500.02, -187500.02, 0.00, -187500.02, 179820.77, 0.00, 0.00, 0.00, 0.00, 0.00, 0.00
25, -187500.02, -187500.02, 0.00, -187500.02, 181541.28, 0.00, 0.00, 0.00, 0.00, 0.00, 0.00
26, -187500.02, -187500.02, 0.00, -187500.02, 187500.00, 0.00, 0.00, 0.00, 0.00, 0.00, 0.00
27, -187500.02, -187500.02, 0.00, -187500.02, 187500.00, 0.00, 0.00, 0.00, 0.00, 0.00, 0.00
28, -187500.02, -187500.02, 0.00, -187500.02, 181015.28, 0.00, 0.00, 0.00, 0.00, 0.00, 0.00
29, -187500.02, -187500.02, 0.00, -187500.02, 180703.39, 0.00, 0.00, 0.00, 0.00, 0.00, 0.00
30, -187500.02, -187500.02, 0.00, -187500.02, 187500.00, 0.00, 0.00, 0.00, 0.00, 0.00, 0.00
31, -187500.02, -187500.02, 0.00, -187500.02, 187500.00, 0.00, 0.00, 0.00, 0.00, 0.00, 0.00
32, -187500.02, -187500.02, 0.00, -187500.02, 182875.11, 0.00, 0.00, 0.00, 0.00, 0.00, 0.00
33, -187500.02, -187500.02, 0.00, -187500.02, 180214.80, 0.00, 0.00, 0.00, 0.00, 0.00, 0.00
34, -187500.02, -187500.02, 0.00, -187500.02, 187500.00, 0.00, 0.00, 0.00, 0.00, 0.00, 0.00
35, -187500.02, -187500.02, 0.00, -187500.02, 187500.00, 0.00, 0.00, 0.00, 0.00, 0.00, 0.00
36, -187500.02, -187500.02, 0.00, -187500.02, 184769.33, 0.00, 0.00, 0.00, 0.00, 0.00, 0.00
37, -187500.02, -187500.02, 0.00, -187500.02, 179907.36, 0.00, 0.00, 0.00, 0.00, 0.00, 0.00
38, -187500.02, -187500.02, 0.00, -187500.02, 186472.70, 0.00, 0.00, 0.00, 0.00, 0.00, 0.00
39, -187500.02, -187500.02, 0.00, -187500.02, 187500.00, 0.00, 0.00, 0.00, 0.00, 0.00, 0.00
40, -187500.02, -187500.02, 0.00, -187500.02, 186102.42, 0.00, 0.00, 0.00, 0.00, 0.00, 0.00
41, -187500.02, -187500.02, 0.00, -187500.02, 179528.73, 0.00, 0.00, 0.00, 0.00, 0.00, 0.00
42, -187500.02, -187500.02, 0.00, -187500.02, 184503.78, 0.00, 0.00, 0.00, 0.00, 0.00, 0.00
43, -187500.02, -187500.02, 0.00, -187500.02, 187500.00, 0.00, 0.00, 0.00, 0.00, 0.00, 0.00
44, -187500.02, -187500.02, 0.00, -187500.02, 187500.00, 0.00, 0.00, 0.00, 0.00, 0.00, 0.00
45, -187500.02, -187500.02, 0.00, -187500.02, 179697.27, 0.00, 0.00, 0.00, 0.00, 0.00, 0.00
46, -187500.02, -187500.02, 0.00, -187500.02, 182690.19, 0.00, 0.00, 0.00, 0.00, 0.00, 0.00
47, -187500.02, -187500.02, 0.00, -187500.02, 187500.00, 0.00, 0.00, 0.00, 0.00, 0.00, 0.00
48, -187500.02, -187500.02, 0.00, -187500.02, 187500.00, 0.00, 0.00, 0.00, 0.00, 0.00, 0.00
49, -187500.02, -187500.02, 0.00, -187500.02, 180341.27, 0.00, 0.00, 0.00, 0.00, 0.00, 0.00
50, -187500.02, -187500.02, 0.00, -187500.02, 181160.08, 0.00, 0.00, 0.00, 0.00, 0.00, 0.00
51, -187500.02, -187500.02, 0.00, -187500.02, 187500.00, 0.00, 0.00, 0.00, 0.00, 0.00, 0.00
52, -187500.02, -187500.02, 0.00, -187500.02, 187500.00, 0.00, 0.00, 0.00, 0.00, 0.00, 0.00
53, -187500.02, -187500.02, 0.00, -187500.02, 181380.44, 0.00, 0.00, 0.00, 0.00, 0.00, 0.00
54, -187500.02, -187500.02, 0.00, -187500.02, 179860.03, 0.00, 0.00, 0.00, 0.00, 0.00, 0.00
55, -187500.02, -187500.02, 0.00, -187500.02, 187500.00, 0.00, 0.00, 0.00, 0.00, 0.00, 0.00
56, -187500.02, -187500.02, 0.00, -187500.02, 187500.00, 0.00, 0.00, 0.00, 0.00, 0.00, 0.00
57, -187500.02, -187500.02, 0.00, -187500.02, 183103.55, 0.00, 0.00, 0.00, 0.00, 0.00, 0.00
58, -187500.02, -187500.02, 0.00, -187500.02, 179558.64, 0.00, 0.00, 0.00, 0.00, 0.00, 0.00
59, -187500.02, -187500.02, 0.00, -187500.02, 187003.30, 0.00, 0.00, 0.00, 0.00, 0.00, 0.00
60, -187500.02, -187500.02, 0.00, -187500.02, 187500.00, 0.00, 0.00, 0.00, 0.00, 0.00, 0.00
61, -187500.02, -187500.02, 0.00, -187500.02, 185028.05, 0.00, 0.00, 0.00, 0.00, 0.00, 0.00
62, -187500.02, -187500.02, 0.00, -187500.02, 179542.45, 0.00, 0.00, 0.00, 0.00, 0.00, 0.00
63, -187500.02, -187500.02, 0.00, -187500.02, 185700.70, 0.00, 0.00, 0.00, 0.00, 0.00, 0.00
64, -187500.02, -187500.02, 0.00, -187500.02, 187500.00, 0.00, 0.00, 0.00, 0.00, 0.00, 0.00
65, -187500.02, -187500.02, 0.00, -187500.02, 187078.81, 0.00, 0.00, 0.00, 0.00, 0.00, 0.00
66, -187500.02, -187500.02, 0.00, -187500.02, 179861.13, 0.00, 0.00, 0.00, 0.00, 0.00, 0.00
67, -187500.02, -187500.02, 0.00, -187500.02, 184054.83, 0.00, 0.00, 0.00, 0.00, 0.00, 0.00
68, -187500.02, -187500.02, 0.00, -187500.02, 187500.00, 0.00, 0.00, 0.00, 0.00, 0.00, 0.00
69, -187500.02, -187500.02, 0.00, -187500.02, 187500.00, 0.00, 0.00, 0.00, 0.00, 0.00, 0.00
70, -187500.02, -187500.02, 0.00, -187500.02, 180134.00, 0.00, 0.00, 0.00, 0.00, 0.00, 0.00
71, -187500.02, -187500.02, 0.00, -187500.02, 182267.73, 0.00, 0.00, 0.00, 0.00, 0.00, 0.00
72, -187500.02, -187500.02, 0.00, -187500.02, 187500.00, 0.00, 0.00, 0.00, 0.00, 0.00, 0.00
73, -187500.02, -187500.02, 0.00, -187500.02, 187500.00, 0.00, 0.00, 0.00, 0.00, 0.00, 0.00
74, -187500.02, -187500.02, 0.00, -187500.02, 180962.48, 0.00, 0.00, 0.00, 0.00, 0.00, 0.00
75, -187500.02, -187500.02, 0.00, -187500.02, 180771.77, 0.00, 0.00, 0.00, 0.00, 0.00, 0.00
76, -187500.02, -187500.02, 0.00, -187500.02, 187500.00, 0.00, 0.00, 0.00, 0.00, 0.00, 0.00
77, -187500.02, -187500.02, 0.00, -187500.02, 187500.00, 0.00, 0.00, 0.00, 0.00, 0.00, 0.00
78, -187500.02, -187500.02, 0.00, -187500.02, 182126.80, 0.00, 0.00, 0.00, 0.00, 0.00, 0.00
79, -187500.02, -187500.02, 0.00, -187500.02, 179600.70, 0.00, 0.00, 0.00, 0.00, 0.00, 0.00
80, -187500.02, -187500.02, 0.00, -187500.02, 187341.77, 0.00, 0.00, 0.00, 0.00, 0.00, 0.00
81, -187500.02, -187500.02, 0.00, -187500.02, 187500.00, 0.00, 0.00, 0.00, 0.00, 0.00, 0.00
82, -187500.02, -187500.02, 0.00, -187500.02, 183533.36, 0.00, 0.00, 0.00, 0.00, 0.00, 0.00
83, -187500.02, -187500.02, 0.00, -187500.02, 178959.27, 0.00, 0.00, 0.00, 0.00, 0.00, 0.00
84, -187500.02, -187500.02, 0.00, -187500.02, 185738.86, 0.00, 0.00, 0.00, 0.00, 0.00, 0.00
85, -187500.02, -187500.02, 0.00, -187500.02, 187500.00, 0.00, 0.00, 0.00, 0.00, 0.00, 0.00
86, -187500.02, -187500.02, 0.00, -187500.02, 185291.11, 0.00, 0.00, 0.00, 0.00, 0.00, 0.00
87, -187500.02, -187500.02, 0.00, -187500.02, 179088.97, 0.00, 0.00, 0.00, 0.00, 0.00, 0.00
88, -187500.02, -187500.02, 0.00, -187500.02, 184462.44, 0.00, 0.00, 0.00, 0.00, 0.00, 0.00
89, -187500.02, -187500.02, 0.00, -187500.02, 187500.00, 0.00, 0.00, 0.00, 0.00, 0.00, 0.00
90, -187500.02, -187500.02, 0.00, -187500.02, 187434.66, 0.00, 0.00, 0.00, 0.00, 0.00, 0.00
91, -187500.02, -187500.02, 0.00, -187500.02, 179908.41, 0.00, 0.00, 0.00, 0.00, 0.00, 0.00
92, -187500.02, -187500.02, 0.00, -187500.02, 183370.05, 0.00, 0.00, 0.00, 0.00, 0.00, 0.00
93, -187500.02, -187500.02, 0.00, -187500.02, 187500.00, 0.00, 0.00, 0.00, 0.00, 0.00, 0.00
94, -187500.02, -187500.02, 0.00, -187500.02, 187500.00, 0.00, 0.00, 0.00, 0.00, 0.00, 0.00
95, -187500.02, -187500.02, 0.00, -187500.02, 180873.59, 0.00, 0.00, 0.00, 0.00, 0.00, 0.00
96, -187500.02, -187500.02, 0.00, -187500.02, 182018.61, 0.00, 0.00, 0.00, 0.00, 0.00, 0.00
97, -187500.02, -187500.02, 0.00, -187500.02, 187500.00, 0.00, 0.00, 0.00, 0.00, 0.00, 0.00
98, -187500.02, -187500.02, 0.00, -187500.02, 187500.00, 0.00, 0.00, 0.00, 0.00, 0.00, 0.00
99, -187500.02, -187500.02, 0.00, -187500.02, 181746.75, 0.00, 0.00, 0.00, 0.00, 0.00, 0.00
100, -187500.02, -187500.02, 0.00, -187500.02, 180583.56, 0.00, 0.00, 0.00, 0.00, 0.00, 0.00
101, -187500.02, -187500.02, 0.00, -187500.02, 187500.00, 0.00, 0.00, 0.00, 0.00, 0.00, 0.00
102, -187500.02, -187500.02, 0.00, -187500.02, 187500.00, 0.00, 0.00, 0.00, 0.00, 0.00, 0.00
103, -187500.02, -187500.02, 0.00, -187500.02, 182924.86, 0.00, 0.00, 0.00, 0.00, 0.00, 0.00
104, -187500.02, -187500.02, 0.00, -187500.02, 179421.16, 0.00, 0.00, 0.00, 0.00, 0.00, 0.00
105, -187500.02, -187500.02, 0.00, -187500.02, 186864.78, 0.00, 0.00, 0.00, 0.00, 0.00, 0.00
106, -187500.02, -187500.02, 0.00, -187500.02, 187500.00, 0.00, 0.00, 0.00, 0.00, 0.00, 0.00
107, -187500.02, -187500.02, 0.00, -187500.02, 184369.56, 0.00, 0.00, 0.00, 0.00, 0.00, 0.00
108, -187500.02, -187500.02, 0.00, -187500.02, 178860.80, 0.00, 0.00, 0.00, 0.00, 0.00, 0.00
109, -187500.02, -187500.02, 0.00, -187500.02, 185047.98, 0.00, 0.00, 0.00, 0.00, 0.00, 0.00
110, -187500.02, -187500.02, 0.00, -187500.02, 187500.00, 0.00, 0.00, 0.00, 0.00, 0.00, 0.00
111, -187500.02, -187500.02, 0.00, -187500.02, 185857.81, 0.00, 0.00, 0.00, 0.00, 0.00, 0.00
112, -187500.02, -187500.02, 0.00, -187500.02, 178867.45, 0.00, 0.00, 0.00, 0.00, 0.00, 0.00
113, -187500.02, -187500.02, 0.00, -187500.02, 183271.27, 0.00, 0.00, 0.00, 0.00, 0.00, 0.00
114, -187500.02, -187500.02, 0.00, -187500.02, 187500.00, 0.00, 0.00, 0.00, 0.00, 0.00, 0.00
115, -187500.02, -187500.02, 0.00, -187500.02, 187500.00, 0.00, 0.00, 0.00, 0.00, 0.00, 0.00
116, -187500.02, -187500.02, 0.00, -187500.02, 179621.88, 0.00, 0.00, 0.00, 0.00, 0.00, 0.00
117, -187500.02, -187500.02, 0.00, -187500.02, 182241.05, 0.00, 0.00, 0.00, 0.00, 0.00, 0.00
118, -187500.02, -187500.02, 0.00, -187500.02, 187500.00, 0.00, 0.00, 0.00, 0.00, 0.00, 0.00
119, -187500.02, -187500.02, 0.00, -187500.02, 187500.00, 0.00, 0.00, 0.00, 0.00, 0.00, 0.00
120, -187500.02, -187500.02, 0.00, -187500.02, 181137.30, 0.00, 0.00, 0.00, 0.00, 0.00, 0.00
121, -187500.02, -187500.02, 0.00, -187500.02, 181400.45, 0.00, 0.00, 0.00, 0.00, 0.00, 0.00
122, -187500.02, -187500.02, 0.00, -187500.02, 187500.00, 0.00, 0.00, 0.00, 0.00, 0.00, 0.00
123, -187500.02, -187500.02, 0.00, -187500.02, 187500.00, 0.00, 0.00, 0.00, 0.00, 0.00, 0.00
124, -187500.02, -187500.02, 0.00, -187500.02, 182698.41, 0.00, 0.00, 0.00, 0.00, 0.00, 0.00
125, -187500.02, -187500.02, 0.00, -187500.02, 180475.78, 0.00, 0.00, 0.00, 0.00, 0.00, 0.00
126, -187500.02, -187500.02, 0.00, -187500.02, 187500.00, 0.00, 0.00, 0.00, 0.00, 0.00, 0.00
127, -187500.02, -187500.02, 0.00, -187500.02, 187500.00, 0.00, 0.00, 0.00, 0.00, 0.00, 0.00
128, -187500.02, -187500.02, 0.00, -187500.02, 183905.52, 0.00, 0.00, 0.00, 0.00, 0.00, 0.00
129, -187500.02, -187500.02, 0.00, -187500.02, 179599.48, 0.00, 0.00, 0.00, 0.00, 0.00, 0.00
130, -187500.02, -187500.02, 0.00, -187500.02, 186602.95, 0.00, 0.00, 0.00, 0.00, 0.00, 0.00
131, -187500.02, -187500.02, 0.00, -187500.02, 187500.00, 0.00, 0.00, 0.00, 0.00, 0.00, 0.00
132, -187500.02, -187500.02, 0.00, -187500.02, 185422.36, 0.00, 0.00, 0.00, 0.00, 0.00, 0.00
133, -187500.02, -187500.02, 0.00, -187500.02, 179233.94, 0.00, 0.00, 0.00, 0.00, 0.00, 0.00
134, -187500.02, -187500.02, 0.00, -187500.02, 184712.11, 0.00, 0.00, 0.00, 0.00, 0.00, 0.00
135, -187500.02, -187500.02, 0.00, -187500.02, 187500.00, 0.00, 0.00, 0.00, 0.00, 0.00, 0.00
136, -187500.02, -187500.02, 0.00, -187500.02, 186852.11, 0.00, 0.00, 0.00, 0.00, 0.00, 0.00
137, -187500.02, -187500.02, 0.00, -187500.02, 179315.55, 0.00, 0.00, 0.00, 0.00, 0.00, 0.00
138, -187500.02, -187500.02, 0.00, -187500.02, 182915.31, 0.00, 0.00, 0.00, 0.00, 0.00, 0.00
139, -187500.02, -187500.02, 0.00, -187500.02, 187500.00, 0.00, 0.00, 0.00, 0.00, 0.00, 0.00
140, -187500.02, -187500.02, 0.00, -187500.02, 187500.00, 0.00, 0.00, 0.00, 0.00, 0.00, 0.00
141, -187500.02, -187500.02, 0.00, -187500.02, 179914.13, 0.00, 0.00, 0.00, 0.00, 0.00, 0.00
142, -187500.02, -187500.02, 0.00, -187500.02, 181385.09, 0.00, 0.00, 0.00, 0.00, 0.00, 0.00
143, -187500.02, -187500.02, 0.00, -187500.02, 187500.00, 0.00, 0.00, 0.00, 0.00, 0.00, 0.00
144, -187500.02, -187500.02, 0.00, -187500.02, 187500.00, 0.00, 0.00, 0.00, 0.00, 0.00, 0.00
145, -187500.02, -187500.02, 0.00, -187500.02, 181256.08, 0.00, 0.00, 0.00, 0.00, 0.00, 0.00
146, -187500.02, -187500.02, 0.00, -187500.02, 180666.38, 0.00, 0.00, 0.00, 0.00, 0.00, 0.00
147, -187500.02, -187500.02, 0.00, -187500.02, 187500.00, 0.00, 0.00, 0.00, 0.00, 0.00, 0.00
148, -187500.02, -187500.02, 0.00, -187500.02, 187500.00, 0.00, 0.00, 0.00, 0.00, 0.00, 0.00
149, -187500.02, -187500.02, 0.00, -187500.02, 183180.23, 0.00, 0.00, 0.00, 0.00, 0.00, 0.00
150, -187500.02, -187500.02, 0.00, -187500.02, 180221.53, 0.00, 0.00, 0.00, 0.00, 0.00, 0.00
151, -187500.02, -187500.02, 0.00, -187500.02, 187500.00, 0.00, 0.00, 0.00, 0.00, 0.00, 0.00
152, -187500.02, -187500.02, 0.00, -187500.02, 187500.00, 0.00, 0.00, 0.00, 0.00, 0.00, 0.00
153, -187500.02, -187500.02, 0.00, -187500.02, 185131.45, 0.00, 0.00, 0.00, 0.00, 0.00, 0.00
154, -187500.02, -187500.02, 0.00, -187500.02, 179905.00, 0.00, 0.00, 0.00, 0.00, 0.00, 0.00
155, -187500.02, -187500.02, 0.00, -187500.02, 186279.36, 0.00, 0.00, 0.00, 0.00, 0.00, 0.00
156, -187500.02, -187500.02, 0.00, -187500.02, 187500.00, 0.00, 0.00, 0.00, 0.00, 0.00, 0.00
157, -187500.02, -187500.02, 0.00, -187500.02, 186527.52, 0.00, 0.00, 0.00, 0.00, 0.00, 0.00
158, -187500.02, -187500.02, 0.00, -187500.02, 179667.70, 0.00, 0.00, 0.00, 0.00, 0.00, 0.00
159, -187500.02, -187500.02, 0.00, -187500.02, 184408.56, 0.00, 0.00, 0.00, 0.00, 0.00, 0.00
160, -187500.02, -187500.02, 0.00, -187500.02, 187500.00, 0.00, 0.00, 0.00, 0.00, 0.00, 0.00
161, -187500.02, -187500.02, 0.00, -187500.02, 187500.00, 0.00, 0.00, 0.00, 0.00, 0.00, 0.00
162, -187500.02, -187500.02, 0.00, -187500.02, 179888.80, 0.00, 0.00, 0.00, 0.00, 0.00, 0.00
163, -187500.02, -187500.02, 0.00, -187500.02, 182607.22, 0.00, 0.00, 0.00, 0.00, 0.00, 0.00
164, -187500.02, -187500.02, 0.00, -187500.02, 187500.00, 0.00, 0.00, 0.00, 0.00, 0.00, 0.00
165, -187500.02, -187500.02, 0.00, -187500.02, 187500.00, 0.00, 0.00, 0.00, 0.00, 0.00, 0.00
166, -187500.02, -187500.02, 0.00, -187500.02, 180584.91, 0.00, 0.00, 0.00, 0.00, 0.00, 0.00
167, -187500.02, -187500.02, 0.00, -187500.02, 181018.86, 0.00, 0.00, 0.00, 0.00, 0.00, 0.00
168, -187500.02, -187500.02, 0.00, -187500.02, 187500.00, 0.00, 0.00, 0.00, 0.00, 0.00, 0.00
169, -187500.02, -187500.02, 0.00, -187500.02, 187500.00, 0.00, 0.00, 0.00, 0.00, 0.00, 0.00
170, -187500.02, -187500.02, 0.00, -187500.02, 181641.92, 0.00, 0.00, 0.00, 0.00, 0.00, 0.00
171, -187500.02, -187500.02, 0.00, -187500.02, 179776.44, 0.00, 0.00, 0.00, 0.00, 0.00, 0.00
172, -187500.02, -187500.02, 0.00, -187500.02, 187500.00, 0.00, 0.00, 0.00, 0.00, 0.00, 0.00
173, -187500.02, -187500.02, 0.00, -187500.02, 187500.00, 0.00, 0.00, 0.00, 0.00, 0.00, 0.00
174, -187500.02, -187500.02, 0.00, -187500.02, 182929.22, 0.00, 0.00, 0.00, 0.00, 0.00, 0.00
175, -187500.02, -187500.02, 0.00, -187500.02, 178889.55, 0.00, 0.00, 0.00, 0.00, 0.00, 0.00
176, -187500.02, -187500.02, 0.00, -187500.02, 186092.13, 0.00, 0.00, 0.00, 0.00, 0.00, 0.00
177, -187500.02, -187500.02, 0.00, -187500.02, 187500.00, 0.00, 0.00, 0.00, 0.00, 0.00, 0.00
178, -187500.02, -187500.02, 0.00, -187500.02, 184822.67, 0.00, 0.00, 0.00, 0.00, 0.00, 0.00
179, -187500.02, -187500.02, 0.00, -187500.02, 179079.17, 0.00, 0.00, 0.00, 0.00, 0.00, 0.00
180, -187500.02, -187500.02, 0.00, -187500.02, 184908.91, 0.00, 0.00, 0.00, 0.00, 0.00, 0.00
181, -187500.02, -187500.02, 0.00, -187500.02, 187500.00, 0.00, 0.00, 0.00, 0.00, 0.00, 0.00
182, -187500.02, -187500.02, 0.00, -187500.02, 186909.22, 0.00, 0.00, 0.00, 0.00, 0.00, 0.00
183, -187500.02, -187500.02, 0.00, -187500.02, 179671.78, 0.00, 0.00, 0.00, 0.00, 0.00, 0.00
184, -187500.02, -187500.02, 0.00, -187500.02, 183687.36, 0.00, 0.00, 0.00, 0.00, 0.00, 0.00
185, -187500.02, -187500.02, 0.00, -187500.02, 187500.00, 0.00, 0.00, 0.00, 0.00, 0.00, 0.00
186, -187500.02, -187500.02, 0.00, -187500.02, 187500.00, 0.00, 0.00, 0.00, 0.00, 0.00, 0.00
187, -187500.02, -187500.02, 0.00, -187500.02, 180586.47, 0.00, 0.00, 0.00, 0.00, 0.00, 0.00
188, -187500.02, -187500.02, 0.00, -187500.02, 182247.83, 0.00, 0.00, 0.00, 0.00, 0.00, 0.00
189, -187500.02, -187500.02, 0.00, -187500.02, 187500.00, 0.00, 0.00, 0.00, 0.00, 0.00, 0.00
190, -187500.02, -187500.02, 0.00, -187500.02, 187500.00, 0.00, 0.00, 0.00, 0.00, 0.00, 0.00
191, -187500.02, -187500.02, 0.00, -187500.02, 181359.34, 0.00, 0.00, 0.00, 0.00, 0.00, 0.00
192, -187500.02, -187500.02, 0.00, -187500.02, 180811.70, 0.00, 0.00, 0.00, 0.00, 0.00, 0.00
193, -187500.02, -187500.02, 0.00, -187500.02, 187500.00, 0.00, 0.00, 0.00, 0.00, 0.00, 0.00
194, -187500.02, -187500.02, 0.00, -187500.02, 187500.00, 0.00, 0.00, 0.00, 0.00, 0.00, 0.00
195, -187500.02, -187500.02, 0.00, -187500.02, 182543.73, 0.00, 0.00, 0.00, 0.00, 0.00, 0.00
196, -187500.02, -187500.02, 0.00, -187500.02, 179681.33, 0.00, 0.00, 0.00, 0.00, 0.00, 0.00
197, -187500.02, -187500.02, 0.00, -187500.02, 187388.06, 0.00, 0.00, 0.00, 0.00, 0.00, 0.00
198, -187500.02, -187500.02, 0.00, -187500.02, 187500.00, 0.00, 0.00, 0.00, 0.00, 0.00, 0.00
199, -187500.02, -187500.02, 0.00, -187500.02, 183832.11, 0.00, 0.00, 0.00, 0.00, 0.00, 0.00
200, -187500.02, -187500.02, 0.00, -187500.02, 178925.73, 0.00, 0.00, 0.00, 0.00, 0.00, 0.00
201, -187500.02, -187500.02, 0.00, -187500.02, 185543.19, 0.00, 0.00, 0.00, 0.00, 0.00, 0.00
202, -187500.02, -187500.02, 0.00, -187500.02, 187500.00, 0.00, 0.00, 0.00, 0.00, 0.00, 0.00
203, -187500.02, -187500.02, 0.00, -187500.02, 185303.39, 0.00, 0.00, 0.00, 0.00, 0.00, 0.00
204, -187500.02, -187500.02, 0.00, -187500.02, 178655.47, 0.00, 0.00, 0.00, 0.00, 0.00, 0.00
205, -187500.02, -187500.02, 0.00, -187500.02, 183658.94, 0.00, 0.00, 0.00, 0.00, 0.00, 0.00
206, -187500.02, -187500.02, 0.00, -187500.02, 187500.00, 0.00, 0.00, 0.00, 0.00, 0.00, 0.00
207, -187500.02, -187500.02, 0.00, -187500.02, 187032.75, 0.00, 0.00, 0.00, 0.00, 0.00, 0.00
208, -187500.02, -187500.02, 0.00, -187500.02, 179375.56, 0.00, 0.00, 0.00, 0.00, 0.00, 0.00
209, -187500.02, -187500.02, 0.00, -187500.02, 182563.08, 0.00, 0.00, 0.00, 0.00, 0.00, 0.00
210, -187500.02, -187500.02, 0.00, -187500.02, 187500.00, 0.00, 0.00, 0.00, 0.00, 0.00, 0.00
211, -187500.02, -187500.02, 0.00, -187500.02, 187500.00, 0.00, 0.00, 0.00, 0.00, 0.00, 0.00
212, -187500.02, -187500.02, 0.00, -187500.02, 180748.83, 0.00, 0.00, 0.00, 0.00, 0.00, 0.00
213, -187500.02, -187500.02, 0.00, -187500.02, 181690.23, 0.00, 0.00, 0.00, 0.00, 0.00, 0.00
214, -187500.02, -187500.02, 0.00, -187500.02, 187500.00, 0.00, 0.00, 0.00, 0.00, 0.00, 0.00
215, -187500.02, -187500.02, 0.00, -187500.02, 187500.00, 0.00, 0.00, 0.00, 0.00, 0.00, 0.00
216, -187500.02, -187500.02, 0.00, -187500.02, 182215.39, 0.00, 0.00, 0.00, 0.00, 0.00, 0.00
217, -187500.02, -187500.02, 0.00, -187500.02, 180634.00, 0.00, 0.00, 0.00, 0.00, 0.00, 0.00
218, -187500.02, -187500.02, 0.00, -187500.02, 187500.00, 0.00, 0.00, 0.00, 0.00, 0.00, 0.00
219, -187500.02, -187500.02, 0.00, -187500.02, 187500.00, 0.00, 0.00, 0.00, 0.00, 0.00, 0.00
220, -187500.02, -187500.02, 0.00, -187500.02, 183420.28, 0.00, 0.00, 0.00, 0.00, 0.00, 0.00
221, -187500.02, -187500.02, 0.00, -187500.02, 179557.34, 0.00, 0.00, 0.00, 0.00, 0.00, 0.00
222, -187500.02, -187500.02, 0.00, -187500.02, 186882.02, 0.00, 0.00, 0.00, 0.00, 0.00, 0.00
223, -187500.02, -187500.02, 0.00, -187500.02, 187500.00, 0.00, 0.00, 0.00, 0.00, 0.00, 0.00
224, -187500.02, -187500.02, 0.00, -187500.02, 184866.67, 0.00, 0.00, 0.00, 0.00, 0.00, 0.00
225, -187500.02, -187500.02, 0.00, -187500.02, 179131.23, 0.00, 0.00, 0.00, 0.00, 0.00, 0.00
226, -187500.02, -187500.02, 0.00, -187500.02, 185081.78, 0.00, 0.00, 0.00, 0.00, 0.00, 0.00
227, -187500.02, -187500.02, 0.00, -187500.02, 187500.00, 0.00, 0.00, 0.00, 0.00, 0.00, 0.00
228, -187500.02, -187500.02, 0.00, -187500.02, 186310.25, 0.00, 0.00, 0.00, 0.00, 0.00, 0.00
229, -187500.02, -187500.02, 0.00, -187500.02, 179024.70, 0.00, 0.00, 0.00, 0.00, 0.00, 0.00
230, -187500.02, -187500.02, 0.00, -187500.02, 183151.02, 0.00, 0.00, 0.00, 0.00, 0.00, 0.00
231, -187500.02, -187500.02, 0.00, -187500.02, 187500.00, 0.00, 0.00, 0.00, 0.00, 0.00, 0.00
232, -187500.02, -187500.02, 0.00, -187500.02, 187500.00, 0.00, 0.00, 0.00, 0.00, 0.00, 0.00
233, -187500.02, -187500.02, 0.00, -187500.02, 179490.97, 0.00, 0.00, 0.00, 0.00, 0.00, 0.00
234, -187500.02, -187500.02, 0.00, -187500.02, 181556.08, 0.00, 0.00, 0.00, 0.00, 0.00, 0.00
235, -187500.02, -187500.02, 0.00, -187500.02, 187500.00, 0.00, 0.00, 0.00, 0.00, 0.00, 0.00
236, -187500.02, -187500.02, 0.00, -187500.02, 187500.00, 0.00, 0.00, 0.00, 0.00, 0.00, 0.00
237, -187500.02, -187500.02, 0.00, -187500.02, 180735.39, 0.00, 0.00, 0.00, 0.00, 0.00, 0.00
238, -187500.02, -187500.02, 0.00, -187500.02, 180664.11, 0.00, 0.00, 0.00, 0.00, 0.00, 0.00
239, -187500.02, -187500.02, 0.00, -187500.02, 187500.00, 0.00, 0.00, 0.00, 0.00, 0.00, 0.00
240, -187500.02, -187500.02, 0.00, -187500.02, 187500.00, 0.00, 0.00, 0.00, 0.00, 0.00, 0.00
241, -187500.02, -187500.02, 0.00, -187500.02, 182651.81, 0.00, 0.00, 0.00, 0.00, 0.00, 0.00
242, -187500.02, -187500.02, 0.00, -187500.02, 180282.97, 0.00, 0.00, 0.00, 0.00, 0.00, 0.00
243, -187500.02, -187500.02, 0.00, -187500.02, 187500.00, 0.00, 0.00, 0.00, 0.00, 0.00, 0.00
244, -187500.02, -187500.02, 0.00, -187500.02, 187500.00, 0.00, 0.00, 0.00, 0.00, 0.00, 0.00
245, -187500.02, -187500.02, 0.00, -187500.02, 184522.05, 0.00, 0.00, 0.00, 0.00, 0.00, 0.00
246, -187500.02, -187500.02, 0.00, -187500.02, 179854.73, 0.00, 0.00, 0.00, 0.00, 0.00, 0.00
247, -187500.02, -187500.02, 0.00, -187500.02, 186612.05, 0.00, 0.00, 0.00, 0.00, 0.00, 0.00
248, -187500.02, -187500.02, 0.00, -187500.02, 187500.00, 0.00, 0.00, 0.00, 0.00, 0.00, 0.00
249, -187500.02, -187500.02, 0.00, -187500.02, 185910.31, 0.00, 0.00, 0.00, 0.00, 0.00, 0.00
250, -187500.02, -187500.02, 0.00, -187500.02, 179389.42, 0.00, 0.00, 0.00, 0.00, 0.00, 0.00
251, -187500.02, -187500.02, 0.00, -187500.02, 184582.08, 0.00, 0.00, 0.00, 0.00, 0.00, 0.00
252, -187500.02, -187500.02, 0.00, -187500.02, 187500.00, 0.00, 0.00, 0.00, 0.00, 0.00, 0.00
253, -187500.02, -187500.02, 0.00, -187500.02, 187235.06, 0.00, 0.00, 0.00, 0.00, 0.00, 0.00
254, -187500.02, -187500.02, 0.00, -187500.02, 179562.59, 0.00, 0.00, 0.00, 0.00, 0.00, 0.00
255, -187500.02, -187500.02, 0.00, -187500.02, 182827.11, 0.00, 0.00, 0.00, 0.00, 0.00, 0.00
0, -187500.02, -187500.02, 0.00, -187500.02, 187500.00, 0.00, 0.00, 0.00, 0.00, 0.00, 0.00
1, -187500.02, -187500.02, 0.00, -187500.02, 187500.00, 0.00, 0.00, 0.00, 0.00, 0.00, 0.00
2, -187500.02, -187500.02, 0.00, -187500.02, 180145.38, 0.00, 0.00, 0.00, 0.00, 0.00, 0.00
3, -187500.02, -187500.02, 0.00, -187500.02, 181219.63, 0.00, 0.00, 0.00, 0.00, 0.00, 0.00
4, -187500.02, -187500.02, 0.00, -187500.02, 187500.00, 0.00, 0.00, 0.00, 0.00, 0.00, 0.00
5, -187500.02, -187500.02, 0.00, -187500.02, 187500.00, 0.00, 0.00, 0.00, 0.00, 0.00, 0.00
6, -187500.02, -187500.02, 0.00, -187500.02, 181070.14, 0.00, 0.00, 0.00, 0.00, 0.00, 0.00
7, -187500.02, -187500.02, 0.00, -187500.02, 179860.08, 0.00, 0.00, 0.00, 0.00, 0.00, 0.00
8, -187500.02, -187500.02, 0.00, -187500.02, 187500.00, 0.00, 0.00, 0.00, 0.00, 0.00, 0.00
9, -187500.02, -187500.02, 0.00, -187500.02, 187500.00, 0.00, 0.00, 0.00, 0.00, 0.00, 0.00
10, -187500.02, -187500.02, 0.00, -187500.02, 182765.58, 0.00, 0.00, 0.00, 0.00, 0.00, 0.00
11, -187500.02, -187500.02, 0.00, -187500.02, 179451.27, 0.00, 0.00, 0.00, 0.00, 0.00, 0.00
12, -187500.02, -187500.02, 0.00, -187500.02, 187083.67, 0.00, 0.00, 0.00, 0.00, 0.00, 0.00
13, -187500.02, -187500.02, 0.00, -187500.02, 187500.00, 0.00, 0.00, 0.00, 0.00, 0.00, 0.00
