%OpenBCI Raw EEG Data
%
%Sample Rate = 250.0 Hz
%First Column = SampleIndex
%Other Columns = EEG data in microvolts followed by Accel Data (in G) interleaved with Aux Data
0, -179213.31, 187500.00, -177829.00, -184756.41, -184792.08, -177794.91, -177623.09, -178089.22, 0.34, 0.06, 0.39
1, -179239.73, 187500.00, -177857.58, -184759.80, -184795.41, -177824.45, -177649.02, -178113.09, 0.34, 0.06, 0.39
2, -179254.06, 187500.00, -177872.89, -184762.78, -184798.31, -177841.45, -177661.41, -178123.70, 0.69, 0.11, 0.78
3, -179271.22, 187500.00, -177890.78, -184764.03, -184799.66, -177861.09, -177676.53, -178137.08, 0.69, 0.11, 0.78
4, -179312.64, 187500.00, -177933.94, -184766.48, -184802.08, -177905.02, -177715.94, -178175.14, 0.69, 0.11, 0.78
5, -179346.30, 187500.00, -177968.03, -184770.00, -184805.64, -177940.16, -177746.61, -178204.48, 0.69, 0.11, 0.78
6, -179360.72, 187500.00, -177982.08, -184771.69, -184807.39, -177957.03, -177758.97, -178214.47, 0.69, 0.11, 0.78
7, -179373.55, 187500.00, -177996.09, -184772.64, -184808.27, -177973.66, -177769.91, -178224.17, 0.69, 0.11, 0.78
8, -179409.42, 187500.00, -178033.22, -184776.25, -184811.84, -178011.00, -177803.97, -178256.30, 0.69, 0.11, 0.78
9, -179445.70, 187500.00, -178069.80, -184780.02, -184815.55, -178048.77, -177838.00, -178287.98, 0.69, 0.11, 0.78
10, -179457.70, 187500.00, -178082.58, -184782.67, -184818.25, -178063.95, -177848.00, -178296.64, 0.69, 0.11, 0.78
11, -179462.78, 187500.00, -178088.95, -184784.84, -184820.28, -178071.84, -177851.39, -178298.92, 0.69, 0.11, 0.78
12, -179488.13, 187500.00, -178115.08, -184787.16, -184822.50, -178099.45, -177875.09, -178320.52, 0.70, 0.11, 0.78
13, -179513.53, 187500.00, -178141.66, -184790.34, -184825.70, -178126.44, -177898.44, -178342.38, 0.70, 0.11, 0.78
14, -179512.80, 187500.00, -178141.92, -184791.95, -184827.39, -178129.16, -177895.72, -178338.02, 0.70, 0.11, 0.78
15, -179500.06, 187500.00, -178128.80, -184792.13, -184827.38, -178120.58, -177880.23, -178320.78, 0.70, 0.11, 0.78
16, -179500.08, 187500.00, -178128.91, -184792.13, -184827.34, -178123.70, -177878.06, -178317.72, 0.70, 0.11, 0.78
17, -179514.59, 187500.00, -178144.63, -184793.73, -184829.00, -178140.83, -177890.98, -178329.31, 0.70, 0.11, 0.78
18, -179508.23, 187500.00, -178139.34, -184794.19, -184829.61, -178137.00, -177883.42, -178318.55, 0.70, 0.11, 0.78
19, -179486.53, 187500.00, -178118.20, -184791.50, -184826.75, -178117.48, -177859.17, -178292.64, 0.70, 0.11, 0.78
20, -179478.41, 187500.00, -178110.47, -184791.05, -184826.25, -178111.56, -177848.27, -178280.77, 0.70, 0.11, 0.78
21, -179489.78, 187500.00, -178121.83, -184793.48, -184828.63, -178124.89, -177856.27, -178287.39, 0.70, 0.11, 0.78
22, -179484.33, 187500.00, -178116.44, -184793.31, -184828.41, -178122.25, -177848.42, -178276.81, 0.70, 0.11, 0.78
23, -179464.75, 187500.00, -178096.66, -184793.44, -184828.41, -178105.67, -177826.94, -178253.41, 0.70, 0.11, 0.78
24, -179455.02, 187500.00, -178085.94, -184791.16, -184826.09, -178098.25, -177814.17, -178238.77, 0.70, 0.11, 0.78
25, -179476.13, 187500.00, -178107.81, -184793.72, -184828.47, -178121.06, -177831.92, -178255.53, 0.70, 0.11, 0.78
26, -179491.00, 187500.00, -178123.48, -184796.55, -184831.19, -178138.17, -177844.08, -178265.91, 0.70, 0.11, 0.78
27, -179492.81, 187500.00, -178126.14, -184795.81, -184830.50, -178142.66, -177843.92, -178263.88, 0.70, 0.11, 0.79
28, -179500.84, 187500.00, -178134.95, -184797.94, -184832.64, -178152.88, -177849.50, -178268.05, 0.70, 0.11, 0.79
29, -179536.09, 187500.00, -178169.91, -184801.92, -184836.53, -178189.44, -177881.56, -178298.52, 0.70, 0.11, 0.79
30, -179568.00, 187500.00, -178202.36, -184805.77, -184840.30, -178223.11, -177911.41, -178325.97, 0.70, 0.11, 0.79
31, -179581.75, 187500.00, -178215.69, -184807.75, -184842.17, -178238.66, -177922.72, -178335.42, 0.70, 0.11, 0.79
32, -179593.75, 187500.00, -178227.91, -184809.14, -184843.42, -178252.61, -177931.66, -178341.97, 0.69, 0.11, 0.79
33, -179630.50, 187500.00, -178265.13, -184814.81, -184849.13, -178290.47, -177965.36, -178374.09, 0.69, 0.11, 0.79
34, -179672.33, 187500.00, -178307.09, -184818.34, -184852.73, -178334.30, -178004.13, -178411.86, 0.69, 0.11, 0.79
35, -179695.03, 187500.00, -178330.19, -184821.38, -184855.64, -178359.19, -178023.50, -178429.88, 0.69, 0.11, 0.79
36, -179714.14, 187500.00, -178349.03, -184824.42, -184858.69, -178379.86, -178038.36, -178443.31, 0.69, 0.11, 0.79
37, -179752.39, 187500.00, -178387.19, -184828.48, -184862.75, -178419.11, -178073.91, -178476.80, 0.69, 0.11, 0.79
38, -179798.20, 187500.00, -178432.70, -184832.69, -184867.00, -178465.70, -178116.83, -178517.61, 0.69, 0.11, 0.79
39, -179820.77, 187500.00, -178455.81, -184836.42, -184870.72, -178490.25, -178137.14, -178535.80, 0.69, 0.11, 0.79
40, -179831.02, 187500.00, -178466.73, -184836.83, -184871.00, -178503.39, -178145.88, -178542.91, 0.69, 0.11, 0.79
41, -179858.72, 187500.00, -178494.56, -184838.06, -184872.28, -178532.47, -178170.52, -178566.38, 0.69, 0.11, 0.79
42, -179904.63, 187500.00, -178539.61, -184841.67, -184875.94, -178579.25, -178213.30, -178607.17, 0.69, 0.11, 0.79
43, -179930.06, 187500.00, -178565.36, -184845.55, -184879.78, -178606.72, -178236.58, -178627.69, 0.70, 0.12, 0.79
44, -179938.63, 187500.00, -178574.16, -184845.44, -184879.66, -178617.08, -178241.92, -178631.83, 0.70, 0.12, 0.79
45, -179956.44, 187500.00, -178591.69, -184848.20, -184882.25, -178636.50, -178256.55, -178644.66, 0.70, 0.12, 0.79
46, -179990.28, 187500.00, -178625.05, -184850.23, -184884.27, -178671.81, -178286.83, -178673.53, 0.70, 0.12, 0.79
47, -180004.97, 187500.00, -178639.47, -184851.73, -184885.75, -178688.64, -178298.34, -178683.84, 0.70, 0.12, 0.79
48, -179995.39, 187500.00, -178629.66, -184851.63, -184885.48, -178681.45, -178286.00, -178669.72, 0.70, 0.11, 0.79
49, -179989.63, 187500.00, -178622.42, -184851.58, -184885.33, -178677.45, -178275.86, -178659.05, 0.70, 0.11, 0.79
50, -180007.98, 187500.00, -178640.44, -184854.69, -184888.59, -178697.97, -178291.36, -178672.13, 0.70, 0.11, 0.79
51, -180016.72, 187500.00, -178648.38, -184856.83, -184890.81, -178708.19, -178297.69, -178676.48, 0.70, 0.11, 0.79
52, -180008.84, 187500.00, -178640.39, -184856.70, -184890.67, -178701.56, -178286.47, -178663.28, 0.70, 0.11, 0.79
53, -179999.13, 187500.00, -178630.64, -184855.94, -184889.75, -178693.89, -178273.78, -178648.75, 0.69, 0.11, 0.78
54, -180011.52, 187500.00, -178643.05, -184859.84, -184893.58, -178708.45, -178283.31, -178656.44, 0.69, 0.11, 0.78
55, -180024.05, 187500.00, -178654.41, -184861.97, -184895.66, -178722.36, -178292.86, -178663.83, 0.69, 0.11, 0.78
56, -180014.66, 187500.00, -178644.72, -184863.09, -184896.69, -178715.58, -178280.44, -178650.02, 0.69, 0.11, 0.78
57, -180003.27, 187500.00, -178633.22, -184860.52, -184894.11, -178706.84, -178266.42, -178634.08, 0.69, 0.11, 0.78
58, -180017.50, 187500.00, -178646.80, -184863.42, -184896.94, -178722.78, -178278.11, -178642.17, 0.69, 0.11, 0.78
59, -180038.11, 187500.00, -178667.77, -184866.06, -184899.70, -178745.03, -178294.89, -178658.58, 0.69, 0.11, 0.78
60, -180043.61, 187500.00, -178673.17, -184866.98, -184900.58, -178752.53, -178297.11, -178659.77, 0.69, 0.11, 0.78
61, -180043.92, 187500.00, -178671.70, -184867.73, -184901.25, -178753.91, -178293.06, -178653.94, 0.69, 0.11, 0.78
62, -180063.69, 187500.00, -178690.72, -184868.05, -184901.48, -178774.16, -178309.06, -178669.09, 0.69, 0.11, 0.78
63, -180095.98, 187500.00, -178723.02, -184869.31, -184902.77, -178807.58, -178338.94, -178697.34, 0.69, 0.11, 0.78
64, -180107.17, 187500.00, -178733.97, -184871.14, -184904.44, -178820.72, -178347.64, -178703.33, 0.69, 0.11, 0.78
65, -180110.03, 187500.00, -178735.88, -184874.92, -184908.11, -178825.84, -178347.30, -178701.34, 0.69, 0.11, 0.78
66, -180125.86, 187500.00, -178751.61, -184876.33, -184909.47, -178842.78, -178359.78, -178712.89, 0.69, 0.11, 0.78
67, -180162.47, 187500.00, -178787.64, -184878.56, -184911.69, -178880.80, -178392.66, -178744.14, 0.69, 0.11, 0.78
68, -180185.94, 187500.00, -178809.05, -184879.75, -184912.83, -178905.08, -178411.44, -178762.03, 0.70, 0.11, 0.78
69, -180192.27, 187500.00, -178814.67, -184881.78, -184914.72, -178911.84, -178413.98, -178762.98, 0.70, 0.11, 0.78
70, -180206.84, 187500.00, -178828.28, -184882.30, -184915.19, -178927.73, -178425.14, -178772.38, 0.70, 0.11, 0.78
71, -180244.38, 187500.00, -178865.66, -184886.89, -184919.81, -178966.34, -178458.98, -178805.75, 0.70, 0.11, 0.78
72, -180269.88, 187500.00, -178890.44, -184891.14, -184924.14, -178992.52, -178480.86, -178825.38, 0.70, 0.11, 0.78
73, -180279.28, 187500.00, -178899.41, -184891.39, -184924.30, -179004.28, -178487.28, -178829.73, 0.69, 0.11, 0.78
74, -180290.94, 187500.00, -178910.91, -184891.91, -184924.72, -179018.17, -178495.58, -178835.91, 0.69, 0.11, 0.78
75, -180329.55, 187500.00, -178949.48, -184894.89, -184927.73, -179057.83, -178530.58, -178869.67, 0.69, 0.11, 0.78
76, -180365.56, 187500.00, -178984.63, -184899.23, -184932.11, -179094.48, -178562.02, -178899.94, 0.69, 0.11, 0.78
77, -180381.66, 187500.00, -179000.05, -184901.33, -184934.08, -179112.38, -178574.47, -178911.00, 0.69, 0.11, 0.78
78, -180395.58, 187500.00, -179013.44, -184903.72, -184936.41, -179128.64, -178585.72, -178920.55, 0.69, 0.11, 0.79
79, -180430.67, 187500.00, -179047.66, -184907.30, -184940.05, -179164.56, -178617.75, -178950.11, 0.69, 0.11, 0.79
80, -180464.88, 187500.00, -179081.25, -184909.36, -184942.13, -179199.38, -178648.48, -178978.97, 0.69, 0.11, 0.79
81, -180477.56, 187500.00, -179093.14, -184909.52, -184942.19, -179213.23, -178657.80, -178986.91, 0.69, 0.11, 0.79
82, -180482.38, 187500.00, -179096.72, -184911.59, -184944.11, -179219.66, -178659.23, -178986.66, 0.69, 0.11, 0.79
83, -180506.95, 187500.00, -179120.33, -184916.22, -184948.77, -179245.66, -178680.06, -179005.89, 0.69, 0.11, 0.79
84, -180539.03, 187500.00, -179151.66, -184919.27, -184951.73, -179278.28, -178707.73, -179031.77, 0.69, 0.11, 0.79
85, -180547.70, 187500.00, -179159.00, -184918.23, -184950.64, -179288.23, -178712.77, -179034.53, 0.69, 0.11, 0.79
86, -180545.94, 187500.00, -179156.06, -184917.88, -184950.28, -179288.09, -178707.17, -179027.63, 0.69, 0.11, 0.79
87, -180558.23, 187500.00, -179167.08, -184919.31, -184951.67, -179301.83, -178715.31, -179035.08, 0.69, 0.11, 0.79
88, -180583.45, 187500.00, -179191.56, -184923.63, -184955.94, -179328.42, -178736.97, -179054.95, 0.69, 0.11, 0.79
89, -180588.52, 187500.00, -179195.77, -184924.98, -184957.30, -179334.98, -178738.95, -179054.95, 0.69, 0.10, 0.78
90, -180579.94, 187500.00, -179186.64, -184926.66, -184958.91, -179328.20, -178726.98, -179042.30, 0.69, 0.10, 0.78
91, -180585.06, 187500.00, -179190.89, -184926.02, -184958.13, -179334.72, -178728.81, -179042.34, 0.69, 0.10, 0.78
92, -180615.02, 187500.00, -179219.20, -184929.44, -184961.48, -179365.19, -178755.52, -179066.34, 0.69, 0.10, 0.78
93, -180630.50, 187500.00, -179233.41, -184929.78, -184961.94, -179381.48, -178767.50, -179075.95, 0.69, 0.10, 0.78
94, -180628.27, 187500.00, -179230.41, -184930.84, -184962.91, -179380.55, -178760.97, -179068.02, 0.69, 0.10, 0.78
95, -180631.66, 187500.00, -179233.17, -184931.91, -184963.98, -179386.42, -178761.00, -179066.33, 0.69, 0.10, 0.78
96, -180659.00, 187500.00, -179259.73, -184934.89, -184966.95, -179414.36, -178785.14, -179088.19, 0.69, 0.10, 0.78
97, -180677.19, 187500.00, -179277.53, -184936.73, -184968.80, -179434.09, -178799.84, -179101.75, 0.69, 0.10, 0.78
98, -180679.02, 187500.00, -179278.31, -184937.70, -184969.63, -179437.00, -178797.55, -179097.39, 0.69, 0.10, 0.78
99, -180680.95, 187500.00, -179279.25, -184937.50, -184969.38, -179440.16, -178795.08, -179093.84, 0.70, 0.11, 0.78
100, -180709.47, 187500.00, -179306.81, -184940.50, -184972.28, -179469.89, -178819.73, -179117.42, 0.70, 0.11, 0.78
101, -180735.11, 187500.00, -179332.17, -184943.33, -184975.13, -179497.28, -178841.58, -179137.98, 0.70, 0.11, 0.78
102, -180741.88, 187500.00, -179337.88, -184944.00, -184975.86, -179505.38, -178845.52, -179139.72, 0.70, 0.11, 0.78
103, -180745.92, 187500.00, -179341.52, -184943.94, -184975.78, -179511.19, -178846.16, -179137.98, 0.70, 0.11, 0.78
104, -180769.34, 187500.00, -179364.52, -184946.00, -184977.88, -179536.38, -178865.41, -179155.73, 0.70, 0.10, 0.79
105, -180795.91, 187500.00, -179391.09, -184949.72, -184981.48, -179564.28, -178888.78, -179178.22, 0.70, 0.10, 0.79
106, -180803.02, 187500.00, -179397.11, -184950.70, -184982.36, -179572.17, -178892.30, -179179.80, 0.70, 0.10, 0.79
107, -180802.89, 187500.00, -179394.72, -184949.53, -184981.06, -179572.20, -178886.75, -179172.72, 0.70, 0.10, 0.79
108, -180825.67, 187500.00, -179416.03, -184951.20, -184982.72, -179595.19, -178905.23, -179189.64, 0.70, 0.10, 0.79
109, -180858.27, 187500.00, -179447.58, -184958.52, -184989.98, -179629.09, -178933.91, -179216.08, 0.69, 0.11, 0.79
110, -180871.34, 187500.00, -179459.09, -184959.42, -184990.83, -179643.16, -178942.63, -179223.36, 0.69, 0.11, 0.79
111, -180875.11, 187500.00, -179462.02, -184961.44, -184992.75, -179647.72, -178942.11, -179221.41, 0.69, 0.11, 0.79
112, -180893.98, 187500.00, -179479.66, -184962.94, -184994.00, -179668.33, -178957.02, -179234.63, 0.69, 0.11, 0.79
113, -180933.83, 187500.00, -179517.36, -184966.20, -184997.41, -179707.69, -178992.89, -179268.50, 0.69, 0.11, 0.79
114, -180955.94, 187500.00, -179537.61, -184967.86, -184999.03, -179729.52, -179010.69, -179284.81, 0.69, 0.10, 0.79
115, -180962.31, 187500.00, -179541.81, -184970.58, -185001.66, -179736.42, -179013.02, -179286.16, 0.69, 0.10, 0.79
116, -180980.69, 187500.00, -179559.64, -184972.59, -185003.69, -179755.77, -179027.61, -179299.27, 0.69, 0.10, 0.79
117, -181022.28, 187500.00, -179601.27, -184975.47, -185006.64, -179798.97, -179065.92, -179335.45, 0.69, 0.10, 0.79
118, -181050.23, 187500.00, -179628.52, -184977.94, -185009.05, -179828.67, -179089.92, -179358.22, 0.69, 0.10, 0.79
119, -181059.61, 187500.00, -179636.58, -184979.66, -185010.67, -179839.56, -179095.45, -179361.23, 0.69, 0.11, 0.79
120, -181072.06, 187500.00, -179647.56, -184982.05, -185012.95, -179853.34, -179104.05, -179368.88, 0.69, 0.11, 0.79
121, -181109.52, 187500.00, -179684.02, -184985.52, -185016.30, -179891.91, -179137.95, -179401.06, 0.69, 0.11, 0.79
122, -181138.17, 187500.00, -179711.63, -184986.42, -185017.41, -179921.64, -179161.88, -179424.44, 0.69, 0.11, 0.79
123, -181146.84, 187500.00, -179718.56, -184989.38, -185020.42, -179930.02, -179165.63, -179427.23, 0.69, 0.11, 0.79
124, -181152.25, 187500.00, -179722.19, -184989.25, -185020.16, -179937.17, -179167.58, -179425.92, 0.70, 0.11, 0.78
125, -181180.97, 187500.00, -179748.83, -184991.80, -185022.64, -179967.20, -179192.19, -179448.98, 0.70, 0.11, 0.78
126, -181209.47, 187500.00, -179776.23, -184995.34, -185026.27, -179996.84, -179216.55, -179472.47, 0.70, 0.11, 0.78
127, -181215.95, 187500.00, -179781.91, -184996.83, -185027.80, -180004.00, -179218.78, -179473.86, 0.70, 0.11, 0.78
128, -181216.00, 187500.00, -179780.75, -184997.38, -185028.22, -180005.50, -179214.77, -179467.77, 0.70, 0.11, 0.78
129, -181237.11, 187500.00, -179800.58, -184999.14, -185029.88, -180027.45, -179231.38, -179483.08, 0.69, 0.11, 0.78
130, -181262.83, 187500.00, -179825.41, -185001.84, -185032.47, -180053.31, -179253.19, -179503.75, 0.69, 0.11, 0.78
131, -181268.75, 187500.00, -179829.77, -185002.50, -185033.14, -180059.66, -179254.66, -179503.55, 0.69, 0.11, 0.78
132, -181265.47, 187500.00, -179825.39, -185001.30, -185031.88, -180057.84, -179247.44, -179495.16, 0.69, 0.11, 0.78
133, -181278.63, 187500.00, -179838.31, -185004.08, -185034.63, -180072.89, -179257.28, -179503.30, 0.69, 0.11, 0.78
134, -181306.39, 187500.00, -179864.48, -185007.34, -185037.95, -180101.75, -179281.55, -179525.22, 0.69, 0.11, 0.78
135, -181313.75, 187500.00, -179870.72, -185007.03, -185037.59, -180110.66, -179284.61, -179526.81, 0.69, 0.11, 0.78
136, -181305.98, 187500.00, -179862.72, -185008.11, -185038.55, -180104.89, -179273.50, -179514.45, 0.69, 0.11, 0.78
137, -181314.97, 187500.00, -179870.06, -185009.31, -185039.73, -180114.69, -179279.09, -179518.31, 0.69, 0.11, 0.78
138, -181345.03, 187500.00, -179897.81, -185011.13, -185041.48, -180145.36, -179305.17, -179542.22, 0.69, 0.11, 0.78
139, -181358.92, 187500.00, -179910.91, -185013.14, -185043.36, -180160.47, -179315.41, -179550.39, 0.69, 0.11, 0.78
140, -181357.59, 187500.00, -179909.16, -185012.78, -185042.94, -180160.13, -179309.88, -179543.11, 0.69, 0.11, 0.78
141, -181362.27, 187500.00, -179912.02, -185014.75, -185044.88, -180165.42, -179309.83, -179541.61, 0.69, 0.11, 0.78
142, -181394.59, 187500.00, -179942.02, -185018.23, -185048.44, -180198.45, -179337.36, -179567.67, 0.69, 0.11, 0.78
143, -181417.56, 187500.00, -179963.36, -185020.22, -185050.31, -180223.06, -179357.13, -179585.33, 0.69, 0.11, 0.78
144, -181421.13, 187500.00, -179966.77, -185020.94, -185051.09, -180228.08, -179356.84, -179583.50, 0.69, 0.11, 0.78
145, -181429.39, 187500.00, -179973.52, -185021.81, -185051.89, -180237.36, -179360.77, -179585.73, 0.69, 0.11, 0.78
146, -181463.66, 187500.00, -180007.11, -185025.45, -185055.50, -180271.48, -179391.23, -179614.66, 0.69, 0.11, 0.78
147, -181494.61, 187500.00, -180037.75, -185027.53, -185057.48, -180302.55, -179417.78, -179639.94, 0.69, 0.11, 0.78
148, -181508.47, 187500.00, -180049.94, -185031.69, -185061.42, -180317.13, -179426.66, -179647.58, 0.69, 0.11, 0.78
149, -181518.02, 187500.00, -180056.58, -185033.61, -185063.31, -180327.55, -179431.50, -179650.22, 0.69, 0.11, 0.78
150, -181549.80, 187500.00, -180086.34, -185036.14, -185065.84, -180359.58, -179458.11, -179675.20, 0.69, 0.11, 0.79
151, -181584.52, 187500.00, -180119.89, -185038.17, -185067.91, -180394.47, -179489.27, -179704.36, 0.69, 0.11, 0.79
152, -181598.44, 187500.00, -180131.94, -185040.14, -185069.75, -180409.16, -179499.34, -179712.69, 0.69, 0.11, 0.79
153, -181607.41, 187500.00, -180139.28, -185043.09, -185072.69, -180419.08, -179503.70, -179715.48, 0.69, 0.11, 0.79
154, -181636.44, 187500.00, -180167.55, -185047.47, -185077.02, -180448.78, -179529.11, -179738.80, 0.69, 0.11, 0.79
155, -181674.28, 187500.00, -180203.69, -185048.77, -185078.27, -180486.58, -179563.05, -179771.13, 0.70, 0.11, 0.79
156, -181692.09, 187500.00, -180219.52, -185048.98, -185078.41, -180505.22, -179575.36, -179783.05, 0.70, 0.11, 0.79
157, -181696.66, 187500.00, -180221.94, -185049.23, -185078.67, -180511.44, -179575.05, -179781.31, 0.70, 0.11, 0.79
158, -181716.03, 187500.00, -180240.19, -185053.48, -185082.81, -180531.70, -179590.61, -179795.22, 0.70, 0.11, 0.79
159, -181752.63, 187500.00, -180274.44, -185057.00, -185086.39, -180568.53, -179622.66, -179825.67, 0.70, 0.11, 0.79
160, -181767.38, 187500.00, -180287.91, -185058.92, -185088.20, -180584.91, -179634.13, -179835.45, 0.70, 0.11, 0.79
161, -181769.14, 187500.00, -180289.28, -185060.34, -185089.63, -180587.89, -179632.41, -179831.88, 0.70, 0.11, 0.79
162, -181783.11, 187500.00, -180301.92, -185061.31, -185090.52, -180602.58, -179642.08, -179839.22, 0.70, 0.11, 0.79
163, -181818.78, 187500.00, -180335.81, -185066.89, -185096.06, -180638.64, -179673.52, -179868.33, 0.70, 0.11, 0.79
164, -181838.61, 187500.00, -180354.61, -185069.44, -185098.64, -180658.91, -179688.44, -179881.72, 0.70, 0.11, 0.79
165, -181840.36, 187500.00, -180354.25, -185068.86, -185098.09, -180661.08, -179685.38, -179877.52, 0.70, 0.11, 0.78
166, -181846.02, 187500.00, -180357.22, -185068.45, -185097.66, -180667.52, -179686.70, -179876.97, 0.70, 0.11, 0.78
167, -181875.72, 187500.00, -180384.70, -185071.39, -185100.44, -180698.00, -179711.89, -179900.05, 0.70, 0.11, 0.78
168, -181895.72, 187500.00, -180404.08, -185073.20, -185102.19, -180718.81, -179727.64, -179913.97, 0.70, 0.11, 0.78
169, -181897.11, 187500.00, -180404.48, -185073.59, -185102.56, -180721.61, -179725.16, -179910.64, 0.70, 0.11, 0.78
170, -181898.94, 187500.00, -180405.06, -185074.38, -185103.33, -180725.20, -179722.45, -179907.27, 0.70, 0.11, 0.78
171, -181927.53, 187500.00, -180432.17, -185075.86, -185104.78, -180754.45, -179746.67, -179929.45, 0.70, 0.11, 0.78
172, -181955.53, 187500.00, -180458.05, -185079.17, -185108.14, -180783.20, -179770.25, -179950.95, 0.70, 0.11, 0.78
173, -181961.55, 187500.00, -180462.33, -185081.47, -185110.34, -180790.41, -179772.64, -179951.88, 0.70, 0.11, 0.78
174, -181962.42, 187500.00, -180461.92, -185083.33, -185112.16, -180792.44, -179769.70, -179946.89, 0.70, 0.11, 0.78
175, -181985.61, 187500.00, -180483.61, -185084.31, -185113.14, -180816.08, -179788.00, -179963.44, 0.70, 0.11, 0.78
176, -182014.70, 187500.00, -180511.34, -185087.80, -185116.66, -180846.30, -179812.48, -179986.64, 0.70, 0.11, 0.78
177, -182024.84, 187500.00, -180519.66, -185089.98, -185118.73, -180856.67, -179818.69, -179990.52, 0.70, 0.11, 0.78
178, -182027.14, 187500.00, -180520.23, -185091.48, -185120.19, -180860.47, -179816.33, -179986.88, 0.70, 0.11, 0.78
179, -182048.34, 187500.00, -180539.34, -185092.08, -185120.67, -180883.31, -179833.44, -180002.64, 0.70, 0.11, 0.78
180, -182083.16, 187500.00, -180572.78, -185092.42, -185121.05, -180917.63, -179862.56, -180030.28, 0.69, 0.11, 0.78
181, -182097.22, 187500.00, -180584.78, -185094.36, -185122.91, -180931.05, -179870.78, -180037.13, 0.69, 0.11, 0.78
182, -182097.84, 187500.00, -180583.53, -185097.14, -185125.52, -180932.56, -179866.84, -180031.69, 0.69, 0.11, 0.78
183, -182112.08, 187500.00, -180596.28, -185099.13, -185127.52, -180947.45, -179876.97, -180040.09, 0.69, 0.11, 0.78
184, -182145.03, 187500.00, -180627.34, -185102.14, -185130.58, -180980.14, -179904.98, -180066.97, 0.69, 0.11, 0.78
185, -182159.95, 187500.00, -180640.63, -185102.75, -185131.09, -180995.41, -179914.70, -180075.58, 0.69, 0.11, 0.78
186, -182161.03, 187500.00, -180639.45, -185104.78, -185133.08, -180997.73, -179911.67, -180070.88, 0.69, 0.11, 0.79
187, -182170.95, 187500.00, -180648.31, -185108.00, -185136.16, -181009.27, -179917.95, -180075.53, 0.69, 0.11, 0.79
188, -182208.48, 187500.00, -180683.89, -185109.14, -185137.33, -181046.08, -179950.41, -180106.84, 0.69, 0.11, 0.79
189, -182232.36, 187500.00, -180706.00, -185110.30, -185138.47, -181070.30, -179969.53, -180124.52, 0.69, 0.11, 0.79
190, -182236.61, 187500.00, -180708.44, -185112.38, -185140.41, -181075.00, -179969.16, -180122.89, 0.69, 0.11, 0.79
191, -182244.77, 187500.00, -180715.70, -185113.66, -185141.66, -181083.97, -179973.05, -180125.17, 0.70, 0.11, 0.79
192, -182279.13, 187500.00, -180747.53, -185117.28, -185145.22, -181118.45, -180002.53, -180152.47, 0.70, 0.11, 0.79
193, -182311.08, 187500.00, -180776.56, -185120.03, -185147.89, -181150.00, -180028.81, -180177.52, 0.70, 0.11, 0.79
194, -182323.31, 187500.00, -180787.61, -185122.14, -185149.95, -181163.05, -180036.98, -180184.22, 0.70, 0.11, 0.79
195, -182333.86, 187500.00, -180797.06, -185124.61, -185152.41, -181174.34, -180044.22, -180189.19, 0.70, 0.11, 0.79
196, -182371.56, 187500.00, -180833.23, -185126.02, -185153.81, -181211.22, -180076.98, -180220.56, 0.69, 0.11, 0.79
197, -182408.88, 187500.00, -180868.48, -185128.89, -185156.64, -181248.13, -180108.83, -180250.86, 0.69, 0.11, 0.79
198, -182424.83, 187500.00, -180882.06, -185131.06, -185158.67, -181265.00, -180120.44, -180260.48, 0.69, 0.11, 0.79
199, -182431.95, 187500.00, -180887.55, -185131.72, -185159.16, -181273.45, -180123.47, -180262.56, 0.69, 0.11, 0.79
200, -182457.63, 187500.00, -180911.92, -185133.28, -185160.81, -181299.48, -180144.70, -180282.14, 0.69, 0.11, 0.79
201, -182493.41, 187500.00, -180944.55, -185138.08, -185165.63, -181334.36, -180174.23, -180309.55, 0.69, 0.11, 0.79
202, -182506.22, 187500.00, -180954.84, -185137.50, -185164.89, -181347.34, -180181.86, -180316.03, 0.69, 0.11, 0.79
203, -182507.84, 187500.00, -180953.72, -185139.53, -185166.92, -181349.36, -180178.14, -180310.53, 0.69, 0.11, 0.79
204, -182525.69, 187500.00, -180970.36, -185142.75, -185170.16, -181368.67, -180192.03, -180322.22, 0.69, 0.11, 0.79
205, -182555.11, 187500.00, -180998.39, -185143.92, -185171.28, -181398.06, -180216.75, -180345.58, 0.69, 0.11, 0.79
206, -182564.13, 187500.00, -181006.20, -185143.66, -185170.94, -181407.84, -180221.27, -180348.47, 0.69, 0.11, 0.80
207, -182557.75, 187500.00, -180997.20, -185145.91, -185173.11, -181401.97, -180209.95, -180336.42, 0.69, 0.11, 0.80
208, -182560.80, 187500.00, -180997.78, -185148.67, -185175.86, -181406.02, -180209.09, -180334.50, 0.69, 0.11, 0.80
209, -182587.73, 187500.00, -181022.48, -185152.19, -185179.45, -181433.13, -180230.58, -180354.81, 0.69, 0.11, 0.80
210, -182597.30, 187500.00, -181031.05, -185153.50, -185180.59, -181443.67, -180236.02, -180358.20, 0.69, 0.11, 0.80
211, -182592.88, 187500.00, -181025.45, -185153.39, -185180.38, -181440.69, -180227.81, -180348.11, 0.69, 0.12, 0.79
212, -182597.08, 187500.00, -181028.31, -185154.33, -185181.33, -181445.75, -180227.09, -180346.59, 0.69, 0.12, 0.79
213, -182628.47, 187500.00, -181056.05, -185157.80, -185184.78, -181476.52, -180252.75, -180370.30, 0.69, 0.12, 0.79
214, -182649.22, 187500.00, -181074.47, -185159.44, -185186.41, -181497.56, -180268.02, -180384.27, 0.69, 0.12, 0.79
215, -182650.17, 187500.00, -181074.25, -185157.08, -185183.91, -181499.75, -180264.11, -180379.69, 0.69, 0.12, 0.79
216, -182652.97, 187500.00, -181075.39, -185157.95, -185184.69, -181503.63, -180263.11, -180376.17, 0.69, 0.11, 0.79
217, -182684.41, 187500.00, -181104.94, -185163.31, -185190.09, -181535.41, -180290.14, -180401.95, 0.69, 0.11, 0.79
218, -182714.55, 187500.00, -181132.56, -185168.28, -185195.06, -181565.56, -180315.58, -180425.72, 0.69, 0.11, 0.79
219, -182726.69, 187500.00, -181141.61, -185169.94, -185196.73, -181577.81, -180322.09, -180430.52, 0.69, 0.11, 0.79
220, -182737.81, 187500.00, -181150.02, -185167.95, -185194.64, -181588.03, -180327.72, -180435.45, 0.69, 0.11, 0.79
221, -182771.91, 187500.00, -181181.80, -185171.88, -185198.53, -181621.97, -180356.31, -180462.84, 0.69, 0.11, 0.78
222, -182810.31, 187500.00, -181218.11, -185176.42, -185203.02, -181659.42, -180388.61, -180493.70, 0.69, 0.11, 0.78
223, -182827.55, 187500.00, -181233.39, -185176.39, -185203.03, -181677.30, -180400.98, -180503.89, 0.69, 0.11, 0.78
224, -182833.39, 187500.00, -181237.48, -185177.05, -185203.53, -181685.02, -180403.20, -180504.48, 0.69, 0.11, 0.78
225, -182859.33, 187500.00, -181260.66, -185178.66, -185205.08, -181710.44, -180424.48, -180523.97, 0.69, 0.11, 0.78
226, -182896.89, 187500.00, -181295.47, -185182.50, -185208.83, -181746.98, -180456.17, -180554.03, 0.69, 0.11, 0.79
227, -182914.69, 187500.00, -181309.41, -185183.13, -185209.55, -181764.05, -180468.52, -180563.89, 0.69, 0.11, 0.79
228, -182922.94, 187500.00, -181315.48, -185183.23, -185209.52, -181772.78, -180471.95, -180565.83, 0.69, 0.11, 0.79
229, -182946.00, 187500.00, -181336.66, -185187.06, -185213.34, -181795.97, -180490.67, -180583.11, 0.69, 0.11, 0.79
230, -182985.09, 187500.00, -181372.22, -185192.75, -185219.06, -181833.64, -180523.39, -180614.22, 0.69, 0.11, 0.79
231, -183003.41, 187500.00, -181387.89, -185195.31, -185221.45, -181852.63, -180536.27, -180625.72, 0.69, 0.11, 0.79
232, -183003.42, 187500.00, -181386.77, -185193.06, -185219.02, -181854.34, -180532.08, -180620.42, 0.69, 0.11, 0.79
233, -183015.86, 187500.00, -181396.84, -185195.42, -185221.39, -181866.70, -180539.34, -180625.98, 0.69, 0.11, 0.79
234, -183053.19, 187500.00, -181431.27, -185200.80, -185226.80, -181902.58, -180570.66, -180655.42, 0.69, 0.11, 0.79
235, -183074.44, 187500.00, -181449.91, -185204.64, -185230.59, -181923.05, -180586.31, -180669.88, 0.69, 0.11, 0.79
236, -183078.45, 187500.00, -181451.83, -185204.47, -185230.22, -181928.03, -180585.70, -180667.28, 0.69, 0.11, 0.79
237, -183086.73, 187500.00, -181457.78, -185202.22, -185228.05, -181937.20, -180589.06, -180668.78, 0.69, 0.11, 0.78
238, -183118.72, 187500.00, -181485.97, -185205.70, -185231.67, -181967.98, -180615.50, -180693.31, 0.69, 0.11, 0.78
239, -183142.30, 187500.00, -181507.11, -185207.70, -185233.53, -181991.89, -180633.78, -180710.39, 0.69, 0.11, 0.78
240, -183143.70, 187500.00, -181506.47, -185208.83, -185234.52, -181994.67, -180630.56, -180706.27, 0.69, 0.11, 0.78
241, -183144.16, 187500.00, -181505.86, -185211.08, -185236.75, -181996.38, -180626.75, -180701.27, 0.69, 0.11, 0.78
242, -183173.30, 187500.00, -181532.19, -185212.22, -185237.86, -182024.95, -180650.08, -180722.45, 0.69, 0.11, 0.78
243, -183202.95, 187500.00, -181558.25, -185215.69, -185241.28, -182053.75, -180674.20, -180744.48, 0.69, 0.11, 0.78
244, -183213.83, 187500.00, -181566.81, -185217.59, -185243.23, -182064.83, -180679.94, -180748.69, 0.69, 0.11, 0.78
245, -183217.41, 187500.00, -181570.23, -185217.23, -185242.73, -182070.13, -180679.41, -180746.45, 0.69, 0.11, 0.78
246, -183244.67, 187500.00, -181594.73, -185218.53, -185243.97, -182096.50, -180700.38, -180765.69, 0.69, 0.11, 0.78
247, -183278.86, 187500.00, -181625.17, -185221.44, -185246.84, -182128.75, -180727.92, -180791.83, 0.69, 0.11, 0.78
248, -183289.42, 187500.00, -181632.61, -185223.92, -185249.28, -182138.59, -180733.47, -180796.27, 0.69, 0.11, 0.78
249, -183291.47, 187500.00, -181633.11, -185225.23, -185250.63, -182141.98, -180731.23, -180792.55, 0.69, 0.11, 0.78
250, -183309.72, 187500.00, -181649.11, -185225.91, -185251.19, -182160.61, -180744.52, -180804.08, 0.69, 0.11, 0.78
251, -183344.00, 187500.00, -181679.58, -185229.41, -185254.73, -182193.27, -180772.45, -180830.13, 0.69, 0.11, 0.78
252, -183358.75, 187500.00, -181691.63, -185232.31, -185257.55, -182208.00, -180781.53, -180837.39, 0.69, 0.11, 0.79
253, -183358.73, 187500.00, -181688.88, -185232.52, -185257.72, -182208.22, -180776.70, -180831.11, 0.69, 0.11, 0.79
254, -183372.78, 187500.00, -181700.16, -185235.77, -185260.84, -182222.50, -180785.86, -180838.66, 0.69, 0.11, 0.79
255, -183407.17, 187500.00, -181731.61, -185238.98, -185264.02, -182255.83, -180813.94, -180865.22, 0.69, 0.11, 0.79
0, -183423.86, 187500.00, -181744.95, -185239.20, -185264.17, -182272.34, -180824.84, -180874.84, 0.69, 0.11, 0.79
1, -183425.06, 187500.00, -181743.39, -185240.09, -185264.94, -182274.47, -180821.36, -180870.13, 0.69, 0.11, 0.79
2, -183434.66, 187500.00, -181751.28, -185241.47, -185266.25, -182284.81, -180826.45, -180873.78, 0.69, 0.11, 0.79
3, -183473.73, 187500.00, -181785.77, -185245.06, -185269.94, -182322.08, -180858.73, -180903.70, 0.69, 0.11, 0.79
4, -183501.73, 187500.00, -181809.80, -185248.23, -185273.06, -182348.86, -180880.06, -180923.66, 0.69, 0.11, 0.79
5, -183508.73, 187500.00, -181815.19, -185248.02, -185272.69, -182356.09, -180882.06, -180924.02, 0.69, 0.11, 0.79
6, -183521.05, 187500.00, -181825.59, -185249.95, -185274.63, -182368.41, -180888.91, -180929.08, 0.69, 0.11, 0.79
7, -183559.06, 187500.00, -181859.42, -185252.73, -185277.33, -182404.89, -180920.11, -180958.88, 0.69, 0.11, 0.79
8, -183591.95, 187500.00, -181888.25, -185256.70, -185281.34, -182436.20, -180946.00, -180983.83, 0.69, 0.11, 0.79
9, -183604.83, 187500.00, -181897.27, -185257.98, -185282.52, -182448.14, -180952.36, -180988.17, 0.69, 0.11, 0.79
10, -183613.19, 187500.00, -181903.50, -185258.00, -185282.59, -182457.22, -180955.33, -180990.52, 0.69, 0.11, 0.79
11, -183648.44, 187500.00, -181934.50, -185263.14, -185287.55, -182490.41, -180983.16, -181017.41, 0.70, 0.10, 0.79
12, -183689.00, 187500.00, -181969.95, -185266.23, -185290.50, -182528.14, -181015.75, -181048.36, 0.70, 0.10, 0.79
13, -183705.97, 187500.00, -181983.11, -185266.92, -185291.23, -182544.50, -181027.38, -181057.63, 0.70, 0.10, 0.79
14, -183713.16, 187500.00, -181987.98, -185268.23, -185292.42, -182551.97, -181029.50, -181057.55, 0.70, 0.10, 0.79
15, -183740.55, 187500.00, -182011.17, -185270.94, -185295.22, -182578.25, -181050.55, -181076.86, 0.70, 0.10, 0.79
16, -183777.58, 187500.00, -182043.89, -185274.50, -185298.72, -182612.97, -181080.13, -181105.25, 0.70, 0.11, 0.79
17, -183791.50, 187500.00, -182055.89, -185277.00, -185301.05, -182626.36, -181088.13, -181112.00, 0.70, 0.11, 0.79
18, -183793.06, 187500.00, -182055.72, -185275.59, -185299.53, -182628.77, -181084.81, -181107.17, 0.70, 0.11, 0.79
19, -183810.17, 187500.00, -182070.58, -185276.20, -185300.22, -182646.41, -181096.86, -181117.03, 0.70, 0.11, 0.79
20, -183846.27, 187500.00, -182102.09, -185279.45, -185303.67, -182679.97, -181125.80, -181144.08, 0.70, 0.11, 0.79
21, -183861.80, 187500.00, -182113.45, -185281.47, -185305.59, -182694.30, -181134.86, -181151.39, 0.69, 0.10, 0.79
22, -183861.23, 187500.00, -182110.94, -185282.00, -185305.98, -182694.69, -181129.28, -181145.06, 0.69, 0.10, 0.79
23, -183871.19, 187500.00, -182119.80, -185282.30, -185306.23, -182705.86, -181134.86, -181149.03, 0.69, 0.10, 0.79
24, -183903.00, 187500.00, -182147.69, -185286.55, -185310.39, -182736.77, -181160.59, -181173.00, 0.69, 0.10, 0.79
25, -183920.77, 187500.00, -182161.70, -185289.86, -185313.59, -182753.48, -181171.41, -181182.70, 0.69, 0.10, 0.79
26, -183920.70, 187500.00, -182159.42, -185290.80, -185314.48, -182754.58, -181166.42, -181176.06, 0.70, 0.10, 0.78
27, -183926.38, 187500.00, -182163.14, -185290.64, -185314.34, -182761.52, -181168.13, -181175.50, 0.70, 0.10, 0.78
28, -183960.73, 187500.00, -182193.53, -185293.70, -185317.45, -182794.91, -181195.55, -181202.02, 0.70, 0.10, 0.78
29, -183985.06, 187500.00, -182213.66, -185296.63, -185320.28, -182817.11, -181211.64, -181216.97, 0.70, 0.10, 0.78
30, -183988.77, 187500.00, -182214.56, -185295.63, -185319.25, -182820.33, -181210.86, -181213.44, 0.70, 0.10, 0.78
31, -183991.44, 187500.00, -182215.08, -185295.94, -185319.47, -182824.03, -181209.63, -181210.55, 0.70, 0.10, 0.78
32, -184019.69, 187500.00, -182239.89, -185299.53, -185322.98, -182850.67, -181230.94, -181230.89, 0.69, 0.10, 0.78
33, -184047.66, 187500.00, -182262.89, -185302.03, -185325.39, -182876.53, -181251.66, -181249.97, 0.69, 0.10, 0.78
34, -184051.72, 187500.00, -182265.94, -185303.67, -185326.84, -182882.45, -181251.16, -181249.31, 0.69, 0.10, 0.78
35, -184049.80, 187500.00, -182262.36, -185304.67, -185327.84, -182882.14, -181244.50, -181241.28, 0.69, 0.10, 0.78
36, -184075.64, 187500.00, -182284.73, -185307.52, -185330.78, -182907.66, -181264.23, -181258.27, 0.69, 0.10, 0.78
37, -184109.66, 187500.00, -182313.50, -185309.61, -185332.80, -182939.64, -181290.41, -181282.25, 0.70, 0.11, 0.79
38, -184122.36, 187500.00, -182323.44, -185308.06, -185331.06, -182952.36, -181297.27, -181287.59, 0.70, 0.11, 0.79
39, -184126.83, 187500.00, -182326.89, -185308.73, -185331.70, -182957.41, -181297.39, -181285.20, 0.70, 0.11, 0.79
40, -184150.92, 187500.00, -182347.89, -185311.91, -185334.88, -182981.47, -181316.61, -181302.81, 0.70, 0.11, 0.79
41, -184192.38, 187500.00, -182384.44, -185317.02, -185340.02, -183020.59, -181350.17, -181334.64, 0.70, 0.11, 0.79
42, -184212.92, 187500.00, -182401.53, -185318.44, -185341.27, -183040.27, -181364.22, -181347.78, 0.69, 0.11, 0.79
43, -184221.42, 187500.00, -182407.23, -185318.34, -185341.08, -183048.31, -181366.83, -181349.22, 0.69, 0.11, 0.79
44, -184245.92, 187500.00, -182428.89, -185322.47, -185345.17, -183073.00, -181385.70, -181366.09, 0.69, 0.11, 0.79
45, -184291.00, 187500.00, -182468.66, -185326.17, -185348.91, -183116.22, -181422.20, -181400.92, 0.69, 0.11, 0.79
46, -184315.98, 187500.00, -182489.97, -185327.41, -185350.16, -183140.11, -181439.70, -181416.83, 0.69, 0.11, 0.79
47, -184325.05, 187500.00, -182496.36, -185329.39, -185352.19, -183149.27, -181444.39, -181419.38, 0.69, 0.11, 0.79
48, -184344.11, 187500.00, -182512.36, -185331.63, -185354.20, -183168.16, -181458.34, -181431.81, 0.69, 0.11, 0.79
49, -184389.61, 187500.00, -182553.78, -185337.97, -185360.58, -183212.33, -181496.20, -181469.00, 0.69, 0.11, 0.79
50, -184421.05, 187500.00, -182581.69, -185341.53, -185364.02, -183242.98, -181520.23, -181491.67, 0.69, 0.11, 0.79
51, -184434.83, 187500.00, -182592.73, -185342.77, -185365.16, -183257.00, -181528.44, -181498.14, 0.69, 0.11, 0.79
52, -184450.25, 187500.00, -182605.67, -185344.02, -185366.28, -183272.94, -181538.09, -181506.70, 0.69, 0.10, 0.79
53, -184490.20, 187500.00, -182642.41, -185346.84, -185369.17, -183312.73, -181571.39, -181538.14, 0.69, 0.10, 0.79
54, -184522.11, 187500.00, -182669.45, -185349.88, -185372.22, -183343.06, -181596.41, -181560.38, 0.69, 0.10, 0.79
55, -184528.02, 187500.00, -182672.78, -185351.52, -185373.78, -183350.14, -181597.86, -181559.92, 0.69, 0.10, 0.79
56, -184528.67, 187500.00, -182671.70, -185352.48, -185374.66, -183351.83, -181593.91, -181555.50, 0.69, 0.10, 0.79
57, -184551.59, 187500.00, -182692.63, -185354.20, -185376.52, -183376.36, -181612.45, -181572.02, 0.69, 0.10, 0.80
58, -184575.05, 187500.00, -182712.67, -185356.03, -185378.25, -183399.23, -181628.89, -181587.94, 0.69, 0.10, 0.80
59, -184574.03, 187500.00, -182707.98, -185357.11, -185379.28, -183397.44, -181622.25, -181579.47, 0.69, 0.10, 0.80
60, -184563.41, 187500.00, -182695.64, -185357.42, -185379.48, -183388.25, -181607.92, -181563.48, 0.69, 0.10, 0.80
61, -184572.19, 187500.00, -182703.80, -185359.45, -185381.52, -183399.19, -181612.91, -181566.83, 0.69, 0.10, 0.80
62, -184591.47, 187500.00, -182721.02, -185359.41, -185381.36, -183419.06, -181625.55, -181578.72, 0.70, 0.11, 0.79
63, -184591.63, 187500.00, -182717.59, -185359.45, -185381.31, -183419.61, -181619.39, -181571.59, 0.70, 0.11, 0.79
64, -184581.69, 187500.00, -182704.47, -185356.95, -185378.77, -183411.22, -181605.56, -181555.77, 0.70, 0.11, 0.79
65, -184589.44, 187500.00, -182710.84, -185359.08, -185380.75, -183420.36, -181610.13, -181558.45, 0.70, 0.11, 0.79
66, -184615.66, 187500.00, -182735.14, -185361.77, -185383.42, -183447.73, -181630.66, -181577.25, 0.70, 0.11, 0.79
67, -184627.58, 187500.00, -182743.75, -185364.98, -185386.61, -183459.25, -181636.22, -181580.97, 0.70, 0.11, 0.78
68, -184627.50, 187500.00, -182741.58, -185364.48, -185386.06, -183459.73, -181631.75, -181575.08, 0.70, 0.11, 0.78
69, -184640.41, 187500.00, -182754.20, -185364.89, -185386.34, -183474.20, -181640.66, -181582.38, 0.70, 0.11, 0.78
70, -184677.23, 187500.00, -182789.39, -185368.64, -185390.03, -183512.69, -181671.94, -181612.92, 0.70, 0.11, 0.78
71, -184702.36, 187500.00, -182810.95, -185371.38, -185392.83, -183537.95, -181690.27, -181629.89, 0.70, 0.11, 0.78
72, -184710.98, 187500.00, -182816.56, -185372.78, -185394.08, -183547.88, -181693.69, -181631.45, 0.71, 0.12, 0.78
73, -184729.31, 187500.00, -182834.52, -185376.63, -185397.81, -183569.13, -181709.81, -181645.80, 0.71, 0.12, 0.78
74, -184773.78, 187500.00, -182878.44, -185380.05, -185401.20, -183615.89, -181750.61, -181685.30, 0.71, 0.12, 0.78
75, -184810.08, 187500.00, -182912.75, -185384.72, -185405.86, -183653.61, -181780.72, -181713.91, 0.71, 0.12, 0.78
76, -184828.14, 187500.00, -182928.44, -185386.56, -185407.63, -183673.22, -181793.89, -181725.31, 0.71, 0.12, 0.78
77, -184845.98, 187500.00, -182945.11, -185386.53, -185407.42, -183693.42, -181807.56, -181737.58, 0.70, 0.11, 0.78
78, -184888.89, 187500.00, -182989.64, -185389.36, -185410.19, -183740.77, -181847.19, -181776.53, 0.70, 0.11, 0.78
79, -184928.72, 187500.00, -183028.19, -185394.80, -185415.72, -183782.05, -181882.13, -181809.22, 0.70, 0.11, 0.78
80, -184944.97, 187500.00, -183043.22, -185396.06, -185416.98, -183799.89, -181894.52, -181819.83, 0.70, 0.11, 0.78
81, -184956.92, 187500.00, -183053.56, -185397.30, -185418.27, -183814.44, -181902.20, -181826.03, 0.70, 0.11, 0.78
82, -184986.42, 187500.00, -183085.28, -185402.22, -185423.06, -183849.50, -181929.84, -181852.42, 0.70, 0.11, 0.78
83, -185020.78, 187500.00, -183119.44, -185405.33, -185426.16, -183887.03, -181959.95, -181880.27, 0.70, 0.11, 0.79
84, -185033.97, 187500.00, -183129.44, -185405.09, -185425.95, -183900.92, -181966.59, -181885.23, 0.70, 0.11, 0.79
85, -185034.17, 187500.00, -183126.70, -185404.78, -185425.45, -183901.56, -181961.14, -181878.64, 0.70, 0.11, 0.79
86, -185046.78, 187500.00, -183140.27, -185407.84, -185428.52, -183919.25, -181972.83, -181889.13, 0.70, 0.11, 0.79
87, -185072.19, 187500.00, -183165.41, -185410.64, -185431.19, -183947.83, -181994.41, -181909.53, 0.70, 0.11, 0.79
88, -185079.09, 187500.00, -183167.98, -185411.09, -185431.61, -183954.94, -181994.25, -181907.55, 0.69, 0.11, 0.78
89, -185073.73, 187500.00, -183158.41, -185413.09, -185433.55, -183949.33, -181982.98, -181893.73, 0.69, 0.11, 0.78
90, -185078.14, 187500.00, -183165.66, -185412.66, -185433.06, -183958.56, -181986.38, -181895.58, 0.69, 0.11, 0.78
91, -185101.42, 187500.00, -183190.08, -185413.55, -185433.91, -183987.11, -182007.28, -181914.69, 0.69, 0.11, 0.78
92, -185112.05, 187500.00, -183194.91, -185415.89, -185436.22, -183996.56, -182010.72, -181916.50, 0.69, 0.11, 0.78
93, -185106.66, 187500.00, -183185.75, -185415.94, -185436.02, -183990.02, -181999.72, -181903.98, 0.69, 0.11, 0.79
94, -185107.22, 187500.00, -183187.89, -185415.78, -185435.78, -183994.81, -181998.20, -181901.22, 0.69, 0.11, 0.79
95, -185130.69, 187500.00, -183212.28, -185419.38, -185439.45, -184024.08, -182019.22, -181920.23, 0.69, 0.11, 0.79
96, -185145.45, 187500.00, -183222.88, -185422.41, -185442.56, -184039.58, -182027.80, -181927.25, 0.69, 0.11, 0.79
97, -185145.53, 187500.00, -183220.34, -185421.70, -185441.70, -184039.83, -182021.95, -181920.44, 0.69, 0.11, 0.79
98, -185148.56, 187500.00, -183224.55, -185419.27, -185439.23, -184046.92, -182023.09, -181920.22, 0.70, 0.11, 0.79
99, -185177.92, 187500.00, -183258.48, -185422.16, -185441.95, -184084.30, -182053.25, -181948.94, 0.70, 0.11, 0.79
100, -185208.05, 187500.00, -183287.20, -185427.81, -185447.66, -184116.92, -182078.11, -181973.17, 0.70, 0.11, 0.79
101, -185218.34, 187500.00, -183295.72, -185431.50, -185451.23, -184128.28, -182083.73, -181977.09, 0.70, 0.11, 0.79
102, -185227.48, 187500.00, -183306.73, -185431.77, -185451.45, -184142.06, -182090.88, -181982.89, 0.70, 0.11, 0.79
103, -185259.88, 187500.00, -183346.02, -185434.41, -185454.11, -184186.50, -182126.61, -182016.38, 0.70, 0.11, 0.78
104, -185293.20, 187500.00, -183383.58, -185438.88, -185458.63, -184229.53, -182161.22, -182048.69, 0.70, 0.11, 0.78
105, -185307.52, 187500.00, -183401.28, -185441.33, -185461.22, -184250.27, -182175.52, -182061.05, 0.70, 0.11, 0.78
106, -185313.05, 187500.00, -183413.25, -185442.56, -185462.28, -184265.72, -182184.45, -182068.00, 0.70, 0.11, 0.78
107, -185323.72, 187500.00, -183447.00, -185447.98, -185467.66, -184303.92, -182214.14, -182096.84, 0.70, 0.11, 0.78
108, -185330.95, 187500.00, -183487.61, -185450.45, -185470.09, -184349.72, -182250.22, -182130.72, 0.70, 0.11, 0.78
109, -185334.38, 187500.00, -183502.45, -185452.58, -185472.22, -184369.13, -182261.58, -182140.73, 0.70, 0.11, 0.78
110, -185334.80, 187500.00, -183502.72, -185452.73, -185472.17, -184373.19, -182259.66, -182138.02, 0.70, 0.11, 0.78
111, -185338.72, 187500.00, -183521.03, -185455.56, -185474.97, -184395.06, -182274.94, -182151.95, 0.70, 0.11, 0.78
112, -185343.16, 187500.00, -183553.22, -185458.36, -185477.78, -184430.98, -182303.22, -182177.27, 0.70, 0.11, 0.78
113, -185345.73, 187500.00, -183564.72, -185460.38, -185479.70, -184446.86, -182311.39, -182183.91, 0.70, 0.11, 0.79
114, -185346.73, 187500.00, -183563.34, -185461.33, -185480.64, -184449.56, -182307.48, -182178.78, 0.70, 0.11, 0.79
115, -185347.98, 187500.00, -183574.73, -185462.08, -185481.30, -184464.89, -182315.42, -182185.70, 0.70, 0.11, 0.79
116, -185351.09, 187500.00, -183608.44, -185463.97, -185483.17, -184503.36, -182344.42, -182213.31, 0.70, 0.11, 0.79
117, -185353.05, 187500.00, -183622.33, -185465.50, -185484.58, -184521.84, -182354.48, -182222.45, 0.70, 0.11, 0.79
118, -185354.16, 187500.00, -183618.30, -185466.59, -185485.55, -184520.33, -182348.13, -182214.14, 0.70, 0.10, 0.79
119, -185354.77, 187500.00, -183624.06, -185466.92, -185485.86, -184529.22, -182351.19, -182215.48, 0.70, 0.10, 0.79
120, -185359.55, 187500.00, -183653.22, -185470.98, -185489.98, -184563.72, -182376.84, -182239.78, 0.70, 0.10, 0.79
121, -185362.11, 187500.00, -183671.44, -185473.14, -185492.05, -184586.17, -182391.61, -182253.61, 0.70, 0.10, 0.79
122, -185362.78, 187500.00, -183673.70, -185473.70, -185492.45, -184591.25, -182390.66, -182250.80, 0.70, 0.10, 0.79
123, -185362.86, 187500.00, -183679.95, -185473.52, -185492.22, -184600.23, -182393.27, -182251.64, 0.70, 0.11, 0.79
124, -185366.34, 187500.00, -183716.02, -185476.27, -185494.91, -184639.63, -182424.50, -182281.44, 0.70, 0.11, 0.79
125, -185369.58, 187500.00, -183743.36, -185479.06, -185497.64, -184671.72, -182447.61, -182302.75, 0.70, 0.11, 0.79
126, -185371.06, 187500.00, -183748.30, -185480.38, -185498.89, -184680.64, -182449.59, -182303.14, 0.70, 0.11, 0.79
127, -185371.33, 187500.00, -183748.56, -185480.58, -185498.97, -184684.80, -182447.63, -182299.17, 0.70, 0.11, 0.79
128, -185374.55, 187500.00, -183775.80, -185483.36, -185501.72, -184714.27, -182470.61, -182320.31, 0.70, 0.11, 0.79
129, -185379.75, 187500.00, -183808.58, -185488.20, -185506.47, -184751.20, -182498.72, -182347.45, 0.69, 0.11, 0.79
130, -185382.36, 187500.00, -183818.61, -185490.58, -185508.83, -184765.17, -182506.25, -182353.86, 0.69, 0.11, 0.79
131, -185384.09, 187500.00, -183820.61, -185492.20, -185510.44, -184770.38, -182505.83, -182350.86, 0.69, 0.11, 0.79
132, -185386.17, 187500.00, -183846.48, -185493.95, -185512.14, -184798.55, -182527.45, -182370.77, 0.69, 0.11, 0.79
133, -185388.06, 187500.00, -183880.08, -185495.47, -185513.61, -184835.55, -182555.97, -182398.30, 0.69, 0.11, 0.79
134, -185389.63, 187500.00, -183891.91, -185496.98, -185514.98, -184851.30, -182563.95, -182405.30, 0.70, 0.10, 0.79
135, -185391.22, 187500.00, -183889.06, -185498.53, -185516.36, -184852.20, -182558.67, -182398.83, 0.70, 0.10, 0.79
136, -185392.61, 187500.00, -183900.16, -185499.73, -185517.58, -184865.75, -182567.86, -182406.48, 0.70, 0.10, 0.79
137, -185394.17, 187500.00, -183934.72, -185500.81, -185518.64, -184903.34, -182598.38, -182434.08, 0.70, 0.10, 0.79
138, -185396.45, 187500.00, -183949.83, -185502.98, -185520.67, -184921.58, -182608.94, -182443.45, 0.70, 0.10, 0.79
139, -185397.30, 187500.00, -183951.05, -185503.89, -185521.47, -184926.14, -182606.92, -182440.61, 0.70, 0.11, 0.79
140, -185400.53, 187500.00, -183964.33, -185506.98, -185524.45, -184941.61, -182617.23, -182448.25, 0.70, 0.11, 0.79
141, -185404.67, 187500.00, -183999.42, -185510.86, -185528.39, -184978.58, -182647.56, -182476.89, 0.70, 0.11, 0.79
142, -185406.69, 187500.00, -184018.28, -185512.81, -185530.25, -185000.83, -182661.64, -182489.67, 0.70, 0.11, 0.79
143, -185407.27, 187500.00, -184018.98, -185513.34, -185530.67, -185004.88, -182659.88, -182486.23, 0.70, 0.11, 0.79
144, -185408.20, 187500.00, -184025.42, -185514.16, -185531.41, -185014.03, -182663.39, -182488.17, 0.69, 0.11, 0.78
145, -185412.11, 187500.00, -184058.09, -185517.81, -185535.09, -185048.61, -182692.78, -182516.09, 0.69, 0.11, 0.78
146, -185414.55, 187500.00, -184082.36, -185520.03, -185537.27, -185075.77, -182713.38, -182534.38, 0.69, 0.11, 0.78
147, -185414.78, 187500.00, -184089.91, -185520.20, -185537.42, -185086.20, -182716.36, -182536.19, 0.69, 0.11, 0.78
148, -185416.31, 187500.00, -184100.22, -185521.63, -185538.78, -185098.59, -182723.53, -182541.75, 0.69, 0.11, 0.78
149, -185419.09, 187500.00, -184138.06, -185524.17, -185541.25, -185135.16, -182756.34, -182573.42, 0.69, 0.11, 0.77
150, -185423.27, 187500.00, -184172.20, -185528.09, -185545.27, -185171.59, -182785.86, -182600.92, 0.69, 0.11, 0.77
151, -185426.91, 187500.00, -184181.47, -185531.56, -185548.66, -185184.67, -182792.58, -182606.58, 0.69, 0.11, 0.77
152, -185427.14, 187500.00, -184184.61, -185531.91, -185548.75, -185190.98, -182793.66, -182606.48, 0.69, 0.11, 0.77
153, -185431.89, 187500.00, -184214.28, -185536.42, -185553.30, -185219.00, -182818.02, -182629.70, 0.69, 0.11, 0.77
154, -185436.56, 187500.00, -184249.56, -185540.89, -185557.72, -185253.95, -182848.38, -182658.77, 0.69, 0.11, 0.78
155, -185435.83, 187500.00, -184261.72, -185540.13, -185556.86, -185268.55, -182856.86, -182664.91, 0.69, 0.11, 0.78
156, -185436.34, 187500.00, -184264.28, -185540.64, -185557.25, -185273.63, -182855.70, -182662.36, 0.69, 0.11, 0.78
157, -185440.19, 187500.00, -184284.30, -185544.48, -185560.94, -185292.00, -182872.84, -182676.64, 0.69, 0.11, 0.78
158, -185442.20, 187500.00, -184315.77, -185546.31, -185562.66, -185322.98, -182899.64, -182702.17, 0.69, 0.11, 0.78
159, -185445.53, 187500.00, -184324.91, -185549.48, -185565.78, -185335.77, -182905.81, -182706.02, 0.69, 0.12, 0.78
160, -185445.52, 187500.00, -184315.89, -185549.48, -185565.78, -185331.88, -182895.31, -182694.17, 0.69, 0.12, 0.78
161, -185447.17, 187500.00, -184322.31, -185551.08, -185567.23, -185338.00, -182899.31, -182696.36, 0.69, 0.12, 0.78
162, -185449.48, 187500.00, -184351.64, -185553.30, -185569.31, -185364.84, -182923.70, -182718.52, 0.69, 0.12, 0.78
163, -185449.53, 187500.00, -184362.88, -185553.36, -185569.30, -185379.48, -182930.89, -182724.30, 0.69, 0.12, 0.78
164, -185450.20, 187500.00, -184361.05, -185553.97, -185569.81, -185381.25, -182925.98, -182718.42, 0.69, 0.11, 0.78
165, -185452.44, 187500.00, -184369.31, -185556.11, -185572.06, -185389.44, -182930.78, -182722.48, 0.69, 0.11, 0.78
166, -185457.64, 187500.00, -184400.67, -185561.14, -185577.61, -185418.59, -182958.39, -182748.39, 0.69, 0.11, 0.78
167, -185457.92, 187500.00, -184419.34, -185561.25, -185578.14, -185438.58, -182973.45, -182762.36, 0.69, 0.11, 0.78
168, -185458.92, 187500.00, -184419.23, -185562.20, -185579.06, -185441.98, -182970.97, -182757.47, 0.69, 0.11, 0.78
169, -185459.30, 187500.00, -184425.72, -185562.52, -185579.42, -185448.66, -182975.05, -182759.25, 0.69, 0.11, 0.79
170, -185462.67, 187500.00, -184460.72, -185565.61, -185583.33, -185478.53, -183005.48, -182788.00, 0.69, 0.11, 0.79
171, -185466.30, 187500.00, -184488.44, -185569.00, -185587.33, -185504.52, -183029.36, -182809.53, 0.69, 0.11, 0.79
172, -185468.72, 187500.00, -184500.03, -185571.33, -185589.80, -185516.25, -183036.66, -182815.83, 0.69, 0.11, 0.79
173, -185469.16, 187500.00, -184510.20, -185571.70, -185590.08, -185522.88, -183044.31, -182822.09, 0.69, 0.11, 0.79
174, -185471.22, 187500.00, -184548.38, -185573.72, -185591.98, -185535.95, -183077.80, -182852.89, 0.69, 0.11, 0.78
175, -185477.23, 187500.00, -184588.23, -185579.52, -185597.91, -185548.80, -183112.23, -182885.25, 0.69, 0.11, 0.78
176, -185478.81, 187500.00, -184600.39, -185581.09, -185599.36, -185552.17, -183121.63, -182893.41, 0.69, 0.11, 0.78
177, -185479.66, 187500.00, -184608.28, -185581.98, -185599.98, -185553.97, -183126.56, -182896.45, 0.69, 0.11, 0.78
178, -185482.13, 187500.00, -184639.19, -185584.38, -185602.33, -185558.75, -183153.16, -182921.73, 0.69, 0.11, 0.78
179, -185485.31, 187500.00, -184679.36, -185587.33, -185605.44, -185564.38, -183188.66, -182954.94, 0.69, 0.11, 0.78
180, -185486.59, 187500.00, -184697.36, -185588.56, -185606.47, -185566.45, -183202.33, -182966.09, 0.69, 0.10, 0.79
181, -185489.00, 187500.00, -184701.53, -185590.84, -185608.59, -185568.98, -183202.88, -182965.41, 0.69, 0.10, 0.79
182, -185492.45, 187500.00, -184721.53, -185594.19, -185611.88, -185573.19, -183220.53, -182981.08, 0.69, 0.10, 0.79
183, -185495.28, 187500.00, -184755.73, -185597.06, -185614.63, -185577.19, -183252.16, -183009.84, 0.69, 0.10, 0.79
184, -185495.33, 187500.00, -184766.42, -185597.08, -185614.41, -185577.61, -183259.67, -183015.55, 0.69, 0.10, 0.79
185, -185496.19, 187500.00, -184760.55, -185598.06, -185615.00, -185578.33, -183251.59, -183006.05, 0.70, 0.11, 0.79
186, -185498.81, 187500.00, -184763.92, -185600.67, -185617.42, -185581.19, -183253.45, -183006.06, 0.70, 0.11, 0.79
187, -185501.80, 187500.00, -184791.39, -185603.45, -185620.33, -185584.78, -183277.22, -183028.39, 0.70, 0.11, 0.79
188, -185503.38, 187500.00, -184804.81, -185604.95, -185621.70, -185586.53, -183285.95, -183036.58, 0.70, 0.11, 0.79
189, -185506.75, 187500.00, -184802.66, -185608.33, -185625.00, -185589.81, -183280.20, -183029.64, 0.70, 0.11, 0.79
190, -185505.80, 187500.00, -184806.42, -185607.38, -185623.92, -185589.20, -183281.58, -183030.61, 0.69, 0.11, 0.79
191, -185507.11, 187500.00, -184832.95, -185608.48, -185624.95, -185590.86, -183305.36, -183052.27, 0.69, 0.11, 0.79
192, -185510.98, 187500.00, -184849.19, -185612.36, -185628.73, -185595.11, -183317.73, -183062.84, 0.69, 0.11, 0.79
193, -185509.89, 187500.00, -184847.20, -185611.34, -185627.55, -185594.13, -183312.33, -183056.13, 0.69, 0.11, 0.79
194, -185509.84, 187500.00, -184846.39, -185611.31, -185627.31, -185594.13, -183309.25, -183051.02, 0.69, 0.11, 0.79
195, -185512.98, 187500.00, -184872.66, -185614.36, -185630.20, -185597.70, -183333.09, -183073.30, 0.69, 0.11, 0.79
196, -185514.88, 187500.00, -184898.98, -185616.17, -185631.98, -185599.92, -183355.47, -183093.28, 0.69, 0.11, 0.79
197, -185516.55, 187500.00, -184906.39, -185617.78, -185633.52, -185601.69, -183359.64, -183096.23, 0.69, 0.11, 0.79
198, -185519.61, 187500.00, -184913.22, -185620.80, -185636.33, -185604.75, -183364.00, -183098.59, 0.69, 0.11, 0.79
199, -185523.52, 187500.00, -184942.94, -185624.66, -185640.00, -185609.06, -183392.19, -183125.48, 0.69, 0.11, 0.79
200, -185527.08, 187500.00, -184978.63, -185628.23, -185643.39, -185613.03, -183425.89, -183156.72, 0.69, 0.11, 0.79
201, -185528.86, 187500.00, -184993.63, -185629.95, -185645.06, -185615.05, -183437.50, -183166.33, 0.69, 0.11, 0.79
202, -185529.91, 187500.00, -184999.22, -185630.98, -185645.92, -185616.19, -183440.92, -183168.05, 0.69, 0.11, 0.79
203, -185533.16, 187500.00, -185023.91, -185634.06, -185648.94, -185619.55, -183464.59, -183189.91, 0.69, 0.11, 0.79
204, -185537.02, 187500.00, -185063.14, -185637.94, -185652.75, -185623.81, -183500.80, -183223.34, 0.69, 0.11, 0.79
205, -185538.19, 187500.00, -185082.30, -185639.09, -185653.66, -185625.13, -183516.58, -183237.19, 0.69, 0.11, 0.79
206, -185539.61, 187500.00, -185086.66, -185640.44, -185654.67, -185626.41, -183517.47, -183237.66, 0.69, 0.11, 0.79
207, -185541.91, 187500.00, -185103.66, -185642.67, -185656.80, -185628.81, -183534.39, -183251.69, 0.69, 0.11, 0.79
208, -185543.52, 187500.00, -185138.42, -185644.23, -185658.30, -185630.73, -183568.17, -183283.25, 0.69, 0.11, 0.79
209, -185546.67, 187500.00, -185155.58, -185647.45, -185661.42, -185634.00, -183581.38, -183294.61, 0.69, 0.11, 0.79
210, -185547.34, 187500.00, -185155.52, -185648.27, -185661.81, -185634.78, -183577.59, -183288.88, 0.69, 0.11, 0.78
211, -185547.75, 187500.00, -185161.78, -185648.48, -185661.83, -185635.08, -183582.78, -183292.84, 0.69, 0.11, 0.78
212, -185550.45, 187500.00, -185193.41, -185651.02, -185664.45, -185637.80, -183613.14, -183321.47, 0.69, 0.11, 0.78
213, -185553.88, 187500.00, -185213.08, -185654.52, -185667.83, -185641.48, -183628.89, -183334.97, 0.69, 0.11, 0.78
214, -185553.69, 187500.00, -185214.33, -185654.41, -185667.44, -185641.31, -183626.84, -183331.70, 0.69, 0.11, 0.78
215, -185556.38, 187500.00, -185220.56, -185657.03, -185669.83, -185644.03, -183631.95, -183335.73, 0.69, 0.12, 0.77
216, -185558.05, 187500.00, -185248.22, -185658.70, -185671.44, -185645.94, -183660.86, -183363.25, 0.69, 0.12, 0.77
217, -185560.69, 187500.00, -185271.80, -185661.34, -185674.02, -185648.83, -183682.58, -183382.33, 0.69, 0.12, 0.77
218, -185559.80, 187500.00, -185275.70, -185660.42, -185672.83, -185647.84, -183683.70, -183381.22, 0.69, 0.12, 0.77
219, -185560.47, 187500.00, -185277.27, -185661.03, -185673.08, -185648.53, -183683.67, -183379.22, 0.69, 0.12, 0.77
220, -185565.58, 187500.00, -185303.84, -185666.03, -185677.97, -185653.63, -183710.59, -183404.44, 0.70, 0.11, 0.77
221, -185567.89, 187500.00, -185327.72, -185668.20, -185680.09, -185655.95, -183732.25, -183424.48, 0.70, 0.11, 0.77
222, -185568.88, 187500.00, -185332.86, -185669.19, -185680.81, -185656.91, -183733.50, -183423.59, 0.70, 0.11, 0.77
223, -185568.17, 187500.00, -185333.30, -185668.47, -185679.73, -185656.28, -183731.38, -183419.75, 0.70, 0.11, 0.77
224, -185572.41, 187500.00, -185352.14, -185672.73, -185683.69, -185660.59, -183751.20, -183438.13, 0.70, 0.11, 0.77
225, -185575.83, 187500.00, -185381.98, -185676.16, -185687.00, -185664.06, -183781.00, -183466.06, 0.70, 0.11, 0.78
226, -185577.25, 187500.00, -185391.70, -185677.55, -185688.16, -185665.58, -183786.52, -183469.95, 0.70, 0.11, 0.78
227, -185577.94, 187500.00, -185389.30, -185678.19, -185688.47, -185666.33, -183781.73, -183463.47, 0.70, 0.11, 0.78
228, -185581.28, 187500.00, -185404.39, -185681.48, -185691.64, -185669.70, -183797.78, -183477.95, 0.70, 0.11, 0.78
229, -185585.41, 187500.00, -185434.16, -185685.55, -185695.53, -185673.86, -183828.20, -183506.23, 0.70, 0.11, 0.78
230, -185586.45, 187500.00, -185448.91, -185686.59, -185696.31, -185674.97, -183840.13, -183516.08, 0.70, 0.11, 0.78
231, -185587.11, 187500.00, -185449.75, -185687.36, -185696.59, -185675.75, -183837.66, -183511.77, 0.70, 0.12, 0.78
232, -185588.81, 187500.00, -185457.30, -185689.02, -185697.97, -185677.45, -183846.53, -183518.00, 0.70, 0.12, 0.78
233, -185590.89, 187500.00, -185487.44, -185690.98, -185699.77, -185679.53, -183879.44, -183548.55, 0.70, 0.12, 0.78
234, -185594.11, 187500.00, -185505.77, -185694.27, -185702.53, -185682.73, -183893.63, -183560.61, 0.70, 0.12, 0.78
235, -185595.09, 187500.00, -185507.36, -185695.20, -185702.84, -185683.72, -183891.28, -183556.97, 0.70, 0.12, 0.78
236, -185596.23, 187500.00, -185513.75, -185696.41, -185703.52, -185685.03, -183897.42, -183562.13, 0.70, 0.12, 0.78
237, -185599.53, 187500.00, -185540.50, -185699.83, -185706.56, -185688.34, -183926.59, -183589.48, 0.70, 0.12, 0.78
238, -185601.30, 187500.00, -185560.44, -185701.84, -185708.02, -185690.13, -183945.94, -183606.03, 0.70, 0.12, 0.78
239, -185599.42, 187500.00, -185565.14, -185700.13, -185705.31, -185688.31, -183948.06, -183606.25, 0.70, 0.12, 0.78
240, -185601.22, 187500.00, -185570.38, -185702.11, -185706.27, -185690.06, -183951.52, -183608.72, 0.70, 0.12, 0.78
241, -185606.42, 187500.00, -185597.80, -185708.09, -185711.23, -185695.30, -183982.05, -183637.28, 0.69, 0.12, 0.78
242, -185609.45, 187500.00, -185622.77, -185711.86, -185713.70, -185698.31, -184006.75, -183659.56, 0.69, 0.12, 0.78
243, -185611.72, 187500.00, -185629.95, -185714.27, -185714.63, -185700.64, -184009.34, -183660.97, 0.69, 0.12, 0.78
244, -185613.55, 187500.00, -185633.52, -185716.02, -185714.63, -185702.38, -184011.00, -183662.09, 0.69, 0.12, 0.78
245, -185616.91, 187500.00, -185654.19, -185719.94, -185717.06, -185705.75, -184038.73, -183686.88, 0.69, 0.12, 0.78
246, -185620.69, 187500.00, -185677.72, -185724.02, -185720.06, -185709.53, -184066.97, -183713.39, 0.70, 0.12, 0.78
247, -185621.80, 187500.00, -185684.92, -185725.16, -185718.58, -185710.73, -184073.05, -183718.19, 0.70, 0.12, 0.78
248, -185622.00, 187500.00, -185686.38, -185725.48, -185714.06, -185711.05, -184074.08, -183717.77, 0.70, 0.12, 0.78
249, -185624.64, 187500.00, -185693.50, -185728.08, -185714.30, -185713.69, -184099.95, -183741.30, 0.70, 0.12, 0.78
250, -185627.81, 187500.00, -185702.09, -185731.09, -185716.13, -185716.89, -184135.77, -183774.05, 0.70, 0.12, 0.78
251, -185629.16, 187500.00, -185705.03, -185732.58, -185702.89, -185718.22, -184149.16, -183785.17, 0.70, 0.12, 0.78
252, -185629.83, 187500.00, -185706.25, -185733.45, -185646.59, -185717.83, -184150.52, -183786.23, 0.70, 0.12, 0.78
253, -185632.86, 187500.00, -185710.61, -185736.73, -185600.09, -185719.98, -184167.61, -183801.23, 0.70, 0.12, 0.78
254, -185636.84, 187500.00, -185716.66, -185740.52, -185597.23, -185723.97, -184200.72, -183831.67, 0.70, 0.12, 0.78
255, -185637.47, 187500.00, -185717.98, -185741.11, -185552.16, -185724.48, -184212.05, -183840.61, 0.70, 0.12, 0.78
0, -185635.19, 187500.00, -185715.75, -185738.83, -185458.00, -185722.06, -184206.06, -183832.72, 0.70, 0.11, 0.78
1, -185636.94, 187500.00, -185717.94, -185740.70, -185398.19, -185723.81, -184213.30, -183837.64, 0.70, 0.11, 0.78
2, -185640.94, 187500.00, -185723.16, -185744.64, -185389.77, -185727.80, -184243.44, -183865.59, 0.70, 0.11, 0.78
3, -185643.33, 187500.00, -185726.11, -185746.95, -185343.16, -185730.11, -184257.47, -183877.36, 0.70, 0.11, 0.78
4, -185641.80, 187500.00, -185724.42, -185745.30, -185230.23, -185728.38, -184251.70, -183870.20, 0.70, 0.11, 0.78
5, -185641.83, 187500.00, -185724.58, -185745.42, -185137.84, -185728.44, -184249.30, -183866.53, 0.70, 0.12, 0.78
6, -185646.98, 187500.00, -185730.52, -185750.64, -185120.25, -185733.69, -184272.48, -183887.81, 0.70, 0.12, 0.78
7, -185649.36, 187500.00, -185733.42, -185752.88, -185082.94, -185736.02, -184286.89, -183899.69, 0.70, 0.12, 0.78
8, -185648.27, 187500.00, -185732.23, -185751.81, -184982.56, -185734.78, -184282.66, -183893.73, 0.70, 0.12, 0.78
9, -185648.55, 187500.00, -185732.42, -185752.06, -184888.50, -185734.98, -184281.28, -183889.73, 0.70, 0.12, 0.78
10, -185652.69, 187500.00, -185737.33, -185756.17, -184870.17, -185739.09, -184308.77, -183914.70, 0.69, 0.11, 0.79
11, -185655.97, 187500.00, -185741.33, -185759.47, -184853.06, -185742.45, -184334.45, -183939.11, 0.69, 0.11, 0.79
12, -185655.50, 187500.00, -185741.14, -185759.00, -184762.80, -185741.89, -184339.70, -183942.27, 0.69, 0.11, 0.79
13, -185655.64, 187500.00, -185741.27, -185759.11, -184653.81, -185741.92, -184339.02, -183940.17, 0.69, 0.11, 0.79
14, -185660.53, 187500.00, -185746.66, -185763.98, -184609.80, -185746.75, -184364.61, -183963.41, 0.69, 0.11, 0.79
15, -185662.44, 187500.00, -185749.16, -185765.83, -184590.89, -185748.75, -184394.44, -183990.75, 0.69, 0.11, 0.79
16, -185667.06, 187500.00, -185753.77, -185770.45, -184510.06, -185753.34, -184399.67, -183994.77, 0.69, 0.11, 0.79
17, -185667.78, 187500.00, -185754.44, -185771.16, -184407.42, -185753.89, -184399.03, -183993.08, 0.69, 0.11, 0.79
18, -185669.20, 187500.00, -185756.33, -185772.63, -184365.58, -185755.31, -184420.08, -184012.11, 0.69, 0.11, 0.79
19, -185673.61, 187500.00, -185761.30, -185776.94, -184352.88, -185759.80, -184457.41, -184046.97, 0.69, 0.11, 0.79
20, -185676.06, 187500.00, -185763.89, -185779.27, -184280.58, -185762.08, -184472.56, -184060.48, 0.69, 0.11, 0.79
21, -185674.86, 187500.00, -185762.80, -185778.03, -184171.53, -185760.78, -184471.31, -184057.48, 0.69, 0.11, 0.79
22, -185677.48, 187500.00, -185765.66, -185780.67, -184106.48, -185763.47, -184485.50, -184069.20, 0.69, 0.11, 0.79
23, -185682.17, 187500.00, -185770.64, -185785.23, -184095.42, -185768.16, -184518.88, -184100.20, 0.69, 0.11, 0.79
24, -185683.89, 187500.00, -185772.52, -185787.00, -184036.02, -185769.80, -184532.52, -184111.84, 0.69, 0.11, 0.79
25, -185684.23, 187500.00, -185772.86, -185787.30, -183932.67, -185770.06, -184529.83, -184108.05, 0.69, 0.11, 0.79
26, -185686.53, 187500.00, -185775.22, -185789.59, -183873.36, -185772.31, -184538.05, -184113.91, 0.70, 0.11, 0.79
27, -185687.20, 187500.00, -185776.20, -185790.27, -183870.94, -185773.08, -184571.63, -184144.70, 0.70, 0.11, 0.79
28, -185691.05, 187500.00, -185780.25, -185794.06, -183832.14, -185776.83, -184593.33, -184165.61, 0.70, 0.11, 0.79
29, -185692.63, 187500.00, -185781.97, -185795.63, -183729.97, -185778.44, -184595.72, -184166.50, 0.70, 0.11, 0.79
30, -185694.73, 187500.00, -185784.09, -185797.66, -183644.47, -185780.45, -184599.75, -184168.41, 0.70, 0.11, 0.79
31, -185698.00, 187500.00, -185787.67, -185800.91, -183633.75, -185783.67, -184628.67, -184194.73, 0.69, 0.11, 0.78
32, -185700.59, 187500.00, -185790.42, -185803.50, -183605.11, -185786.33, -184649.39, -184213.75, 0.69, 0.11, 0.78
33, -185701.11, 187500.00, -185790.91, -185804.02, -183516.73, -185786.75, -184652.58, -184215.61, 0.69, 0.11, 0.78
34, -185701.58, 187500.00, -185791.52, -185804.55, -183431.06, -185787.22, -184656.58, -184217.84, 0.69, 0.11, 0.78
35, -185703.92, 187500.00, -185794.16, -185806.80, -183413.25, -185789.58, -184689.38, -184248.55, 0.69, 0.11, 0.78
36, -185707.03, 187500.00, -185797.39, -185809.75, -183396.70, -185792.66, -184721.20, -184278.91, 0.69, 0.11, 0.78
37, -185709.70, 187500.00, -185800.09, -185812.42, -183306.22, -185795.31, -184726.00, -184282.66, 0.69, 0.11, 0.78
38, -185709.33, 187500.00, -185799.73, -185811.98, -183200.53, -185794.75, -184724.33, -184279.05, 0.69, 0.11, 0.78
39, -185711.77, 187500.00, -185802.36, -185814.42, -183155.03, -185797.22, -184746.91, -184300.09, 0.69, 0.11, 0.78
40, -185715.09, 187500.00, -185805.86, -185817.75, -183129.58, -185800.64, -184774.41, -184325.83, 0.69, 0.11, 0.78
41, -185717.16, 187500.00, -185807.94, -185819.88, -183050.03, -185802.63, -184778.16, -184327.55, 0.70, 0.11, 0.78
42, -185717.22, 187500.00, -185807.94, -185819.98, -182943.69, -185802.64, -184770.91, -184319.39, 0.70, 0.11, 0.78
43, -185719.52, 187500.00, -185810.30, -185822.16, -182893.33, -185804.81, -184784.14, -184331.23, 0.70, 0.11, 0.78
44, -185722.84, 187500.00, -185813.94, -185825.48, -182876.42, -185808.17, -184814.30, -184359.91, 0.70, 0.11, 0.78
45, -185724.91, 187500.00, -185816.13, -185827.59, -182806.95, -185810.30, -184823.03, -184365.98, 0.70, 0.11, 0.78
46, -185724.70, 187500.00, -185815.83, -185827.33, -182703.98, -185809.95, -184814.25, -184355.80, 0.70, 0.11, 0.78
47, -185726.27, 187500.00, -185817.33, -185828.80, -182645.11, -185811.39, -184820.17, -184360.17, 0.70, 0.11, 0.78
48, -185729.16, 187500.00, -185820.34, -185831.59, -182643.77, -185814.34, -184848.20, -184386.66, 0.70, 0.11, 0.78
49, -185732.23, 187500.00, -185823.44, -185834.72, -182602.69, -185817.41, -184861.08, -184397.17, 0.70, 0.11, 0.78
50, -185730.72, 187500.00, -185822.09, -185833.30, -182515.98, -185815.83, -184859.77, -184394.42, 0.70, 0.11, 0.78
51, -185731.30, 187500.00, -185822.81, -185833.84, -182464.73, -185816.42, -184865.81, -184399.78, 0.70, 0.11, 0.78
52, -185736.94, 187500.00, -185828.58, -185839.45, -182471.05, -185822.14, -184901.95, -184434.52, 0.70, 0.11, 0.78
53, -185739.30, 187500.00, -185831.03, -185841.66, -182438.53, -185824.50, -184927.47, -184457.94, 0.70, 0.11, 0.78
54, -185740.69, 187500.00, -185832.47, -185843.03, -182336.09, -185825.83, -184933.66, -184461.45, 0.70, 0.11, 0.78
55, -185742.20, 187500.00, -185833.94, -185844.59, -182238.81, -185827.25, -184939.94, -184465.77, 0.70, 0.11, 0.78
56, -185743.75, 187500.00, -185835.64, -185846.08, -182211.55, -185828.83, -184969.75, -184493.44, 0.69, 0.11, 0.79
57, -185747.23, 187500.00, -185839.27, -185849.55, -182176.70, -185832.31, -184996.02, -184518.34, 0.69, 0.11, 0.79
58, -185750.09, 187500.00, -185842.28, -185852.53, -182085.44, -185835.19, -185002.13, -184522.77, 0.69, 0.11, 0.79
59, -185750.41, 187500.00, -185842.45, -185852.73, -181993.00, -185835.44, -185005.50, -184524.42, 0.69, 0.11, 0.79
60, -185753.52, 187500.00, -185845.72, -185855.78, -181967.59, -185838.55, -185034.58, -184553.52, 0.69, 0.11, 0.79
61, -185755.63, 187500.00, -185848.02, -185857.91, -181959.47, -185840.67, -185066.64, -184584.70, 0.69, 0.10, 0.79
62, -185758.28, 187500.00, -185850.64, -185860.56, -181892.64, -185843.30, -185076.13, -184592.13, 0.69, 0.10, 0.79
63, -185759.69, 187500.00, -185851.89, -185861.86, -181804.64, -185844.63, -185074.03, -184589.33, 0.69, 0.10, 0.79
64, -185761.56, 187500.00, -185853.88, -185863.63, -181771.44, -185846.61, -185091.92, -184607.16, 0.69, 0.10, 0.79
65, -185765.03, 187500.00, -185857.50, -185867.09, -181769.61, -185850.02, -185122.89, -184637.09, 0.69, 0.10, 0.79
66, -185765.47, 187500.00, -185858.13, -185867.59, -181712.19, -185850.50, -185130.69, -184642.86, 0.69, 0.11, 0.79
67, -185767.39, 187500.00, -185859.95, -185869.48, -181621.55, -185852.27, -185127.73, -184637.47, 0.69, 0.11, 0.79
68, -185769.91, 187500.00, -185862.39, -185871.88, -181577.47, -185854.75, -185140.72, -184649.97, 0.69, 0.11, 0.79
69, -185772.81, 187500.00, -185865.41, -185874.78, -181565.53, -185857.67, -185173.67, -184682.91, 0.69, 0.11, 0.79
70, -185775.94, 187500.00, -185868.73, -185878.00, -181494.73, -185860.81, -185187.06, -184694.84, 0.69, 0.11, 0.79
71, -185776.41, 187500.00, -185869.17, -185878.47, -181378.67, -185861.25, -185181.27, -184687.39, 0.70, 0.11, 0.78
72, -185778.16, 187500.00, -185870.94, -185880.16, -181292.52, -185862.92, -185185.20, -184690.22, 0.70, 0.11, 0.78
73, -185780.58, 187500.00, -185873.55, -185882.53, -181262.03, -185865.34, -185214.50, -184719.84, 0.70, 0.11, 0.78
74, -185782.34, 187500.00, -185875.30, -185884.30, -181193.45, -185867.17, -185230.44, -184734.34, 0.70, 0.11, 0.78
75, -185782.31, 187500.00, -185875.17, -185884.20, -181077.00, -185867.06, -185229.33, -184731.11, 0.70, 0.11, 0.78
76, -185782.31, 187500.00, -185875.30, -185884.28, -180992.75, -185866.97, -185231.67, -184731.55, 0.70, 0.11, 0.78
77, -185786.42, 187500.00, -185879.47, -185888.34, -180971.58, -185871.13, -185259.80, -184758.94, 0.70, 0.11, 0.78
78, -185789.30, 187500.00, -185882.52, -185891.30, -180927.28, -185874.06, -185280.55, -184778.84, 0.70, 0.11, 0.78
79, -185789.06, 187500.00, -185882.28, -185890.98, -180819.22, -185873.66, -185280.55, -184777.03, 0.70, 0.11, 0.78
80, -185791.20, 187500.00, -185884.34, -185893.11, -180715.23, -185875.80, -185279.13, -184773.53, 0.70, 0.11, 0.78
81, -185794.44, 187500.00, -185887.72, -185896.45, -180689.59, -185879.20, -185302.19, -184796.19, 0.70, 0.11, 0.78
82, -185797.95, 187500.00, -185891.16, -185899.83, -180670.44, -185882.70, -185324.97, -184818.80, 0.70, 0.10, 0.78
83, -185796.55, 187500.00, -185889.75, -185898.31, -180597.19, -185881.14, -185328.72, -184821.25, 0.70, 0.10, 0.78
84, -185798.06, 187500.00, -185891.34, -185899.78, -180526.86, -185882.67, -185330.22, -184821.94, 0.70, 0.10, 0.78
85, -185802.20, 187500.00, -185895.55, -185903.86, -180524.11, -185886.84, -185356.69, -184849.64, 0.70, 0.10, 0.78
86, -185807.63, 187500.00, -185901.03, -185909.33, -180544.38, -185892.25, -185391.83, -184885.47, 0.70, 0.10, 0.78
87, -185808.02, 187500.00, -185901.58, -185909.83, -180504.66, -185892.72, -185406.97, -184900.83, 0.70, 0.11, 0.78
88, -185809.63, 187500.00, -185903.19, -185911.39, -180436.59, -185894.25, -185412.78, -184905.69, 0.70, 0.11, 0.78
89, -185813.33, 187500.00, -185906.88, -185915.03, -180422.06, -185897.94, -185436.86, -184931.08, 0.70, 0.11, 0.78
90, -185817.11, 187500.00, -185910.72, -185918.72, -180436.78, -185901.80, -185476.42, -184972.09, 0.70, 0.11, 0.78
91, -185820.13, 187500.00, -185913.73, -185921.69, -180396.36, -185904.81, -185493.44, -184987.88, 0.70, 0.11, 0.78
92, -185823.34, 187500.00, -185916.95, -185924.84, -180316.28, -185907.97, -185496.94, -184990.09, 0.69, 0.11, 0.78
93, -185823.50, 187500.00, -185917.17, -185924.95, -180271.97, -185908.08, -185510.27, -185004.48, 0.69, 0.11, 0.78
94, -185825.83, 187500.00, -185919.61, -185927.25, -180261.83, -185910.42, -185542.03, -185038.50, 0.69, 0.11, 0.78
95, -185827.56, 187500.00, -185921.33, -185928.98, -180193.98, -185912.19, -185556.48, -185052.41, 0.69, 0.11, 0.78
96, -185826.67, 187500.00, -185920.34, -185928.08, -180073.33, -185911.30, -185549.92, -185042.98, 0.69, 0.11, 0.78
97, -185828.28, 187500.00, -185922.05, -185929.72, -179980.06, -185912.91, -185548.13, -185039.33, 0.69, 0.11, 0.78
98, -185828.98, 187500.00, -185922.86, -185930.44, -179944.14, -185913.69, -185567.53, -185059.97, 0.69, 0.11, 0.78
99, -185830.25, 187500.00, -185924.08, -185931.69, -179876.02, -185914.97, -185575.94, -185066.20, 0.69, 0.11, 0.78
100, -185831.48, 187500.00, -185925.36, -185932.95, -179753.06, -185916.08, -185566.81, -185053.69, 0.69, 0.11, 0.78
101, -185832.78, 187500.00, -185926.66, -185934.30, -179658.91, -185917.28, -185557.05, -185041.08, 0.69, 0.11, 0.78
102, -185835.58, 187500.00, -185929.56, -185937.06, -179632.78, -185920.22, -185571.91, -185057.34, 0.69, 0.11, 0.78
103, -185835.91, 187500.00, -185929.78, -185937.30, -179588.02, -185920.48, -185585.13, -185069.89, 0.69, 0.11, 0.78
104, -185834.83, 187500.00, -185928.63, -185936.17, -179475.81, -185919.25, -185578.53, -185060.13, 0.69, 0.11, 0.78
105, -185835.66, 187500.00, -185929.42, -185936.91, -179357.98, -185919.97, -185570.86, -185050.42, 0.69, 0.11, 0.78
106, -185839.53, 187500.00, -185933.34, -185940.77, -179310.84, -185923.86, -185585.17, -185065.59, 0.69, 0.11, 0.78
107, -185842.13, 187500.00, -185935.97, -185943.34, -179274.86, -185926.50, -185605.39, -185086.23, 0.69, 0.11, 0.78
108, -185843.94, 187500.00, -185937.83, -185945.20, -179181.02, -185928.28, -185609.75, -185088.89, 0.69, 0.11, 0.78
109, -185844.22, 187500.00, -185938.05, -185945.59, -179080.11, -185928.52, -185609.13, -185086.27, 0.69, 0.11, 0.78
110, -185848.06, 187500.00, -185941.92, -185949.34, -179045.84, -185932.38, -185631.66, -185111.08, 0.69, 0.11, 0.78
111, -185852.16, 187500.00, -185946.08, -185953.39, -179044.42, -185936.47, -185667.31, -185150.09, 0.69, 0.11, 0.78
112, -185852.22, 187500.00, -185946.22, -185953.36, -178987.38, -185936.59, -185684.55, -185167.05, 0.69, 0.11, 0.78
113, -185853.30, 187500.00, -185947.31, -185954.39, -178898.42, -185937.58, -185693.02, -185174.89, 0.69, 0.11, 0.78
114, -185856.53, 187500.00, -185950.69, -185957.77, -178861.80, -185940.83, -185715.98, -185201.41, 0.69, 0.11, 0.78
115, -185859.69, 187500.00, -185953.95, -185960.77, -178867.53, -185943.98, -185757.77, -185248.25, 0.69, 0.11, 0.78
116, -185862.50, 187500.00, -185956.88, -185963.59, -178828.30, -185945.36, -185783.48, -185274.45, 0.69, 0.11, 0.78
117, -185864.61, 187500.00, -185959.42, -185966.08, -178550.02, -185944.98, -185791.47, -185280.73, 0.70, 0.11, 0.78
118, -185867.09, 187500.00, -185961.59, -185968.31, -178192.22, -185949.83, -185795.77, -185284.47, 0.70, 0.11, 0.78
119, -185868.19, 187500.00, -185962.63, -185969.28, -178340.55, -185951.78, -185812.09, -185302.59, 0.70, 0.11, 0.78
120, -185869.67, 187500.00, -185963.95, -185970.69, -178500.22, -185953.41, -185817.78, -185304.83, 0.70, 0.11, 0.78
121, -185870.94, 187500.00, -185965.19, -185971.89, -178609.52, -185954.69, -185804.28, -185286.50, 0.70, 0.11, 0.78
122, -185869.14, 187500.00, -185963.41, -185970.11, -178743.27, -185952.97, -185789.80, -185269.06, 0.70, 0.12, 0.79
123, -185868.25, 187500.00, -185962.50, -185969.33, -178934.30, -185952.14, -185796.14, -185275.56, 0.70, 0.12, 0.79
124, -185868.58, 187500.00, -185962.94, -185969.69, -179099.58, -185952.41, -185794.33, -185270.97, 0.70, 0.12, 0.79
125, -185866.66, 187500.00, -185960.94, -185967.72, -179202.22, -185950.33, -185772.88, -185243.25, 0.70, 0.12, 0.79
126, -185868.52, 187500.00, -185962.75, -185969.61, -179384.61, -185952.02, -185745.69, -185209.81, 0.70, 0.12, 0.79
127, -185871.52, 187500.00, -185965.70, -185972.44, -179957.23, -185955.69, -185744.84, -185209.30, 0.70, 0.12, 0.79
128, -185873.44, 187500.00, -185967.61, -185974.36, -180138.33, -185957.98, -185755.69, -185220.19, 0.70, 0.11, 0.78
129, -185872.56, 187500.00, -185966.64, -185973.45, -180048.53, -185957.09, -185749.77, -185209.39, 0.70, 0.11, 0.78
130, -185873.28, 187500.00, -185967.42, -185974.31, -179942.16, -185957.91, -185739.17, -185194.67, 0.70, 0.11, 0.78
131, -185873.61, 187500.00, -185967.64, -185974.55, -179896.80, -185958.17, -185744.73, -185202.86, 0.70, 0.11, 0.78
132, -185875.61, 187500.00, -185969.64, -185976.45, -179866.06, -185960.05, -185759.44, -185217.19, 0.70, 0.11, 0.78
133, -185877.03, 187500.00, -185971.02, -185977.91, -179767.14, -185961.52, -185753.92, -185207.47, 0.69, 0.11, 0.78
134, -185873.39, 187500.00, -185967.42, -185974.27, -179650.22, -185957.95, -185740.28, -185190.17, 0.69, 0.11, 0.78
135, -185874.78, 187500.00, -185968.83, -185975.66, -179588.89, -185959.27, -185745.92, -185196.53, 0.69, 0.11, 0.78
136, -185878.70, 187500.00, -185972.81, -185979.56, -179557.75, -185963.28, -185765.30, -185217.64, 0.69, 0.11, 0.78
137, -185878.64, 187500.00, -185972.75, -185979.50, -179472.08, -185963.25, -185768.98, -185219.80, 0.69, 0.11, 0.78
138, -185878.55, 187500.00, -185972.70, -185979.52, -179345.52, -185963.13, -185762.75, -185210.92, 0.70, 0.11, 0.79
139, -185880.72, 187500.00, -185974.91, -185981.64, -179264.97, -185965.25, -185770.34, -185219.88, 0.70, 0.11, 0.79
140, -185884.47, 187500.00, -185978.67, -185985.27, -179231.86, -185968.92, -185799.41, -185251.61, 0.70, 0.11, 0.79
141, -185886.53, 187500.00, -185980.64, -185987.27, -179155.63, -185970.89, -185814.20, -185265.22, 0.70, 0.11, 0.79
142, -185886.98, 187500.00, -185981.11, -185987.72, -179044.42, -185971.33, -185813.63, -185262.97, 0.70, 0.11, 0.79
143, -185890.41, 187500.00, -185984.61, -185991.14, -178974.22, -185974.83, -185821.69, -185272.59, 0.69, 0.11, 0.78
144, -185894.20, 187500.00, -185988.45, -185994.94, -178965.81, -185978.69, -185854.06, -185310.22, 0.69, 0.11, 0.78
145, -185897.39, 187500.00, -185991.75, -185998.06, -178923.05, -185981.55, -185880.28, -185336.61, 0.69, 0.11, 0.78
146, -185897.34, 187500.00, -185992.14, -185998.41, -178771.50, -185978.59, -185889.08, -185344.72, 0.69, 0.11, 0.78
147, -185897.03, 187500.00, -185991.86, -185998.06, -178317.52, -185978.78, -185892.59, -185347.30, 0.69, 0.11, 0.78
148, -185902.30, 187500.00, -185996.89, -186003.19, -178285.44, -185985.84, -185907.70, -185363.44, 0.69, 0.11, 0.79
149, -185903.39, 187500.00, -185997.91, -186004.14, -178453.45, -185987.19, -185916.75, -185371.22, 0.69, 0.11, 0.79
150, -185903.72, 187500.00, -185998.14, -186004.38, -178562.52, -185987.50, -185907.98, -185359.02, 0.69, 0.11, 0.79
151, -185903.45, 187500.00, -185997.83, -186004.11, -178684.36, -185987.27, -185895.41, -185343.20, 0.69, 0.11, 0.79
152, -185904.33, 187500.00, -185998.72, -186004.94, -178876.44, -185988.09, -185903.08, -185351.70, 0.69, 0.11, 0.79
153, -185907.67, 187500.00, -186002.14, -186008.38, -179062.56, -185991.58, -185915.34, -185362.63, 0.69, 0.11, 0.79
154, -185910.16, 187500.00, -186004.59, -186010.81, -179181.34, -185994.09, -185907.08, -185349.31, 0.69, 0.11, 0.79
155, -185909.58, 187500.00, -186003.98, -186010.31, -179281.34, -185993.36, -185889.70, -185327.50, 0.69, 0.11, 0.79
156, -185909.88, 187500.00, -186004.22, -186010.58, -179666.59, -185993.64, -185890.78, -185328.95, 0.69, 0.11, 0.79
157, -185911.72, 187500.00, -186006.00, -186012.31, -180138.45, -185996.28, -185909.08, -185349.27, 0.69, 0.11, 0.79
158, -185913.09, 187500.00, -186007.33, -186013.56, -180107.56, -185997.80, -185914.73, -185353.00, 0.69, 0.11, 0.79
159, -185912.95, 187500.00, -186007.13, -186013.41, -180013.70, -185997.55, -185909.20, -185344.64, 0.69, 0.11, 0.79
160, -185915.59, 187500.00, -186009.84, -186016.06, -179975.64, -186000.17, -185917.00, -185353.31, 0.69, 0.11, 0.79
161, -185917.05, 187500.00, -186011.36, -186017.58, -179981.88, -186001.73, -185942.13, -185381.73, 0.69, 0.11, 0.79
162, -185916.23, 187500.00, -186010.58, -186016.78, -179938.84, -186000.95, -185950.58, -185388.73, 0.69, 0.11, 0.79
163, -185919.61, 187500.00, -186013.98, -186020.20, -179848.64, -186004.34, -185945.52, -185379.69, 0.69, 0.11, 0.79
164, -185920.89, 187500.00, -186015.23, -186021.38, -179795.77, -186005.44, -185949.41, -185383.97, 0.69, 0.11, 0.79
165, -185923.30, 187500.00, -186017.69, -186023.75, -179787.91, -186007.88, -185972.00, -185409.55, 0.69, 0.11, 0.79
166, -185924.70, 187500.00, -186019.17, -186025.11, -179735.22, -186009.25, -185981.22, -185418.91, 0.69, 0.11, 0.79
167, -185925.17, 187500.00, -186019.66, -186025.61, -179634.34, -186009.77, -185973.45, -185407.45, 0.69, 0.11, 0.79
168, -185924.47, 187500.00, -186018.91, -186024.91, -179561.09, -186009.02, -185970.42, -185402.27, 0.69, 0.11, 0.79
169, -185926.86, 187500.00, -186021.27, -186027.33, -179545.77, -186011.41, -185991.19, -185425.59, 0.69, 0.11, 0.79
170, -185928.52, 187500.00, -186022.95, -186028.84, -179497.11, -186012.97, -186006.67, -185442.41, 0.69, 0.11, 0.79
171, -185928.02, 187500.00, -186022.61, -186028.47, -179388.55, -186012.58, -186006.31, -185439.83, 0.69, 0.11, 0.79
172, -185929.47, 187500.00, -186024.05, -186029.88, -179294.84, -186014.05, -186004.95, -185436.88, 0.69, 0.11, 0.79
173, -185934.44, 187500.00, -186029.00, -186034.72, -179262.02, -186019.08, -186021.98, -185458.56, 0.69, 0.11, 0.79
174, -185934.77, 187500.00, -186029.34, -186035.06, -179215.16, -186019.38, -186036.22, -185476.38, 0.69, 0.10, 0.78
175, -185934.55, 187500.00, -186029.16, -186034.84, -179105.50, -186019.13, -186036.98, -185473.63, 0.69, 0.10, 0.78
176, -185934.56, 187500.00, -186029.22, -186034.97, -179000.23, -186019.13, -186033.98, -185468.23, 0.69, 0.10, 0.78
177, -185937.98, 187500.00, -186032.69, -186038.38, -178965.98, -186022.47, -186043.22, -185486.22, 0.69, 0.10, 0.78
178, -185942.17, 187500.00, -186036.95, -186042.55, -178936.42, -186025.98, -186054.59, -185511.89, 0.69, 0.10, 0.78
179, -185943.48, 187500.00, -186038.61, -186044.25, -178651.97, -186025.16, -186057.02, -185514.59, 0.70, 0.10, 0.79
180, -185943.23, 187500.00, -186038.22, -186043.75, -178205.41, -186026.39, -186053.64, -185497.70, 0.70, 0.10, 0.79
181, -185942.03, 187500.00, -186037.05, -186042.55, -178276.41, -186025.56, -186052.03, -185493.80, 0.70, 0.10, 0.79
182, -185945.05, 187500.00, -186040.02, -186045.50, -178444.63, -186028.98, -186056.47, -185500.58, 0.70, 0.10, 0.79
183, -185946.55, 187500.00, -186041.41, -186047.02, -178558.45, -186030.56, -186054.58, -185486.45, 0.70, 0.10, 0.79
184, -185946.86, 187500.00, -186041.72, -186047.44, -178650.80, -186030.97, -186044.89, -185461.47, 0.69, 0.11, 0.78
185, -185947.08, 187500.00, -186041.94, -186047.53, -178801.45, -186031.13, -186039.34, -185455.91, 0.69, 0.11, 0.78
186, -185946.81, 187500.00, -186041.59, -186047.13, -178999.27, -186030.83, -186049.66, -185474.08, 0.69, 0.11, 0.78
187, -185946.25, 187500.00, -186040.95, -186046.58, -179155.91, -186030.19, -186052.41, -185474.70, 0.69, 0.11, 0.78
188, -185947.36, 187500.00, -186042.08, -186047.69, -179265.98, -186031.19, -186047.06, -185459.17, 0.69, 0.11, 0.78
189, -185949.20, 187500.00, -186044.11, -186049.61, -179507.64, -186033.00, -186043.78, -185454.77, 0.69, 0.11, 0.78
190, -185953.97, 187500.00, -186048.73, -186054.17, -180088.42, -186038.55, -186058.13, -185482.80, 0.69, 0.11, 0.78
191, -185957.61, 187500.00, -186052.20, -186057.69, -180189.19, -186042.39, -186069.73, -185506.13, 0.69, 0.11, 0.78
192, -185958.95, 187500.00, -186053.59, -186059.00, -180097.05, -186043.78, -186072.16, -185509.06, 0.69, 0.11, 0.78
193, -185960.94, 187500.00, -186055.72, -186060.98, -180032.20, -186045.83, -186075.06, -185516.77, 0.69, 0.11, 0.78
194, -185961.30, 187500.00, -186056.03, -186061.33, -180029.59, -186046.14, -186079.31, -185549.22, 0.70, 0.10, 0.78
195, -185965.38, 187500.00, -186060.00, -186065.33, -180004.72, -186050.13, -186085.52, -185574.50, 0.70, 0.10, 0.78
196, -185965.91, 187500.00, -186060.56, -186065.89, -179918.84, -186050.61, -186086.41, -185578.45, 0.70, 0.10, 0.78
197, -185967.98, 187500.00, -186062.64, -186067.83, -179841.92, -186052.61, -186088.38, -185576.92, 0.70, 0.10, 0.78
198, -185968.42, 187500.00, -186063.16, -186068.19, -179829.91, -186052.98, -186090.30, -185597.95, 0.70, 0.10, 0.78
199, -185970.39, 187500.00, -186065.22, -186070.23, -179809.34, -186055.06, -186093.44, -185616.69, 0.70, 0.11, 0.78
200, -185972.31, 187500.00, -186067.11, -186072.19, -179719.08, -186056.97, -186094.89, -185610.98, 0.70, 0.11, 0.78
201, -185973.17, 187500.00, -186067.97, -186073.11, -179623.73, -186057.91, -186095.25, -185599.20, 0.70, 0.11, 0.78
202, -185974.23, 187500.00, -186069.06, -186074.17, -179598.73, -186059.02, -186096.92, -185608.48, 0.70, 0.11, 0.78
203, -185974.48, 187500.00, -186069.38, -186074.48, -179586.36, -186059.31, -186098.09, -185625.63, 0.70, 0.11, 0.78
204, -185976.47, 187500.00, -186071.25, -186076.45, -179509.36, -186061.25, -186099.75, -185621.94, 0.70, 0.11, 0.78
205, -185977.08, 187500.00, -186071.73, -186076.98, -179400.50, -186061.66, -186099.52, -185606.84, 0.70, 0.11, 0.78
206, -185978.16, 187500.00, -186072.83, -186078.00, -179344.72, -186062.69, -186100.89, -185612.81, 0.70, 0.11, 0.78
207, -185979.27, 187500.00, -186074.11, -186079.11, -179323.45, -186063.88, -186103.23, -185632.27, 0.70, 0.11, 0.78
208, -185982.02, 187500.00, -186076.80, -186081.97, -179242.75, -186066.63, -186105.92, -185632.44, 0.70, 0.11, 0.78
209, -185981.94, 187500.00, -186076.72, -186081.89, -179123.83, -186066.52, -186105.31, -185620.14, 0.69, 0.10, 0.78
210, -185980.91, 187500.00, -186075.72, -186080.88, -179051.81, -186065.50, -186104.73, -185624.84, 0.69, 0.10, 0.78
211, -185984.86, 187500.00, -186079.70, -186084.77, -179028.02, -186069.44, -186109.83, -185654.48, 0.69, 0.10, 0.78
212, -185987.55, 187500.00, -186082.53, -186087.59, -178951.86, -186070.73, -186113.22, -185668.80, 0.69, 0.10, 0.78
213, -185988.53, 187500.00, -186083.83, -186088.77, -178536.83, -186070.13, -186114.31, -185664.73, 0.69, 0.10, 0.78
214, -185990.31, 187500.00, -186085.47, -186090.36, -178254.31, -186073.61, -186115.64, -185656.73, 0.69, 0.11, 0.79
215, -185992.97, 187500.00, -186087.97, -186092.95, -178403.03, -186076.64, -186118.59, -185668.38, 0.69, 0.11, 0.79
216, -185994.45, 187500.00, -186089.38, -186094.42, -178535.69, -186078.42, -186120.02, -185668.42, 0.69, 0.11, 0.79
217, -185992.70, 187500.00, -186087.47, -186092.55, -178624.52, -186076.67, -186117.58, -185650.61, 0.69, 0.11, 0.79
218, -185993.36, 187500.00, -186088.19, -186093.27, -178742.30, -186077.31, -186117.69, -185636.14, 0.69, 0.11, 0.79
219, -185995.31, 187500.00, -186090.16, -186095.20, -178930.77, -186079.39, -186120.27, -185649.05, 0.69, 0.12, 0.79
220, -185998.73, 187500.00, -186093.67, -186098.58, -179110.88, -186082.78, -186124.00, -185658.83, 0.69, 0.12, 0.79
221, -185997.38, 187500.00, -186092.42, -186097.38, -179232.38, -186081.44, -186122.30, -185647.50, 0.69, 0.12, 0.79
222, -185996.69, 187500.00, -186091.66, -186096.61, -179370.70, -186080.44, -186120.94, -185631.70, 0.69, 0.12, 0.79
223, -185997.94, 187500.00, -186092.81, -186097.73, -179854.31, -186081.95, -186122.67, -185642.72, 0.69, 0.12, 0.79
224, -186001.69, 187500.00, -186096.45, -186101.38, -180254.39, -186086.52, -186127.27, -185668.72, 0.69, 0.12, 0.79
225, -186002.53, 187500.00, -186097.41, -186102.27, -180198.78, -186087.47, -186128.45, -185675.98, 0.69, 0.11, 0.78
226, -186003.41, 187500.00, -186098.30, -186103.09, -180109.64, -186088.19, -186129.20, -185675.59, 0.69, 0.11, 0.78
227, -186008.17, 187500.00, -186103.02, -186107.81, -180083.70, -186092.91, -186134.59, -185695.31, 0.69, 0.11, 0.78
228, -186009.80, 187500.00, -186104.58, -186109.36, -180079.42, -186094.42, -186137.09, -185724.97, 0.69, 0.11, 0.78
229, -186010.88, 187500.00, -186105.73, -186110.50, -180009.91, -186095.59, -186138.44, -185733.72, 0.69, 0.11, 0.78
230, -186010.45, 187500.00, -186105.41, -186110.09, -179906.91, -186095.08, -186138.03, -185732.34, 0.69, 0.12, 0.77
231, -186012.95, 187500.00, -186107.91, -186112.59, -179846.36, -186097.67, -186140.84, -185743.22, 0.69, 0.12, 0.77
232, -186016.16, 187500.00, -186111.14, -186115.80, -179824.25, -186100.94, -186144.61, -185768.34, 0.69, 0.12, 0.77
233, -186017.98, 187500.00, -186112.91, -186117.56, -179750.20, -186102.67, -186146.53, -185775.84, 0.69, 0.12, 0.77
234, -186019.48, 187500.00, -186114.39, -186118.92, -179637.41, -186104.03, -186147.75, -185768.72, 0.69, 0.12, 0.77
235, -186018.50, 187500.00, -186113.50, -186117.98, -179568.20, -186103.13, -186146.94, -185768.67, 0.69, 0.12, 0.79
236, -186022.52, 187500.00, -186117.52, -186121.94, -179551.17, -186107.19, -186151.48, -185793.45, 0.69, 0.12, 0.79
237, -186024.95, 187500.00, -186119.91, -186124.41, -179499.34, -186109.63, -186154.11, -185802.77, 0.69, 0.12, 0.79
238, -186024.64, 187500.00, -186119.64, -186124.16, -179396.70, -186109.33, -186153.61, -185793.27, 0.69, 0.12, 0.79
239, -186024.48, 187500.00, -186119.50, -186123.97, -179316.06, -186109.20, -186153.59, -185789.84, 0.69, 0.12, 0.79
240, -186026.86, 187500.00, -186121.83, -186126.30, -179293.69, -186111.50, -186156.25, -185808.08, 0.69, 0.12, 0.79
241, -186027.28, 187500.00, -186122.33, -186126.86, -179240.22, -186111.95, -186156.98, -185820.59, 0.69, 0.12, 0.79
242, -186027.23, 187500.00, -186122.28, -186126.72, -179133.59, -186111.89, -186156.77, -185814.83, 0.69, 0.12, 0.79
243, -186029.67, 187500.00, -186124.78, -186129.20, -179047.59, -186114.16, -186159.00, -185807.31, 0.69, 0.12, 0.79
244, -186032.06, 187500.00, -186127.22, -186131.58, -179032.39, -186116.55, -186161.89, -185828.50, 0.69, 0.12, 0.79
245, -186034.36, 187500.00, -186129.72, -186134.06, -179010.13, -186117.98, -186164.75, -185851.89, 0.70, 0.11, 0.79
246, -186035.59, 187500.00, -186131.28, -186135.63, -178733.61, -186116.64, -186166.36, -185855.02, 0.70, 0.11, 0.79
247, -186036.48, 187500.00, -186131.84, -186136.06, -178313.73, -186119.53, -186166.64, -185842.33, 0.70, 0.11, 0.79
248, -186036.48, 187500.00, -186131.70, -186135.98, -178420.06, -186120.09, -186166.52, -185842.05, 0.70, 0.11, 0.79
249, -186038.53, 187500.00, -186133.75, -186137.98, -178594.72, -186122.50, -186168.70, -185850.53, 0.70, 0.11, 0.79
250, -186035.50, 187500.00, -186130.64, -186134.95, -178706.92, -186119.45, -186165.58, -185840.48, 0.69, 0.11, 0.78
251, -186034.28, 187500.00, -186129.47, -186133.61, -178800.30, -186118.31, -186164.03, -185821.84, 0.69, 0.11, 0.78
252, -186038.02, 187500.00, -186133.16, -186137.31, -178961.81, -186121.98, -186167.61, -185821.58, 0.69, 0.11, 0.78
253, -186040.38, 187500.00, -186135.53, -186139.78, -179157.61, -186124.36, -186170.22, -185833.98, 0.69, 0.11, 0.78
254, -186041.00, 187500.00, -186136.30, -186140.58, -179293.81, -186125.08, -186170.84, -185827.64, 0.69, 0.11, 0.78
255, -186040.73, 187500.00, -186135.95, -186140.27, -179391.50, -186124.63, -186170.25, -185808.30, 0.69, 0.11, 0.79
0, -186043.42, 187500.00, -186138.44, -186142.80, -179658.67, -186127.16, -186172.67, -185802.63, 0.69, 0.11, 0.79
1, -186045.08, 187500.00, -186140.00, -186144.31, -180217.73, -186129.67, -186174.58, -185824.63, 0.69, 0.11, 0.79
2, -186045.86, 187500.00, -186140.84, -186145.13, -180267.06, -186130.69, -186175.66, -185839.92, 0.69, 0.11, 0.79
3, -186047.53, 187500.00, -186142.48, -186146.70, -180155.88, -186132.33, -186177.23, -185840.08, 0.69, 0.11, 0.79
4, -186050.06, 187500.00, -186145.03, -186149.25, -180081.98, -186134.81, -186180.08, -185847.31, 0.69, 0.11, 0.79
5, -186053.75, 187500.00, -186148.89, -186153.03, -180068.27, -186138.53, -186184.44, -185877.86, 0.69, 0.11, 0.79
6, -186057.95, 187500.00, -186153.13, -186157.25, -180027.14, -186142.81, -186188.77, -185896.69, 0.69, 0.11, 0.79
7, -186059.30, 187500.00, -186154.44, -186158.55, -179939.53, -186144.22, -186190.06, -185896.64, 0.69, 0.11, 0.79
8, -186058.50, 187500.00, -186153.69, -186157.75, -179865.80, -186143.44, -186189.33, -185897.47, 0.69, 0.11, 0.79
9, -186060.97, 187500.00, -186156.19, -186160.23, -179855.73, -186145.83, -186192.17, -185922.30, 0.70, 0.11, 0.79
10, -186062.70, 187500.00, -186157.97, -186161.91, -179819.02, -186147.59, -186194.19, -185942.50, 0.70, 0.11, 0.79
11, -186062.75, 187500.00, -186158.08, -186161.91, -179722.25, -186147.59, -186194.14, -185942.97, 0.70, 0.11, 0.79
12, -186064.92, 187500.00, -186160.16, -186164.08, -179638.66, -186149.70, -186196.16, -185939.48, 0.70, 0.11, 0.79
13, -186068.52, 187500.00, -186163.69, -186167.66, -179619.38, -186153.22, -186199.91, -185955.98, 0.70, 0.11, 0.79
14, -186071.27, 187500.00, -186166.42, -186170.33, -179602.23, -186156.03, -186203.02, -185975.94, 0.70, 0.11, 0.79
15, -186074.06, 187500.00, -186169.27, -186173.19, -179520.23, -186158.86, -186205.78, -185977.38, 0.70, 0.11, 0.79
16, -186073.06, 187500.00, -186168.28, -186172.30, -179427.27, -186157.89, -186204.86, -185969.28, 0.70, 0.11, 0.79
17, -186074.59, 187500.00, -186169.86, -186173.86, -179398.61, -186159.48, -186206.66, -185982.38, 0.70, 0.11, 0.79
18, -186079.73, 187500.00, -186174.92, -186178.88, -179379.38, -186164.59, -186211.91, -186005.73, 0.70, 0.11, 0.79
19, -186078.17, 187500.00, -186173.28, -186177.11, -179294.84, -186162.89, -186210.44, -186010.36, 0.70, 0.11, 0.79
20, -186080.41, 187500.00, -186175.52, -186179.39, -179182.23, -186165.14, -186212.64, -186007.20, 0.70, 0.11, 0.78
21, -186084.70, 187500.00, -186179.94, -186183.70, -179121.86, -186169.39, -186217.06, -186013.72, 0.70, 0.11, 0.78
22, -186085.70, 187500.00, -186180.95, -186184.75, -179102.00, -186170.27, -186218.45, -186035.66, 0.70, 0.11, 0.78
23, -186086.14, 187500.00, -186181.58, -186185.48, -178946.19, -186168.70, -186219.22, -186043.59, 0.70, 0.11, 0.78
24, -186087.92, 187500.00, -186183.36, -186187.20, -178439.42, -186170.63, -186220.63, -186029.89, 0.70, 0.11, 0.78
25, -186087.25, 187500.00, -186182.66, -186186.45, -178382.98, -186170.78, -186219.66, -186015.28, 0.69, 0.10, 0.80
26, -186087.55, 187500.00, -186182.84, -186186.63, -178549.02, -186171.56, -186219.97, -186020.75, 0.69, 0.10, 0.80
27, -186087.03, 187500.00, -186182.22, -186186.05, -178674.86, -186171.00, -186219.28, -186012.70, 0.69, 0.10, 0.80
28, -186086.02, 187500.00, -186181.17, -186184.97, -178755.67, -186170.00, -186217.97, -185990.73, 0.69, 0.10, 0.80
29, -186083.86, 187500.00, -186179.08, -186182.84, -178871.39, -186167.97, -186215.69, -185971.98, 0.69, 0.10, 0.80
30, -186085.42, 187500.00, -186180.50, -186184.39, -179049.41, -186169.47, -186217.27, -185977.84, 0.69, 0.11, 0.80
31, -186086.94, 187500.00, -186182.11, -186186.03, -179205.47, -186171.05, -186218.80, -185977.75, 0.69, 0.11, 0.80
32, -186087.67, 187500.00, -186182.84, -186186.81, -179315.13, -186171.83, -186219.22, -185959.27, 0.69, 0.11, 0.80
33, -186086.89, 187500.00, -186182.02, -186185.98, -179451.36, -186170.88, -186218.28, -185941.94, 0.69, 0.11, 0.80
34, -186087.72, 187500.00, -186182.77, -186186.53, -179923.89, -186171.70, -186219.19, -185953.36, 0.69, 0.11, 0.80
35, -186091.97, 187500.00, -186186.94, -186190.69, -180329.06, -186176.75, -186223.63, -185977.59, 0.69, 0.10, 0.79
36, -186092.53, 187500.00, -186187.47, -186191.30, -180272.44, -186177.38, -186224.36, -185986.44, 0.69, 0.10, 0.79
37, -186093.28, 187500.00, -186188.33, -186192.08, -180200.19, -186178.16, -186225.19, -185990.48, 0.69, 0.10, 0.79
38, -186098.22, 187500.00, -186193.28, -186197.00, -180192.06, -186183.09, -186230.39, -186014.70, 0.69, 0.10, 0.79
39, -186101.17, 187500.00, -186196.28, -186199.91, -180189.23, -186186.09, -186233.75, -186043.83, 0.69, 0.10, 0.79
40, -186101.33, 187500.00, -186196.47, -186200.11, -180116.86, -186186.31, -186234.06, -186052.94, 0.69, 0.11, 0.78
41, -186101.83, 187500.00, -186196.97, -186200.63, -180024.00, -186186.81, -186234.59, -186053.45, 0.69, 0.11, 0.78
42, -186106.47, 187500.00, -186201.53, -186205.20, -179993.55, -186191.23, -186239.52, -186070.16, 0.69, 0.11, 0.78
43, -186109.42, 187500.00, -186204.47, -186208.06, -179980.08, -186194.11, -186243.25, -186097.31, 0.69, 0.11, 0.78
44, -186109.83, 187500.00, -186204.91, -186208.42, -179900.17, -186194.41, -186243.98, -186106.09, 0.69, 0.11, 0.78
45, -186109.78, 187500.00, -186205.00, -186208.53, -179782.92, -186194.47, -186243.84, -186100.11, 0.70, 0.12, 0.78
46, -186111.81, 187500.00, -186206.97, -186210.50, -179719.64, -186196.42, -186246.00, -186106.97, 0.70, 0.12, 0.78
47, -186116.31, 187500.00, -186211.50, -186214.98, -179705.83, -186200.95, -186251.14, -186128.48, 0.70, 0.12, 0.78
48, -186116.73, 187500.00, -186211.97, -186215.42, -179640.52, -186201.52, -186251.81, -186132.94, 0.70, 0.12, 0.78
49, -186114.92, 187500.00, -186210.19, -186213.58, -179531.19, -186199.56, -186249.75, -186125.45, 0.70, 0.12, 0.78
50, -186116.98, 187500.00, -186212.25, -186215.70, -179454.91, -186201.63, -186251.77, -186126.56, 0.69, 0.11, 0.79
51, -186120.20, 187500.00, -186215.48, -186218.88, -179430.61, -186204.80, -186255.73, -186147.88, 0.69, 0.11, 0.79
52, -186121.98, 187500.00, -186217.25, -186220.72, -179370.83, -186206.59, -186257.84, -186157.22, 0.69, 0.11, 0.79
53, -186123.13, 187500.00, -186218.33, -186221.86, -179256.61, -186207.73, -186258.69, -186150.17, 0.69, 0.11, 0.79
54, -186124.06, 187500.00, -186219.39, -186222.80, -179168.66, -186208.67, -186259.42, -186146.38, 0.69, 0.11, 0.79
55, -186125.78, 187500.00, -186221.14, -186224.58, -179146.63, -186210.30, -186261.91, -186165.86, 0.69, 0.11, 0.78
56, -186128.25, 187500.00, -186223.78, -186227.17, -179107.27, -186211.81, -186264.97, -186182.11, 0.69, 0.11, 0.78
57, -186128.98, 187500.00, -186224.88, -186228.30, -178829.97, -186210.00, -186265.94, -186180.64, 0.69, 0.11, 0.78
58, -186130.34, 187500.00, -186225.98, -186229.36, -178420.05, -186213.36, -186266.67, -186168.64, 0.69, 0.11, 0.78
59, -186129.63, 187500.00, -186225.27, -186228.58, -178536.44, -186213.45, -186266.00, -186171.08, 0.69, 0.11, 0.78
60, -186130.72, 187500.00, -186226.25, -186229.50, -178703.91, -186214.70, -186267.11, -186177.27, 0.69, 0.11, 0.79
61, -186129.77, 187500.00, -186225.14, -186228.48, -178805.17, -186213.63, -186265.58, -186164.41, 0.69, 0.11, 0.79
62, -186127.19, 187500.00, -186222.56, -186225.98, -178904.97, -186211.14, -186262.28, -186143.80, 0.69, 0.11, 0.79
63, -186131.03, 187500.00, -186226.48, -186229.78, -179069.19, -186215.06, -186266.13, -186145.34, 0.69, 0.11, 0.79
64, -186134.80, 187500.00, -186230.19, -186233.55, -179249.67, -186218.81, -186270.06, -186152.86, 0.69, 0.11, 0.79
65, -186132.05, 187500.00, -186227.28, -186230.64, -179369.53, -186215.97, -186266.98, -186143.02, 0.69, 0.11, 0.78
66, -186129.05, 187500.00, -186224.27, -186227.70, -179471.69, -186212.95, -186263.50, -186125.81, 0.69, 0.11, 0.78
67, -186129.19, 187500.00, -186224.48, -186227.95, -179825.97, -186213.16, -186263.67, -186125.19, 0.69, 0.11, 0.78
68, -186132.89, 187500.00, -186228.14, -186231.47, -180349.80, -186217.66, -186268.09, -186149.36, 0.69, 0.11, 0.78
69, -186136.63, 187500.00, -186231.86, -186235.16, -180350.98, -186221.45, -186272.17, -186164.25, 0.69, 0.11, 0.78
70, -186140.53, 187500.00, -186235.73, -186239.02, -180248.34, -186225.39, -186275.88, -186166.02, 0.69, 0.11, 0.78
71, -186141.59, 187500.00, -186236.89, -186240.09, -180185.14, -186226.44, -186277.36, -186175.42, 0.69, 0.11, 0.79
72, -186142.38, 187500.00, -186237.56, -186240.89, -180172.75, -186227.20, -186278.97, -186198.27, 0.69, 0.11, 0.79
73, -186146.03, 187500.00, -186241.25, -186244.50, -180117.59, -186230.80, -186282.77, -186211.08, 0.69, 0.11, 0.79
74, -186145.81, 187500.00, -186241.13, -186244.25, -180012.41, -186230.50, -186282.50, -186208.36, 0.69, 0.11, 0.79
75, -186145.41, 187500.00, -186240.78, -186243.92, -179936.92, -186230.06, -186282.16, -186209.52, 0.69, 0.11, 0.79
76, -186150.50, 187500.00, -186245.92, -186248.94, -179917.20, -186235.22, -186287.61, -186225.98, 0.70, 0.11, 0.79
77, -186151.27, 187500.00, -186246.66, -186249.75, -179865.13, -186236.06, -186288.42, -186233.13, 0.70, 0.11, 0.79
78, -186154.23, 187500.00, -186249.53, -186252.70, -179757.84, -186239.02, -186291.38, -186234.22, 0.70, 0.11, 0.79
79, -186156.05, 187500.00, -186251.33, -186254.42, -179665.23, -186240.67, -186293.14, -186233.45, 0.70, 0.11, 0.79
80, -186160.23, 187500.00, -186255.67, -186258.63, -179637.41, -186244.97, -186297.47, -186241.91, 0.70, 0.11, 0.79
81, -186162.17, 187500.00, -186257.69, -186260.70, -179596.47, -186246.89, -186299.55, -186247.56, 0.69, 0.11, 0.79
82, -186161.02, 187500.00, -186256.39, -186259.41, -179504.33, -186245.64, -186298.34, -186246.11, 0.69, 0.11, 0.79
83, -186161.30, 187500.00, -186256.66, -186259.63, -179421.02, -186245.92, -186298.52, -186245.66, 0.69, 0.11, 0.79
84, -186162.89, 187500.00, -186258.33, -186261.27, -179406.20, -186247.52, -186300.23, -186250.58, 0.69, 0.11, 0.79
85, -186165.70, 187500.00, -186261.03, -186264.08, -179390.58, -186250.23, -186303.13, -186256.25, 0.69, 0.11, 0.79
86, -186166.56, 187500.00, -186261.86, -186264.81, -179307.75, -186251.16, -186304.02, -186257.50, 0.70, 0.10, 0.78
87, -186168.08, 187500.00, -186263.50, -186266.44, -179220.69, -186252.86, -186305.61, -186258.75, 0.70, 0.10, 0.78
88, -186169.94, 187500.00, -186265.39, -186268.33, -179195.11, -186254.63, -186307.55, -186262.16, 0.70, 0.10, 0.78
89, -186175.03, 187500.00, -186270.45, -186273.33, -179185.86, -186259.45, -186312.69, -186269.22, 0.70, 0.10, 0.78
90, -186176.53, 187500.00, -186272.22, -186275.05, -179033.16, -186258.80, -186314.53, -186271.50, 0.70, 0.10, 0.78
91, -186177.39, 187500.00, -186273.11, -186275.88, -178538.38, -186259.92, -186315.39, -186271.81, 0.70, 0.11, 0.78
92, -186179.67, 187500.00, -186275.28, -186278.11, -178512.98, -186263.14, -186317.47, -186273.55, 0.70, 0.11, 0.78
93, -186180.84, 187500.00, -186276.39, -186279.23, -178699.52, -186264.80, -186318.69, -186275.34, 0.70, 0.11, 0.78
94, -186180.50, 187500.00, -186276.03, -186278.78, -178826.59, -186264.59, -186318.23, -186274.33, 0.70, 0.11, 0.78
95, -186179.45, 187500.00, -186275.05, -186277.70, -178912.16, -186263.58, -186317.11, -186271.47, 0.70, 0.11, 0.78
96, -186179.44, 187500.00, -186274.94, -186277.73, -179039.81, -186263.47, -186316.95, -186270.42, 0.70, 0.11, 0.79
97, -186182.45, 187500.00, -186277.89, -186280.81, -179228.89, -186266.42, -186320.02, -186273.63, 0.70, 0.11, 0.79
98, -186181.55, 187500.00, -186277.06, -186279.97, -179382.78, -186265.59, -186319.23, -186271.98, 0.70, 0.11, 0.79
99, -186178.27, 187500.00, -186273.75, -186276.61, -179485.00, -186262.25, -186315.81, -186265.84, 0.70, 0.11, 0.79
100, -186177.69, 187500.00, -186273.22, -186275.94, -179669.58, -186261.53, -186315.11, -186262.42, 0.70, 0.11, 0.79
101, -186181.23, 187500.00, -186276.66, -186279.44, -180229.69, -186265.70, -186318.64, -186267.23, 0.69, 0.11, 0.78
102, -186183.91, 187500.00, -186279.14, -186282.03, -180402.28, -186268.84, -186321.28, -186271.31, 0.69, 0.11, 0.78
103, -186183.45, 187500.00, -186278.69, -186281.58, -180293.55, -186268.30, -186320.72, -186270.09, 0.69, 0.11, 0.78
104, -186184.02, 187500.00, -186279.41, -186282.22, -180189.08, -186268.88, -186321.36, -186269.58, 0.69, 0.11, 0.78
105, -186185.27, 187500.00, -186280.55, -186283.44, -180150.03, -186270.00, -186322.59, -186273.28, 0.69, 0.11, 0.78
106, -186188.23, 187500.00, -186283.59, -186286.39, -180104.86, -186273.00, -186325.72, -186278.38, 0.70, 0.11, 0.79
107, -186189.72, 187500.00, -186285.05, -186287.88, -180008.98, -186274.42, -186327.20, -186279.70, 0.70, 0.11, 0.79
108, -186190.19, 187500.00, -186285.48, -186288.34, -179916.30, -186274.89, -186327.69, -186280.08, 0.70, 0.11, 0.79
109, -186196.11, 187500.00, -186291.55, -186294.27, -179885.31, -186280.91, -186333.72, -186287.66, 0.70, 0.11, 0.79
110, -186198.50, 187500.00, -186293.98, -186296.58, -179858.92, -186283.17, -186336.23, -186292.11, 0.70, 0.11, 0.79
111, -186198.52, 187500.00, -186293.88, -186296.55, -179766.16, -186283.14, -186336.27, -186292.70, 0.69, 0.11, 0.78
112, -186200.91, 187500.00, -186296.28, -186298.92, -179658.88, -186285.56, -186338.63, -186294.91, 0.69, 0.11, 0.78
113, -186203.77, 187500.00, -186299.14, -186301.69, -179612.94, -186288.34, -186341.50, -186298.56, 0.69, 0.11, 0.78
114, -186206.28, 187500.00, -186301.56, -186304.16, -179594.78, -186290.86, -186344.08, -186302.59, 0.69, 0.11, 0.78
115, -186208.55, 187500.00, -186303.84, -186306.39, -179524.09, -186293.17, -186346.39, -186305.34, 0.69, 0.11, 0.78
116, -186209.30, 187500.00, -186304.73, -186307.19, -179421.30, -186293.94, -186347.25, -186306.08, 0.69, 0.11, 0.78
117, -186209.11, 187500.00, -186304.59, -186307.06, -179372.72, -186293.80, -186347.19, -186306.61, 0.70, 0.11, 0.78
118, -186212.59, 187500.00, -186308.09, -186310.56, -179372.03, -186297.27, -186350.78, -186311.13, 0.70, 0.11, 0.78
119, -186215.13, 187500.00, -186310.56, -186313.00, -179319.77, -186299.81, -186353.38, -186314.17, 0.70, 0.11, 0.78
120, -186217.34, 187500.00, -186312.94, -186315.33, -179224.06, -186301.66, -186355.70, -186316.31, 0.70, 0.11, 0.78
121, -186218.56, 187500.00, -186314.34, -186316.80, -179169.59, -186301.69, -186357.16, -186317.97, 0.70, 0.11, 0.78
122, -186222.34, 187500.00, -186317.97, -186320.38, -179183.36, -186305.97, -186360.92, -186322.53, 0.69, 0.11, 0.78
123, -186222.75, 187500.00, -186318.61, -186320.88, -179163.86, -186305.52, -186361.59, -186323.52, 0.69, 0.11, 0.78
124, -186225.11, 187500.00, -186321.28, -186323.47, -178827.94, -186306.20, -186364.19, -186326.08, 0.69, 0.11, 0.78
125, -186227.17, 187500.00, -186322.92, -186325.16, -178529.48, -186310.36, -186365.84, -186327.47, 0.69, 0.11, 0.78
126, -186226.80, 187500.00, -186322.44, -186324.73, -178692.73, -186310.70, -186365.39, -186327.20, 0.69, 0.11, 0.78
127, -186228.83, 187500.00, -186324.41, -186326.69, -178852.91, -186312.88, -186367.30, -186328.98, 0.70, 0.11, 0.78
128, -186227.63, 187500.00, -186323.17, -186325.44, -178949.72, -186311.66, -186365.91, -186327.02, 0.70, 0.11, 0.78
129, -186226.84, 187500.00, -186322.34, -186324.69, -179045.83, -186310.86, -186365.06, -186325.34, 0.70, 0.11, 0.78
130, -186229.70, 187500.00, -186325.19, -186327.63, -179198.94, -186313.77, -186367.88, -186328.05, 0.70, 0.11, 0.78
131, -186230.39, 187500.00, -186325.86, -186328.22, -179345.63, -186314.50, -186368.64, -186328.53, 0.70, 0.11, 0.78
132, -186229.45, 187500.00, -186324.88, -186327.28, -179437.70, -186313.50, -186367.59, -186326.61, 0.70, 0.11, 0.78
133, -186226.41, 187500.00, -186321.83, -186324.30, -179529.08, -186310.34, -186364.53, -186322.55, 0.70, 0.11, 0.78
134, -186226.19, 187500.00, -186321.55, -186324.06, -179784.55, -186309.88, -186364.23, -186322.08, 0.70, 0.11, 0.78
135, -186227.67, 187500.00, -186323.06, -186325.41, -180347.30, -186312.22, -186365.59, -186323.83, 0.70, 0.11, 0.78
136, -186229.28, 187500.00, -186324.61, -186326.95, -180407.73, -186314.20, -186367.03, -186325.30, 0.70, 0.11, 0.78
137, -186227.64, 187500.00, -186322.95, -186325.34, -180297.03, -186312.53, -186365.47, -186323.33, 0.70, 0.11, 0.79
138, -186229.70, 187500.00, -186325.08, -186327.52, -180240.53, -186314.61, -186367.59, -186325.81, 0.70, 0.11, 0.79
139, -186236.03, 187500.00, -186331.36, -186333.77, -180211.41, -186320.92, -186373.95, -186333.13, 0.70, 0.11, 0.79
140, -186237.48, 187500.00, -186332.88, -186335.13, -180120.63, -186322.44, -186375.45, -186334.69, 0.70, 0.11, 0.79
141, -186236.27, 187500.00, -186331.59, -186333.91, -179986.72, -186321.13, -186374.22, -186333.17, 0.70, 0.11, 0.79
142, -186236.69, 187500.00, -186332.00, -186334.33, -179903.34, -186321.44, -186374.73, -186334.00, 0.69, 0.11, 0.79
143, -186240.77, 187500.00, -186336.03, -186338.33, -179873.56, -186325.50, -186378.86, -186338.86, 0.69, 0.11, 0.79
144, -186244.09, 187500.00, -186339.36, -186341.70, -179795.92, -186328.89, -186382.30, -186342.53, 0.69, 0.11, 0.79
145, -186245.59, 187500.00, -186340.97, -186343.22, -179680.44, -186330.38, -186383.91, -186344.00, 0.69, 0.11, 0.79
146, -186246.06, 187500.00, -186341.39, -186343.56, -179603.56, -186330.61, -186384.19, -186344.67, 0.69, 0.11, 0.79
147, -186250.02, 187500.00, -186345.34, -186347.58, -179598.77, -186334.73, -186388.38, -186349.66, 0.70, 0.11, 0.78
148, -186253.81, 187500.00, -186349.08, -186351.34, -179582.20, -186338.50, -186392.27, -186354.17, 0.70, 0.11, 0.78
149, -186254.63, 187500.00, -186350.00, -186352.13, -179512.58, -186339.30, -186393.17, -186355.09, 0.70, 0.11, 0.78
150, -186257.80, 187500.00, -186353.19, -186355.22, -179460.30, -186342.44, -186396.31, -186358.42, 0.70, 0.11, 0.78
151, -186263.63, 187500.00, -186358.84, -186361.00, -179472.23, -186348.19, -186402.08, -186364.86, 0.70, 0.11, 0.78
152, -186266.33, 187500.00, -186361.73, -186363.77, -179469.61, -186350.98, -186405.05, -186368.19, 0.70, 0.11, 0.78
153, -186268.56, 187500.00, -186364.06, -186365.95, -179406.20, -186353.22, -186407.33, -186370.53, 0.70, 0.11, 0.78
154, -186272.03, 187500.00, -186367.36, -186369.33, -179335.50, -186356.59, -186410.70, -186373.91, 0.70, 0.11, 0.78
155, -186275.05, 187500.00, -186370.27, -186372.28, -179323.09, -186359.56, -186413.75, -186377.28, 0.70, 0.11, 0.78
156, -186279.09, 187500.00, -186374.36, -186376.30, -179312.92, -186363.63, -186418.03, -186381.78, 0.70, 0.11, 0.78
157, -186279.19, 187500.00, -186374.89, -186376.81, -179236.38, -186361.89, -186418.48, -186382.30, 0.70, 0.11, 0.78
158, -186280.13, 187500.00, -186376.23, -186378.20, -178897.14, -186360.72, -186419.72, -186383.50, 0.70, 0.11, 0.78
159, -186279.77, 187500.00, -186375.36, -186377.33, -178606.61, -186363.11, -186418.86, -186382.67, 0.70, 0.11, 0.78
160, -186279.52, 187500.00, -186375.05, -186377.02, -178752.97, -186363.50, -186418.55, -186382.30, 0.70, 0.11, 0.78
161, -186277.44, 187500.00, -186372.95, -186375.03, -178864.17, -186361.58, -186416.50, -186379.98, 0.70, 0.11, 0.78
162, -186276.02, 187500.00, -186371.47, -186373.58, -178944.63, -186360.17, -186414.97, -186377.94, 0.70, 0.11, 0.78
163, -186276.50, 187500.00, -186371.95, -186374.00, -179078.61, -186360.64, -186415.28, -186378.03, 0.70, 0.11, 0.78
164, -186277.89, 187500.00, -186373.36, -186375.34, -179250.44, -186361.94, -186416.63, -186379.44, 0.70, 0.11, 0.78
165, -186276.61, 187500.00, -186372.06, -186373.95, -179368.97, -186360.70, -186415.20, -186377.64, 0.70, 0.11, 0.78
166, -186276.55, 187500.00, -186371.97, -186373.89, -179445.52, -186360.55, -186414.95, -186376.80, 0.70, 0.11, 0.78
167, -186274.25, 187500.00, -186369.70, -186371.77, -179563.66, -186358.31, -186412.72, -186374.11, 0.70, 0.11, 0.78
168, -186275.92, 187500.00, -186371.28, -186373.39, -179800.69, -186359.70, -186414.39, -186375.64, 0.69, 0.10, 0.78
169, -186275.31, 187500.00, -186370.52, -186372.61, -180316.77, -186359.70, -186413.61, -186374.61, 0.69, 0.10, 0.78
170, -186275.28, 187500.00, -186370.50, -186372.50, -180402.52, -186360.03, -186413.41, -186374.27, 0.69, 0.10, 0.78
171, -186275.72, 187500.00, -186370.89, -186372.91, -180304.39, -186360.41, -186413.78, -186374.56, 0.69, 0.10, 0.78
172, -186278.67, 187500.00, -186374.03, -186375.97, -180269.55, -186363.52, -186416.94, -186378.22, 0.69, 0.10, 0.78
173, -186278.11, 187500.00, -186373.48, -186375.41, -180215.16, -186362.95, -186416.50, -186377.95, 0.69, 0.11, 0.79
174, -186279.08, 187500.00, -186374.41, -186376.28, -180102.70, -186363.83, -186417.39, -186378.83, 0.69, 0.11, 0.79
175, -186280.34, 187500.00, -186375.70, -186377.56, -179995.48, -186365.02, -186418.58, -186380.11, 0.69, 0.11, 0.79
176, -186282.77, 187500.00, -186378.06, -186380.08, -179950.30, -186367.55, -186421.09, -186383.14, 0.69, 0.11, 0.79
177, -186285.59, 187500.00, -186381.06, -186382.92, -179896.38, -186370.34, -186424.14, -186386.45, 0.69, 0.11, 0.79
178, -186285.02, 187500.00, -186380.50, -186382.34, -179783.44, -186369.67, -186423.56, -186385.95, 0.69, 0.11, 0.79
179, -186287.55, 187500.00, -186382.89, -186384.75, -179666.13, -186372.14, -186426.03, -186388.44, 0.69, 0.11, 0.79
180, -186291.39, 187500.00, -186386.66, -186388.64, -179618.61, -186375.97, -186430.00, -186392.63, 0.69, 0.11, 0.79
181, -186295.30, 187500.00, -186390.66, -186392.53, -179590.92, -186379.95, -186434.08, -186397.16, 0.69, 0.11, 0.79
182, -186296.06, 187500.00, -186391.39, -186393.11, -179517.22, -186380.69, -186434.83, -186398.13, 0.69, 0.11, 0.79
183, -186298.81, 187500.00, -186394.09, -186395.81, -179446.92, -186383.39, -186437.50, -186400.83, 0.69, 0.11, 0.78
184, -186302.52, 187500.00, -186397.94, -186399.55, -179447.31, -186387.17, -186441.28, -186404.95, 0.69, 0.11, 0.78
185, -186306.34, 187500.00, -186401.77, -186403.34, -179487.91, -186391.03, -186445.30, -186409.25, 0.69, 0.11, 0.78
186, -186309.27, 187500.00, -186404.73, -186406.25, -179474.94, -186393.97, -186448.28, -186412.41, 0.69, 0.11, 0.78
187, -186312.22, 187500.00, -186407.70, -186409.16, -179430.39, -186396.91, -186451.34, -186415.53, 0.69, 0.11, 0.78
188, -186315.50, 187500.00, -186411.02, -186412.42, -179436.17, -186400.17, -186454.63, -186419.05, 0.69, 0.11, 0.78
189, -186320.20, 187500.00, -186415.83, -186417.16, -179474.75, -186404.92, -186459.52, -186424.20, 0.69, 0.11, 0.78
190, -186320.14, 187500.00, -186415.75, -186417.19, -179453.02, -186404.88, -186459.55, -186424.36, 0.69, 0.11, 0.78
191, -186320.33, 187500.00, -186415.89, -186417.31, -179373.09, -186404.95, -186459.66, -186424.50, 0.69, 0.11, 0.78
192, -186322.70, 187500.00, -186418.33, -186419.72, -179318.78, -186407.11, -186462.09, -186427.00, 0.69, 0.11, 0.78
193, -186325.92, 187500.00, -186421.52, -186422.77, -179318.89, -186410.33, -186465.33, -186430.39, 0.69, 0.11, 0.78
194, -186327.00, 187500.00, -186422.95, -186424.19, -179221.69, -186409.34, -186466.66, -186431.89, 0.69, 0.11, 0.78
195, -186327.64, 187500.00, -186423.56, -186425.03, -178730.84, -186409.98, -186467.34, -186432.63, 0.69, 0.11, 0.78
196, -186326.97, 187500.00, -186422.73, -186424.09, -178569.05, -186410.50, -186466.52, -186431.42, 0.69, 0.11, 0.78
197, -186328.19, 187500.00, -186423.84, -186425.14, -178715.94, -186411.89, -186467.67, -186432.50, 0.69, 0.11, 0.78
198, -186325.80, 187500.00, -186421.44, -186422.70, -178849.47, -186409.81, -186465.22, -186429.97, 0.69, 0.11, 0.79
199, -186324.11, 187500.00, -186419.73, -186421.13, -178922.84, -186408.20, -186463.44, -186427.83, 0.69, 0.11, 0.79
200, -186321.66, 187500.00, -186417.30, -186418.70, -178995.33, -186405.81, -186460.80, -186424.86, 0.69, 0.11, 0.79
201, -186322.97, 187500.00, -186418.66, -186420.06, -179129.91, -186407.22, -186462.05, -186425.92, 0.69, 0.11, 0.79
202, -186323.06, 187500.00, -186418.66, -186420.16, -179256.56, -186407.19, -186462.11, -186425.80, 0.69, 0.11, 0.79
203, -186320.45, 187500.00, -186415.91, -186417.55, -179323.44, -186404.53, -186459.34, -186422.45, 0.70, 0.11, 0.79
204, -186317.70, 187500.00, -186413.19, -186414.77, -179381.77, -186401.83, -186456.48, -186419.08, 0.70, 0.11, 0.79
205, -186315.63, 187500.00, -186411.03, -186412.64, -179502.66, -186399.66, -186454.30, -186416.69, 0.70, 0.11, 0.79
206, -186316.05, 187500.00, -186411.55, -186413.14, -179647.95, -186400.06, -186454.72, -186416.94, 0.70, 0.11, 0.79
207, -186317.81, 187500.00, -186413.36, -186414.92, -179741.97, -186401.66, -186456.55, -186418.17, 0.70, 0.11, 0.79
208, -186316.17, 187500.00, -186411.69, -186413.31, -179919.73, -186399.86, -186454.72, -186415.83, 0.69, 0.10, 0.79
209, -186316.31, 187500.00, -186411.78, -186413.39, -180446.28, -186401.00, -186454.77, -186415.94, 0.69, 0.10, 0.79
210, -186318.41, 187500.00, -186413.83, -186415.39, -180571.78, -186403.47, -186456.95, -186418.73, 0.69, 0.10, 0.79
211, -186321.16, 187500.00, -186416.53, -186418.14, -180492.91, -186406.13, -186459.72, -186421.70, 0.69, 0.10, 0.79
212, -186323.20, 187500.00, -186418.61, -186420.19, -180375.70, -186408.09, -186461.73, -186423.80, 0.69, 0.10, 0.79
213, -186325.63, 187500.00, -186421.08, -186422.59, -180307.41, -186410.55, -186464.23, -186426.55, 0.69, 0.11, 0.79
214, -186331.59, 187500.00, -186427.09, -186428.61, -180298.08, -186416.58, -186470.45, -186433.30, 0.69, 0.11, 0.79
215, -186334.39, 187500.00, -186429.84, -186431.33, -180251.19, -186419.38, -186473.33, -186436.47, 0.69, 0.11, 0.79
216, -186336.36, 187500.00, -186431.89, -186433.30, -180157.11, -186421.30, -186475.36, -186438.63, 0.69, 0.11, 0.79
217, -186339.64, 187500.00, -186435.25, -186436.50, -180102.13, -186424.52, -186478.66, -186442.17, 0.69, 0.11, 0.79
218, -186342.19, 187500.00, -186437.77, -186438.98, -180122.84, -186427.05, -186481.30, -186445.27, 0.69, 0.11, 0.79
219, -186348.19, 187500.00, -186443.73, -186444.97, -180121.89, -186433.06, -186487.34, -186451.67, 0.69, 0.10, 0.78
220, -186352.00, 187500.00, -186447.47, -186448.77, -180069.14, -186436.77, -186491.28, -186455.55, 0.69, 0.10, 0.78
221, -186352.13, 187500.00, -186447.56, -186448.92, -180033.81, -186436.92, -186491.34, -186455.81, 0.69, 0.10, 0.78
222, -186356.88, 187500.00, -186452.48, -186453.70, -180064.23, -186441.80, -186496.22, -186460.92, 0.69, 0.10, 0.78
223, -186360.80, 187500.00, -186456.33, -186457.52, -180087.06, -186445.70, -186500.13, -186465.05, 0.69, 0.10, 0.78
224, -186361.73, 187500.00, -186457.22, -186458.38, -180042.94, -186446.59, -186501.11, -186466.03, 0.70, 0.11, 0.78
225, -186361.78, 187500.00, -186457.27, -186458.41, -179987.80, -186446.64, -186501.20, -186465.98, 0.70, 0.11, 0.78
226, -186364.02, 187500.00, -186459.44, -186460.64, -179986.56, -186448.88, -186503.42, -186468.30, 0.70, 0.11, 0.78
227, -186365.28, 187500.00, -186460.66, -186461.91, -179971.41, -186450.13, -186504.56, -186469.63, 0.70, 0.11, 0.78
228, -186367.16, 187500.00, -186462.66, -186463.75, -179879.84, -186451.92, -186506.50, -186471.52, 0.70, 0.11, 0.78
229, -186367.47, 187500.00, -186462.88, -186463.98, -179755.72, -186452.19, -186506.72, -186471.64, 0.70, 0.11, 0.79
230, -186368.53, 187500.00, -186463.91, -186464.95, -179673.73, -186453.16, -186507.73, -186472.58, 0.70, 0.11, 0.79
231, -186370.36, 187500.00, -186465.75, -186466.83, -179608.83, -186455.05, -186509.63, -186474.47, 0.70, 0.11, 0.79
232, -186369.78, 187500.00, -186465.20, -186466.31, -179484.53, -186454.45, -186509.09, -186473.69, 0.70, 0.11, 0.79
233, -186369.55, 187500.00, -186465.36, -186466.41, -179338.59, -186452.05, -186509.20, -186473.58, 0.70, 0.11, 0.79
234, -186365.86, 187500.00, -186462.53, -186463.61, -179201.08, -186443.63, -186506.30, -186470.78, 0.69, 0.11, 0.79
235, -186367.52, 187500.00, -186463.56, -186464.73, -178777.31, -186448.55, -186507.36, -186471.88, 0.69, 0.11, 0.79
236, -186367.30, 187500.00, -186463.03, -186464.23, -178645.55, -186450.63, -186506.84, -186471.19, 0.69, 0.11, 0.79
237, -186367.05, 187500.00, -186462.66, -186463.91, -178709.55, -186450.78, -186506.38, -186470.56, 0.69, 0.11, 0.79
238, -186367.08, 187500.00, -186462.61, -186463.88, -178820.75, -186451.09, -186506.23, -186470.30, 0.69, 0.11, 0.79
239, -186367.16, 187500.00, -186462.69, -186463.98, -178989.81, -186451.34, -186506.30, -186470.36, 0.69, 0.10, 0.79
240, -186365.75, 187500.00, -186461.31, -186462.53, -179118.88, -186450.02, -186504.89, -186468.84, 0.69, 0.10, 0.79
241, -186367.25, 187500.00, -186462.77, -186464.03, -179198.58, -186451.50, -186506.33, -186470.00, 0.69, 0.10, 0.79
242, -186367.08, 187500.00, -186462.53, -186463.91, -179305.05, -186451.30, -186506.08, -186469.63, 0.69, 0.10, 0.79
243, -186368.97, 187500.00, -186464.45, -186465.73, -179487.83, -186453.13, -186507.91, -186471.66, 0.69, 0.10, 0.79
244, -186370.31, 187500.00, -186465.80, -186467.05, -179655.14, -186454.53, -186509.34, -186473.17, 0.69, 0.10, 0.80
245, -186370.88, 187500.00, -186466.36, -186467.59, -179767.50, -186454.88, -186509.91, -186473.67, 0.69, 0.10, 0.80
246, -186372.02, 187500.00, -186467.52, -186468.84, -180073.67, -186455.94, -186511.13, -186474.81, 0.69, 0.10, 0.80
247, -186375.48, 187500.00, -186470.81, -186472.08, -180618.36, -186460.19, -186514.50, -186478.41, 0.69, 0.10, 0.80
248, -186378.27, 187500.00, -186473.63, -186474.81, -180706.69, -186463.25, -186517.34, -186481.53, 0.69, 0.10, 0.80
249, -186381.25, 187500.00, -186476.64, -186477.72, -180667.27, -186466.20, -186520.31, -186484.59, 0.70, 0.11, 0.80
250, -186384.53, 187500.00, -186479.92, -186480.98, -180617.28, -186469.42, -186523.63, -186487.95, 0.70, 0.11, 0.80
251, -186388.08, 187500.00, -186483.30, -186484.44, -180625.92, -186472.89, -186527.17, -186491.64, 0.70, 0.11, 0.80
252, -186391.69, 187500.00, -186486.94, -186487.97, -180636.00, -186476.48, -186530.91, -186495.44, 0.70, 0.11, 0.80
253, -186391.61, 187500.00, -186486.78, -186487.91, -180574.08, -186476.39, -186530.80, -186495.44, 0.70, 0.11, 0.80
254, -186391.08, 187500.00, -186486.39, -186487.42, -180481.64, -186475.97, -186530.33, -186494.98, 0.70, 0.11, 0.79
255, -186392.80, 187500.00, -186488.13, -186489.19, -180430.73, -186477.73, -186532.00, -186496.80, 0.70, 0.11, 0.79
0, -186395.23, 187500.00, -186490.67, -186491.66, -180407.11, -186480.17, -186534.55, -186499.38, 0.70, 0.11, 0.79
1, -186394.91, 187500.00, -186490.25, -186491.19, -180325.98, -186479.77, -186534.16, -186499.00, 0.70, 0.11, 0.79
2, -186397.20, 187500.00, -186492.56, -186493.58, -180212.88, -186481.98, -186536.44, -186501.25, 0.70, 0.11, 0.79
3, -186399.70, 187500.00, -186495.13, -186496.17, -180150.45, -186484.52, -186539.03, -186503.78, 0.70, 0.11, 0.79
