%OpenBCI Raw EEG Data
%
%Sample Rate = 250.0 Hz
%First Column = SampleIndex
%Other Columns = EEG data in microvolts followed by Accel Data (in G) interleaved with Aux Data
0, 52136.25, 15658.51, -187500.02, -187500.02, -6173.86, -187500.02, -187500.02, 187500.00, -0.00, -0.00, -0.00
1, 56543.27, 20728.20, -187500.02, -187500.02, -5817.00, -187500.02, -187500.02, 187500.00, -0.00, -0.00, -0.00
2, 57507.06, 20689.96, -187500.02, -187500.02, -5400.16, -187500.02, -187500.02, 187500.00, -0.00, -0.00, -0.00
3, 53175.96, 15595.48, -187500.02, -187500.02, -5675.13, -187500.02, -187500.02, 187500.00, -0.00, -0.00, -0.00
4, 51880.39, 15176.68, -187500.02, -187500.02, -6072.05, -187500.02, -187500.02, 187500.00, -0.00, -0.00, -0.00
5, 55925.29, 20114.42, -187500.02, -187500.02, -5813.33, -187500.02, -187500.02, 187500.00, -0.00, -0.00, -0.00
6, 58007.71, 21454.16, -187500.02, -187500.02, -5304.58, -187500.02, -187500.02, 187500.00, -0.00, -0.00, -0.00
7, 54209.24, 16652.16, -187500.02, -187500.02, -5396.07, -187500.02, -187500.02, 187500.00, -0.00, -0.00, -0.00
8, 51903.90, 14983.49, -187500.02, -187500.02, -5856.69, -187500.02, -187500.02, 187500.00, -0.00, -0.00, -0.00
9, 55287.53, 19412.96, -187500.02, -187500.02, -5773.92, -187500.02, -187500.02, 187500.00, -0.00, -0.00, -0.00
10, 58252.02, 21929.27, -187500.02, -187500.02, -5269.29, -187500.02, -187500.02, 187500.00, -0.00, -0.00, -0.00
11, 55133.77, 17656.18, -187500.02, -187500.02, -5261.24, -187500.02, -187500.02, 187500.00, -0.00, -0.00, -0.00
12, 52048.67, 14935.05, -187500.02, -187500.02, -5717.00, -187500.02, -187500.02, 187500.00, -0.00, -0.00, -0.00
13, 54684.68, 18700.86, -187500.02, -187500.02, -5730.41, -187500.02, -187500.02, 187500.00, -0.00, -0.00, -0.00
14, 58357.63, 22234.69, -187500.02, -187500.02, -5182.01, -187500.02, -187500.02, 187500.00, -0.00, -0.00, -0.00
15, 56101.29, 18745.58, -187500.02, -187500.02, -5082.88, -187500.02, -187500.02, 187500.00, -0.00, -0.00, -0.00
16, 52320.09, 15035.39, -187500.02, -187500.02, -5588.49, -187500.02, -187500.02, 187500.00, -0.00, -0.00, -0.00
17, 54054.36, 17920.64, -187500.02, -187500.02, -5711.27, -187500.02, -187500.02, 187500.00, -0.00, -0.00, -0.00
18, 58193.26, 22228.72, -187500.02, -187500.02, -5185.72, -187500.02, -187500.02, 187500.00, -0.00, -0.00, -0.00
19, 57056.69, 19878.70, -187500.02, -187500.02, -4935.62, -187500.02, -187500.02, 187500.00, -0.00, -0.00, -0.00
20, 52883.13, 15466.76, -187500.02, -187500.02, -5390.95, -187500.02, -187500.02, 187500.00, -0.00, -0.00, -0.00
21, 53566.09, 17254.38, -187500.02, -187500.02, -5637.42, -187500.02, -187500.02, 187500.00, -0.00, -0.00, -0.00
22, 57870.43, 22014.25, -187500.02, -187500.02, -5179.32, -187500.02, -187500.02, 187500.00, -0.00, -0.00, -0.00
23, 57884.15, 20925.30, -187500.02, -187500.02, -4826.10, -187500.02, -187500.02, 187500.00, -0.00, -0.00, -0.00
24, 53583.57, 16084.11, -187500.02, -187500.02, -5208.56, -187500.02, -187500.02, 187500.00, -0.00, -0.00, -0.00
25, 53178.02, 16654.13, -187500.02, -187500.02, -5566.84, -187500.02, -187500.02, 187500.00, -0.00, -0.00, -0.00
26, 57331.20, 21509.82, -187500.02, -187500.02, -5251.39, -187500.02, -187500.02, 187500.00, -0.00, -0.00, -0.00
27, 58529.58, 21805.33, -187500.02, -187500.02, -4782.13, -187500.02, -187500.02, 187500.00, -0.00, -0.00, -0.00
28, 54407.00, 16873.96, -187500.02, -187500.02, -5054.22, -187500.02, -187500.02, 187500.00, -0.00, -0.00, -0.00
29, 52871.24, 16139.55, -187500.02, -187500.02, -5542.47, -187500.02, -187500.02, 187500.00, -0.00, -0.00, -0.00
30, 56651.59, 20828.54, -187500.02, -187500.02, -5348.48, -187500.02, -187500.02, 187500.00, -0.00, -0.00, -0.00
31, 58905.36, 22422.89, -187500.02, -187500.02, -4826.90, -187500.02, -187500.02, 187500.00, -0.00, -0.00, -0.00
32, 55289.90, 17771.98, -187500.02, -187500.02, -4935.87, -187500.02, -187500.02, 187500.00, -0.00, -0.00, -0.00
33, 52726.94, 15765.15, -187500.02, -187500.02, -5498.75, -187500.02, -187500.02, 187500.00, -0.00, -0.00, -0.00
34, 55871.18, 19976.18, -187500.02, -187500.02, -5453.76, -187500.02, -187500.02, 187500.00, -0.00, -0.00, -0.00
35, 59092.60, 22850.54, -187500.02, -187500.02, -4847.71, -187500.02, -187500.02, 187500.00, -0.00, -0.00, -0.00
36, 56256.68, 18835.61, -187500.02, -187500.02, -4795.86, -187500.02, -187500.02, 187500.00, -0.00, -0.00, -0.00
37, 52925.55, 15773.04, -187500.02, -187500.02, -5299.51, -187500.02, -187500.02, 187500.00, -0.00, -0.00, -0.00
38, 55319.98, 19304.11, -187500.02, -187500.02, -5297.05, -187500.02, -187500.02, 187500.00, -0.00, -0.00, -0.00
39, 59165.18, 23124.18, -187500.02, -187500.02, -4753.50, -187500.02, -187500.02, 187500.00, -0.00, -0.00, -0.00
40, 57303.99, 20028.03, -187500.02, -187500.02, -4589.01, -187500.02, -187500.02, 187500.00, -0.00, -0.00, -0.00
41, 53350.59, 16035.21, -187500.02, -187500.02, -5069.53, -187500.02, -187500.02, 187500.00, -0.00, -0.00, -0.00
42, 54672.12, 18498.55, -187500.02, -187500.02, -5268.10, -187500.02, -187500.02, 187500.00, -0.00, -0.00, -0.00
43, 58910.03, 23016.73, -187500.02, -187500.02, -4778.51, -187500.02, -187500.02, 187500.00, -0.00, -0.00, -0.00
44, 58267.38, 21185.72, -187500.02, -187500.02, -4437.16, -187500.02, -187500.02, 187500.00, -0.00, -0.00, -0.00
45, 53999.98, 16555.91, -187500.02, -187500.02, -4830.30, -187500.02, -187500.02, 187500.00, -0.00, -0.00, -0.00
46, 54209.66, 17834.81, -187500.02, -187500.02, -5137.44, -187500.02, -187500.02, 187500.00, -0.00, -0.00, -0.00
47, 58523.04, 22722.63, -187500.02, -187500.02, -4733.41, -187500.02, -187500.02, 187500.00, -0.00, -0.00, -0.00
48, 59065.40, 22227.54, -187500.02, -187500.02, -4320.57, -187500.02, -187500.02, 187500.00, -0.00, -0.00, -0.00
49, 54784.32, 17278.93, -187500.02, -187500.02, -4606.40, -187500.02, -187500.02, 187500.00, -0.00, -0.00, -0.00
50, 53847.23, 17255.57, -187500.02, -187500.02, -4984.46, -187500.02, -187500.02, 187500.00, -0.00, -0.00, -0.00
51, 57938.80, 22163.18, -187500.02, -187500.02, -4693.98, -187500.02, -187500.02, 187500.00, -0.00, -0.00, -0.00
52, 59687.83, 23100.88, -187500.02, -187500.02, -4217.28, -187500.02, -187500.02, 187500.00, -0.00, -0.00, -0.00
53, 55711.88, 18187.19, -187500.02, -187500.02, -4384.61, -187500.02, -187500.02, 187500.00, -0.00, -0.00, -0.00
54, 53651.47, 16826.59, -187500.02, -187500.02, -4825.81, -187500.02, -187500.02, 187500.00, -0.00, -0.00, -0.00
55, 57227.71, 21411.81, -187500.02, -187500.02, -4665.64, -187500.02, -187500.02, 187500.00, -0.00, -0.00, -0.00
56, 59995.84, 23659.83, -187500.02, -187500.02, -4157.45, -187500.02, -187500.02, 187500.00, -0.00, -0.00, -0.00
57, 56636.75, 19176.75, -187500.02, -187500.02, -4222.65, -187500.02, -187500.02, 187500.00, -0.00, -0.00, -0.00
58, 53657.80, 16620.76, -187500.02, -187500.02, -4674.58, -187500.02, -187500.02, 187500.00, -0.00, -0.00, -0.00
59, 56484.80, 20575.03, -187500.02, -187500.02, -4648.72, -187500.02, -187500.02, 187500.00, -0.00, -0.00, -0.00
60, 60021.03, 23922.09, -187500.02, -187500.02, -4171.19, -187500.02, -187500.02, 187500.00, -0.00, -0.00, -0.00
61, 57552.48, 20217.85, -187500.02, -187500.02, -4109.57, -187500.02, -187500.02, 187500.00, -0.00, -0.00, -0.00
62, 53813.48, 16593.09, -187500.02, -187500.02, -4596.55, -187500.02, -187500.02, 187500.00, -0.00, -0.00, -0.00
63, 55709.53, 19656.53, -187500.02, -187500.02, -4696.06, -187500.02, -187500.02, 187500.00, -0.00, -0.00, -0.00
64, 59802.43, 23868.89, -187500.02, -187500.02, -4234.83, -187500.02, -187500.02, 187500.00, -0.00, -0.00, -0.00
65, 58426.03, 21247.66, -187500.02, -187500.02, -4060.78, -187500.02, -187500.02, 187500.00, -0.00, -0.00, -0.00
66, 54220.14, 16850.96, -187500.02, -187500.02, -4512.33, -187500.02, -187500.02, 187500.00, -0.00, -0.00, -0.00
67, 55015.33, 18782.97, -187500.02, -187500.02, -4780.90, -187500.02, -187500.02, 187500.00, -0.00, -0.00, -0.00
68, 59391.78, 23584.46, -187500.02, -187500.02, -4329.13, -187500.02, -187500.02, 187500.00, -0.00, -0.00, -0.00
69, 59293.63, 22348.82, -187500.02, -187500.02, -3956.33, -187500.02, -187500.02, 187500.00, -0.00, -0.00, -0.00
70, 54991.37, 17538.43, -187500.02, -187500.02, -4257.27, -187500.02, -187500.02, 187500.00, -0.00, -0.00, -0.00
71, 54702.34, 18268.39, -187500.02, -187500.02, -4593.37, -187500.02, -187500.02, 187500.00, -0.00, -0.00, -0.00
72, 58978.23, 23234.93, -187500.02, -187500.02, -4263.77, -187500.02, -187500.02, 187500.00, -0.00, -0.00, -0.00
73, 60061.84, 23360.68, -187500.02, -187500.02, -3817.23, -187500.02, -187500.02, 187500.00, -0.00, -0.00, -0.00
74, 55845.32, 18351.70, -187500.02, -187500.02, -4082.01, -187500.02, -187500.02, 187500.00, -0.00, -0.00, -0.00
75, 54432.69, 17778.62, -187500.02, -187500.02, -4521.62, -187500.02, -187500.02, 187500.00, -0.00, -0.00, -0.00
76, 58413.36, 22666.41, -187500.02, -187500.02, -4241.42, -187500.02, -187500.02, 187500.00, -0.00, -0.00, -0.00
77, 60602.15, 24157.05, -187500.02, -187500.02, -3731.98, -187500.02, -187500.02, 187500.00, -0.00, -0.00, -0.00
78, 56832.80, 19370.04, -187500.02, -187500.02, -3877.94, -187500.02, -187500.02, 187500.00, -0.00, -0.00, -0.00
79, 54402.31, 17537.92, -187500.02, -187500.02, -4356.80, -187500.02, -187500.02, 187500.00, -0.00, -0.00, -0.00
80, 57723.98, 21918.52, -187500.02, -187500.02, -4250.32, -187500.02, -187500.02, 187500.00, -0.00, -0.00, -0.00
81, 60880.05, 24671.50, -187500.02, -187500.02, -3681.78, -187500.02, -187500.02, 187500.00, -0.00, -0.00, -0.00
82, 57873.18, 20484.66, -187500.02, -187500.02, -3671.63, -187500.02, -187500.02, 187500.00, -0.00, -0.00, -0.00
83, 54579.29, 17501.77, -187500.02, -187500.02, -4168.27, -187500.02, -187500.02, 187500.00, -0.00, -0.00, -0.00
84, 57073.66, 21147.83, -187500.02, -187500.02, -4201.17, -187500.02, -187500.02, 187500.00, -0.00, -0.00, -0.00
85, 60927.23, 24932.23, -187500.02, -187500.02, -3653.64, -187500.02, -187500.02, 187500.00, -0.00, -0.00, -0.00
86, 58927.60, 21689.46, -187500.02, -187500.02, -3484.41, -187500.02, -187500.02, 187500.00, -0.00, -0.00, -0.00
87, 55009.50, 17772.90, -187500.02, -187500.02, -3940.03, -187500.02, -187500.02, 187500.00, -0.00, -0.00, -0.00
88, 56522.44, 20443.51, -187500.02, -187500.02, -4073.47, -187500.02, -187500.02, 187500.00, -0.00, -0.00, -0.00
89, 60754.01, 24914.71, -187500.02, -187500.02, -3602.88, -187500.02, -187500.02, 187500.00, -0.00, -0.00, -0.00
90, 59871.18, 22820.08, -187500.02, -187500.02, -3331.89, -187500.02, -187500.02, 187500.00, -0.00, -0.00, -0.00
91, 55605.30, 18237.88, -187500.02, -187500.02, -3710.93, -187500.02, -187500.02, 187500.00, -0.00, -0.00, -0.00
92, 56000.53, 19731.38, -187500.02, -187500.02, -3979.33, -187500.02, -187500.02, 187500.00, -0.00, -0.00, -0.00
93, 60371.43, 24632.25, -187500.02, -187500.02, -3554.73, -187500.02, -187500.02, 187500.00, -0.00, -0.00, -0.00
94, 60690.95, 23866.99, -187500.02, -187500.02, -3175.74, -187500.02, -187500.02, 187500.00, -0.00, -0.00, -0.00
95, 56324.09, 18876.81, -187500.02, -187500.02, -3493.67, -187500.02, -187500.02, 187500.00, -0.00, -0.00, -0.00
96, 55564.00, 19085.17, -187500.02, -187500.02, -3874.70, -187500.02, -187500.02, 187500.00, -0.00, -0.00, -0.00
97, 59730.48, 24030.99, -187500.02, -187500.02, -3590.34, -187500.02, -187500.02, 187500.00, -0.00, -0.00, -0.00
98, 61226.01, 24652.50, -187500.02, -187500.02, -3148.82, -187500.02, -187500.02, 187500.00, -0.00, -0.00, -0.00
99, 57103.63, 19636.90, -187500.02, -187500.02, -3373.44, -187500.02, -187500.02, 187500.00, -0.00, -0.00, -0.00
100, 55251.61, 18537.06, -187500.02, -187500.02, -3829.97, -187500.02, -187500.02, 187500.00, -0.00, -0.00, -0.00
101, 58966.78, 23234.41, -187500.02, -187500.02, -3660.63, -187500.02, -187500.02, 187500.00, -0.00, -0.00, -0.00
102, 61517.12, 25188.45, -187500.02, -187500.02, -3183.18, -187500.02, -187500.02, 187500.00, -0.00, -0.00, -0.00
103, 57976.38, 20543.11, -187500.02, -187500.02, -3271.38, -187500.02, -187500.02, 187500.00, -0.00, -0.00, -0.00
104, 55134.67, 18195.93, -187500.02, -187500.02, -3770.72, -187500.02, -187500.02, 187500.00, -0.00, -0.00, -0.00
105, 58137.76, 22309.74, -187500.02, -187500.02, -3733.86, -187500.02, -187500.02, 187500.00, -0.00, -0.00, -0.00
106, 61582.65, 25481.50, -187500.02, -187500.02, -3190.04, -187500.02, -187500.02, 187500.00, -0.00, -0.00, -0.00
107, 58891.28, 21566.82, -187500.02, -187500.02, -3139.95, -187500.02, -187500.02, 187500.00, -0.00, -0.00, -0.00
108, 55304.41, 18172.55, -187500.02, -187500.02, -3605.67, -187500.02, -187500.02, 187500.00, -0.00, -0.00, -0.00
109, 57469.42, 21508.44, -187500.02, -187500.02, -3635.40, -187500.02, -187500.02, 187500.00, -0.00, -0.00, -0.00
110, 61509.00, 25599.43, -187500.02, -187500.02, -3124.80, -187500.02, -187500.02, 187500.00, -0.00, -0.00, -0.00
111, 59928.22, 22759.39, -187500.02, -187500.02, -2903.51, -187500.02, -187500.02, 187500.00, -0.00, -0.00, -0.00
112, 55845.03, 18545.04, -187500.02, -187500.02, -3291.43, -187500.02, -187500.02, 187500.00, -0.00, -0.00, -0.00
113, 56899.29, 20756.57, -187500.02, -187500.02, -3504.35, -187500.02, -187500.02, 187500.00, -0.00, -0.00, -0.00
114, 61224.06, 25446.48, -187500.02, -187500.02, -3067.26, -187500.02, -187500.02, 187500.00, -0.00, -0.00, -0.00
115, 60802.31, 23841.85, -187500.02, -187500.02, -2753.78, -187500.02, -187500.02, 187500.00, -0.00, -0.00, -0.00
116, 56438.18, 19035.73, -187500.02, -187500.02, -3102.85, -187500.02, -187500.02, 187500.00, -0.00, -0.00, -0.00
117, 56394.57, 20052.49, -187500.02, -187500.02, -3397.29, -187500.02, -187500.02, 187500.00, -0.00, -0.00, -0.00
118, 60738.65, 25032.23, -187500.02, -187500.02, -3027.92, -187500.02, -187500.02, 187500.00, -0.00, -0.00, -0.00
119, 61548.34, 24821.88, -187500.02, -187500.02, -2598.93, -187500.02, -187500.02, 187500.00, -0.00, -0.00, -0.00
120, 57240.67, 19786.19, -187500.02, -187500.02, -2847.25, -187500.02, -187500.02, 187500.00, -0.00, -0.00, -0.00
121, 56073.73, 19515.24, -187500.02, -187500.02, -3209.00, -187500.02, -187500.02, 187500.00, -0.00, -0.00, -0.00
122, 60113.11, 24417.51, -187500.02, -187500.02, -2958.95, -187500.02, -187500.02, 187500.00, -0.00, -0.00, -0.00
123, 62054.57, 25577.14, -187500.02, -187500.02, -2485.72, -187500.02, -187500.02, 187500.00, -0.00, -0.00, -0.00
124, 58131.07, 20665.10, -187500.02, -187500.02, -2624.56, -187500.02, -187500.02, 187500.00, -0.00, -0.00, -0.00
125, 55915.61, 19108.86, -187500.02, -187500.02, -3040.33, -187500.02, -187500.02, 187500.00, -0.00, -0.00, -0.00
126, 59399.67, 23636.21, -187500.02, -187500.02, -2906.87, -187500.02, -187500.02, 187500.00, -0.00, -0.00, -0.00
127, 62347.39, 26107.31, -187500.02, -187500.02, -2382.49, -187500.02, -187500.02, 187500.00, -0.00, -0.00, -0.00
128, 59105.10, 21700.71, -187500.02, -187500.02, -2398.92, -187500.02, -187500.02, 187500.00, -0.00, -0.00, -0.00
129, 55945.59, 18929.83, -187500.02, -187500.02, -2868.51, -187500.02, -187500.02, 187500.00, -0.00, -0.00, -0.00
130, 58639.24, 22781.50, -187500.02, -187500.02, -2865.69, -187500.02, -187500.02, 187500.00, -0.00, -0.00, -0.00
131, 62324.33, 26311.78, -187500.02, -187500.02, -2373.46, -187500.02, -187500.02, 187500.00, -0.00, -0.00, -0.00
132, 60059.61, 22789.26, -187500.02, -187500.02, -2227.55, -187500.02, -187500.02, 187500.00, -0.00, -0.00, -0.00
133, 56212.87, 19009.85, -187500.02, -187500.02, -2673.09, -187500.02, -187500.02, 187500.00, -0.00, -0.00, -0.00
134, 57903.71, 21885.40, -187500.02, -187500.02, -2834.69, -187500.02, -187500.02, 187500.00, -0.00, -0.00, -0.00
135, 62086.24, 26247.85, -187500.02, -187500.02, -2370.42, -187500.02, -187500.02, 187500.00, -0.00, -0.00, -0.00
136, 60911.59, 23825.75, -187500.02, -187500.02, -2144.29, -187500.02, -187500.02, 187500.00, -0.00, -0.00, -0.00
137, 56593.74, 19254.19, -187500.02, -187500.02, -2591.84, -187500.02, -187500.02, 187500.00, -0.00, -0.00, -0.00
138, 57193.78, 20986.48, -187500.02, -187500.02, -2871.48, -187500.02, -187500.02, 187500.00, -0.00, -0.00, -0.00
139, 61593.38, 25863.40, -187500.02, -187500.02, -2443.85, -187500.02, -187500.02, 187500.00, -0.00, -0.00, -0.00
140, 61610.97, 24751.11, -187500.02, -187500.02, -2121.34, -187500.02, -187500.02, 187500.00, -0.00, -0.00, -0.00
141, 57153.36, 19730.13, -187500.02, -187500.02, -2501.23, -187500.02, -187500.02, 187500.00, -0.00, -0.00, -0.00
142, 56615.71, 20203.03, -187500.02, -187500.02, -2876.36, -187500.02, -187500.02, 187500.00, -0.00, -0.00, -0.00
143, 60845.04, 25171.28, -187500.02, -187500.02, -2596.80, -187500.02, -187500.02, 187500.00, -0.00, -0.00, -0.00
144, 62105.08, 25494.09, -187500.02, -187500.02, -2143.02, -187500.02, -187500.02, 187500.00, -0.00, -0.00, -0.00
145, 57885.05, 20438.17, -187500.02, -187500.02, -2348.77, -187500.02, -187500.02, 187500.00, -0.00, -0.00, -0.00
146, 56266.80, 19638.26, -187500.02, -187500.02, -2756.51, -187500.02, -187500.02, 187500.00, -0.00, -0.00, -0.00
147, 60128.52, 24444.29, -187500.02, -187500.02, -2561.31, -187500.02, -187500.02, 187500.00, -0.00, -0.00, -0.00
148, 62486.71, 26131.07, -187500.02, -187500.02, -2063.94, -187500.02, -187500.02, 187500.00, -0.00, -0.00, -0.00
149, 58763.14, 21338.83, -187500.02, -187500.02, -2170.15, -187500.02, -187500.02, 187500.00, -0.00, -0.00, -0.00
150, 56153.53, 19292.33, -187500.02, -187500.02, -2610.84, -187500.02, -187500.02, 187500.00, -0.00, -0.00, -0.00
151, 59402.95, 23641.60, -187500.02, -187500.02, -2489.16, -187500.02, -187500.02, 187500.00, -0.00, -0.00, -0.00
152, 62671.25, 26557.98, -187500.02, -187500.02, -1971.69, -187500.02, -187500.02, 187500.00, -0.00, -0.00, -0.00
153, 59744.07, 22415.24, -187500.02, -187500.02, -1943.31, -187500.02, -187500.02, 187500.00, -0.00, -0.00, -0.00
154, 56285.87, 19223.37, -187500.02, -187500.02, -2405.56, -187500.02, -187500.02, 187500.00, -0.00, -0.00, -0.00
155, 58656.30, 22778.62, -187500.02, -187500.02, -2424.31, -187500.02, -187500.02, 187500.00, -0.00, -0.00, -0.00
156, 62629.56, 26729.62, -187500.02, -187500.02, -1876.61, -187500.02, -187500.02, 187500.00, -0.00, -0.00, -0.00
157, 60738.29, 23569.04, -187500.02, -187500.02, -1707.25, -187500.02, -187500.02, 187500.00, -0.00, -0.00, -0.00
158, 56659.93, 19435.33, -187500.02, -187500.02, -2161.03, -187500.02, -187500.02, 187500.00, -0.00, -0.00, -0.00
159, 57965.45, 21914.01, -187500.02, -187500.02, -2344.68, -187500.02, -187500.02, 187500.00, -0.00, -0.00, -0.00
160, 62293.24, 26531.88, -187500.02, -187500.02, -1866.19, -187500.02, -187500.02, 187500.00, -0.00, -0.00, -0.00
161, 61603.15, 24627.98, -187500.02, -187500.02, -1545.85, -187500.02, -187500.02, 187500.00, -0.00, -0.00, -0.00
162, 57229.94, 19879.95, -187500.02, -187500.02, -1909.29, -187500.02, -187500.02, 187500.00, -0.00, -0.00, -0.00
163, 57428.76, 21177.65, -187500.02, -187500.02, -2183.45, -187500.02, -187500.02, 187500.00, -0.00, -0.00, -0.00
164, 61825.17, 26154.49, -187500.02, -187500.02, -1791.72, -187500.02, -187500.02, 187500.00, -0.00, -0.00, -0.00
165, 62332.80, 25591.94, -187500.02, -187500.02, -1408.58, -187500.02, -187500.02, 187500.00, -0.00, -0.00, -0.00
166, 57932.57, 20517.52, -187500.02, -187500.02, -1708.57, -187500.02, -187500.02, 187500.00, -0.00, -0.00, -0.00
167, 57027.70, 20557.10, -187500.02, -187500.02, -2048.98, -187500.02, -187500.02, 187500.00, -0.00, -0.00, -0.00
168, 61204.48, 25568.49, -187500.02, -187500.02, -1755.75, -187500.02, -187500.02, 187500.00, -0.00, -0.00, -0.00
169, 62872.80, 26394.46, -187500.02, -187500.02, -1318.95, -187500.02, -187500.02, 187500.00, -0.00, -0.00, -0.00
170, 58815.28, 21391.09, -187500.02, -187500.02, -1484.54, -187500.02, -187500.02, 187500.00, -0.00, -0.00, -0.00
171, 56768.40, 20070.73, -187500.02, -187500.02, -1954.68, -187500.02, -187500.02, 187500.00, -0.00, -0.00, -0.00
172, 60404.45, 24725.16, -187500.02, -187500.02, -1827.52, -187500.02, -187500.02, 187500.00, -0.00, -0.00, -0.00
173, 63168.17, 26931.37, -187500.02, -187500.02, -1296.92, -187500.02, -187500.02, 187500.00, -0.00, -0.00, -0.00
174, 59688.14, 22312.81, -187500.02, -187500.02, -1385.38, -187500.02, -187500.02, 187500.00, -0.00, -0.00, -0.00
175, 56700.18, 19781.32, -187500.02, -187500.02, -1879.65, -187500.02, -187500.02, 187500.00, -0.00, -0.00, -0.00
176, 59590.46, 23810.89, -187500.02, -187500.02, -1879.54, -187500.02, -187500.02, 187500.00, -0.00, -0.00, -0.00
177, 63153.42, 27147.89, -187500.02, -187500.02, -1360.42, -187500.02, -187500.02, 187500.00, -0.00, -0.00, -0.00
178, 60575.59, 23323.66, -187500.02, -187500.02, -1301.32, -187500.02, -187500.02, 187500.00, -0.00, -0.00, -0.00
179, 56832.37, 19729.26, -187500.02, -187500.02, -1796.66, -187500.02, -187500.02, 187500.00, -0.00, -0.00, -0.00
180, 58793.65, 22872.79, -187500.02, -187500.02, -1922.76, -187500.02, -187500.02, 187500.00, -0.00, -0.00, -0.00
181, 62901.96, 27082.24, -187500.02, -187500.02, -1448.06, -187500.02, -187500.02, 187500.00, -0.00, -0.00, -0.00
182, 61461.21, 24383.09, -187500.02, -187500.02, -1213.34, -187500.02, -187500.02, 187500.00, -0.00, -0.00, -0.00
183, 57247.78, 19989.81, -187500.02, -187500.02, -1624.23, -187500.02, -187500.02, 187500.00, -0.00, -0.00, -0.00
184, 58174.55, 22074.52, -187500.02, -187500.02, -1807.97, -187500.02, -187500.02, 187500.00, -0.00, -0.00, -0.00
185, 62561.08, 26875.02, -187500.02, -187500.02, -1358.67, -187500.02, -187500.02, 187500.00, -0.00, -0.00, -0.00
186, 62297.15, 25437.16, -187500.02, -187500.02, -1039.89, -187500.02, -187500.02, 187500.00, -0.00, -0.00, -0.00
187, 57838.64, 20486.02, -187500.02, -187500.02, -1414.44, -187500.02, -187500.02, 187500.00, -0.00, -0.00, -0.00
188, 57611.30, 21314.78, -187500.02, -187500.02, -1712.77, -187500.02, -187500.02, 187500.00, -0.00, -0.00, -0.00
189, 61940.48, 26328.37, -187500.02, -187500.02, -1372.11, -187500.02, -187500.02, 187500.00, -0.00, -0.00, -0.00
190, 62900.55, 26292.51, -187500.02, -187500.02, -960.41, -187500.02, -187500.02, 187500.00, -0.00, -0.00, -0.00
191, 58578.15, 21184.29, -187500.02, -187500.02, -1217.86, -187500.02, -187500.02, 187500.00, -0.00, -0.00, -0.00
192, 57196.97, 20676.17, -187500.02, -187500.02, -1630.87, -187500.02, -187500.02, 187500.00, -0.00, -0.00, -0.00
193, 61208.89, 25602.02, -187500.02, -187500.02, -1376.69, -187500.02, -187500.02, 187500.00, -0.00, -0.00, -0.00
194, 63304.79, 26956.58, -187500.02, -187500.02, -895.97, -187500.02, -187500.02, 187500.00, -0.00, -0.00, -0.00
195, 59419.54, 22044.54, -187500.02, -187500.02, -1025.07, -187500.02, -187500.02, 187500.00, -0.00, -0.00, -0.00
196, 57002.51, 20261.28, -187500.02, -187500.02, -1474.59, -187500.02, -187500.02, 187500.00, -0.00, -0.00, -0.00
197, 60392.89, 24725.52, -187500.02, -187500.02, -1361.11, -187500.02, -187500.02, 187500.00, -0.00, -0.00, -0.00
198, 63451.55, 27353.13, -187500.02, -187500.02, -849.77, -187500.02, -187500.02, 187500.00, -0.00, -0.00, -0.00
199, 60284.06, 23000.03, -187500.02, -187500.02, -861.12, -187500.02, -187500.02, 187500.00, -0.00, -0.00, -0.00
200, 57012.35, 20068.98, -187500.02, -187500.02, -1304.40, -187500.02, -187500.02, 187500.00, -0.00, -0.00, -0.00
201, 59607.36, 23826.51, -187500.02, -187500.02, -1299.91, -187500.02, -187500.02, 187500.00, -0.00, -0.00, -0.00
202, 63413.08, 27534.58, -187500.02, -187500.02, -783.61, -187500.02, -187500.02, 187500.00, -0.00, -0.00, -0.00
203, 61250.68, 24100.32, -187500.02, -187500.02, -648.89, -187500.02, -187500.02, 187500.00, -0.00, -0.00, -0.00
204, 57296.39, 20172.13, -187500.02, -187500.02, -1103.93, -187500.02, -187500.02, 187500.00, -0.00, -0.00, -0.00
205, 58892.89, 22955.15, -187500.02, -187500.02, -1224.96, -187500.02, -187500.02, 187500.00, -0.00, -0.00, -0.00
206, 63151.86, 27431.49, -187500.02, -187500.02, -742.21, -187500.02, -187500.02, 187500.00, -0.00, -0.00, -0.00
207, 62135.19, 25178.39, -187500.02, -187500.02, -485.52, -187500.02, -187500.02, 187500.00, -0.00, -0.00, -0.00
208, 57799.24, 20549.10, -187500.02, -187500.02, -881.49, -187500.02, -187500.02, 187500.00, -0.00, -0.00, -0.00
209, 58273.81, 22144.56, -187500.02, -187500.02, -1150.02, -187500.02, -187500.02, 187500.00, -0.00, -0.00, -0.00
210, 62661.04, 27042.44, -187500.02, -187500.02, -770.04, -187500.02, -187500.02, 187500.00, -0.00, -0.00, -0.00
211, 62847.34, 26118.93, -187500.02, -187500.02, -435.50, -187500.02, -187500.02, 187500.00, -0.00, -0.00, -0.00
212, 58411.97, 21077.05, -187500.02, -187500.02, -770.20, -187500.02, -187500.02, 187500.00, -0.00, -0.00, -0.00
213, 57710.68, 21366.50, -187500.02, -187500.02, -1163.77, -187500.02, -187500.02, 187500.00, -0.00, -0.00, -0.00
214, 61957.54, 26388.65, -187500.02, -187500.02, -860.83, -187500.02, -187500.02, 187500.00, -0.00, -0.00, -0.00
215, 63360.36, 26884.74, -187500.02, -187500.02, -427.52, -187500.02, -187500.02, 187500.00, -0.00, -0.00, -0.00
216, 59147.16, 21795.23, -187500.02, -187500.02, -667.29, -187500.02, -187500.02, 187500.00, -0.00, -0.00, -0.00
217, 57335.80, 20771.12, -187500.02, -187500.02, -1141.57, -187500.02, -187500.02, 187500.00, -0.00, -0.00, -0.00
218, 61128.02, 25537.94, -187500.02, -187500.02, -964.63, -187500.02, -187500.02, 187500.00, -0.00, -0.00, -0.00
219, 63639.84, 27421.48, -187500.02, -187500.02, -435.12, -187500.02, -187500.02, 187500.00, -0.00, -0.00, -0.00
220, 60006.52, 22695.13, -187500.02, -187500.02, -501.86, -187500.02, -187500.02, 187500.00, -0.00, -0.00, -0.00
221, 57238.19, 20450.39, -187500.02, -187500.02, -961.17, -187500.02, -187500.02, 187500.00, -0.00, -0.00, -0.00
222, 60332.56, 24659.76, -187500.02, -187500.02, -909.72, -187500.02, -187500.02, 187500.00, -0.00, -0.00, -0.00
223, 63706.58, 27730.11, -187500.02, -187500.02, -387.85, -187500.02, -187500.02, 187500.00, -0.00, -0.00, -0.00
224, 60918.25, 23715.71, -187500.02, -187500.02, -315.96, -187500.02, -187500.02, 187500.00, -0.00, -0.00, -0.00
225, 57353.37, 20376.47, -187500.02, -187500.02, -778.02, -187500.02, -187500.02, 187500.00, -0.00, -0.00, -0.00
226, 59568.11, 23772.78, -187500.02, -187500.02, -842.62, -187500.02, -187500.02, 187500.00, -0.00, -0.00, -0.00
227, 63585.57, 27816.72, -187500.02, -187500.02, -329.00, -187500.02, -187500.02, 187500.00, -0.00, -0.00, -0.00
228, 61850.89, 24813.59, -187500.02, -187500.02, -144.91, -187500.02, -187500.02, 187500.00, -0.00, -0.00, -0.00
229, 57729.21, 20600.04, -187500.02, -187500.02, -581.28, -187500.02, -187500.02, 187500.00, -0.00, -0.00, -0.00
230, 58939.18, 22969.41, -187500.02, -187500.02, -746.55, -187500.02, -187500.02, 187500.00, -0.00, -0.00, -0.00
231, 63307.27, 27672.38, -187500.02, -187500.02, -279.24, -187500.02, -187500.02, 187500.00, -0.00, -0.00, -0.00
232, 62752.92, 25921.23, -187500.02, -187500.02, 10.42, -187500.02, -187500.02, 187500.00, -0.00, -0.00, -0.00
233, 58365.07, 21119.94, -187500.02, -187500.02, -346.36, -187500.02, -187500.02, 187500.00, -0.00, -0.00, -0.00
234, 58416.06, 22253.53, -187500.02, -187500.02, -639.80, -187500.02, -187500.02, 187500.00, -0.00, -0.00, -0.00
235, 62789.85, 27245.12, -187500.02, -187500.02, -278.41, -187500.02, -187500.02, 187500.00, -0.00, -0.00, -0.00
236, 63485.57, 26894.36, -187500.02, -187500.02, 143.50, -187500.02, -187500.02, 187500.00, -0.00, -0.00, -0.00
237, 59131.49, 21821.49, -187500.02, -187500.02, -118.51, -187500.02, -187500.02, 187500.00, -0.00, -0.00, -0.00
238, 58057.18, 21666.98, -187500.02, -187500.02, -476.41, -187500.02, -187500.02, 187500.00, -0.00, -0.00, -0.00
239, 62157.20, 26621.91, -187500.02, -187500.02, -218.13, -187500.02, -187500.02, 187500.00, -0.00, -0.00, -0.00
240, 63991.28, 27649.46, -187500.02, -187500.02, 255.93, -187500.02, -187500.02, 187500.00, -0.00, -0.00, -0.00
241, 60013.58, 22701.57, -187500.02, -187500.02, 136.32, -187500.02, -187500.02, 187500.00, -0.00, -0.00, -0.00
242, 57857.62, 21242.87, -187500.02, -187500.02, -294.22, -187500.02, -187500.02, 187500.00, -0.00, -0.00, -0.00
243, 61401.96, 25827.46, -187500.02, -187500.02, -169.07, -187500.02, -187500.02, 187500.00, -0.00, -0.00, -0.00
244, 64246.91, 28161.41, -187500.02, -187500.02, 337.47, -187500.02, -187500.02, 187500.00, -0.00, -0.00, -0.00
245, 60923.77, 23682.86, -187500.02, -187500.02, 333.69, -187500.02, -187500.02, 187500.00, -0.00, -0.00, -0.00
246, 57825.44, 21002.50, -187500.02, -187500.02, -147.21, -187500.02, -187500.02, 187500.00, -0.00, -0.00, -0.00
247, 60614.33, 24937.30, -187500.02, -187500.02, -135.05, -187500.02, -187500.02, 187500.00, -0.00, -0.00, -0.00
248, 64207.11, 28341.34, -187500.02, -187500.02, 325.28, -187500.02, -187500.02, 187500.00, -0.00, -0.00, -0.00
249, 61737.28, 24618.12, -187500.02, -187500.02, 368.24, -187500.02, -187500.02, 187500.00, -0.00, -0.00, -0.00
250, 57916.96, 20906.35, -187500.02, -187500.02, -120.72, -187500.02, -187500.02, 187500.00, -0.00, -0.00, -0.00
251, 59742.48, 23918.80, -187500.02, -187500.02, -253.92, -187500.02, -187500.02, 187500.00, -0.00, -0.00, -0.00
252, 63884.37, 28205.31, -187500.02, -187500.02, 208.94, -187500.02, -187500.02, 187500.00, -0.00, -0.00, -0.00
253, 62571.02, 25639.42, -187500.02, -187500.02, 415.16, -187500.02, -187500.02, 187500.00, -0.00, -0.00, -0.00
254, 58292.25, 21145.51, -187500.02, -187500.02, -46.87, -187500.02, -187500.02, 187500.00, -0.00, -0.00, -0.00
255, 59045.17, 23040.96, -187500.02, -187500.02, -298.98, -187500.02, -187500.02, 187500.00, -0.00, -0.00, -0.00
0, 63442.59, 27887.69, -187500.02, -187500.02, 144.79, -187500.02, -187500.02, 187500.00, -0.00, -0.00, -0.00
1, 63402.13, 26696.12, -187500.02, -187500.02, 526.74, -187500.02, -187500.02, 187500.00, -0.00, -0.00, -0.00
2, 59007.51, 21772.28, -187500.02, -187500.02, 177.50, -187500.02, -187500.02, 187500.00, -0.00, -0.00, -0.00
3, 58655.02, 22444.86, -187500.02, -187500.02, -139.21, -187500.02, -187500.02, 187500.00, -0.00, -0.00, -0.00
4, 62951.50, 27449.57, -187500.02, -187500.02, 214.35, -187500.02, -187500.02, 187500.00, -0.00, -0.00, -0.00
5, 64087.01, 27621.90, -187500.02, -187500.02, 668.05, -187500.02, -187500.02, 187500.00, -0.00, -0.00, -0.00
6, 59872.27, 22599.58, -187500.02, -187500.02, 421.17, -187500.02, -187500.02, 187500.00, -0.00, -0.00, -0.00
7, 58388.39, 21958.76, -187500.02, -187500.02, -12.16, -187500.02, -187500.02, 187500.00, -0.00, -0.00, -0.00
8, 62280.30, 26769.92, -187500.02, -187500.02, 215.05, -187500.02, -187500.02, 187500.00, -0.00, -0.00, -0.00
9, 64492.00, 28277.88, -187500.02, -187500.02, 738.39, -187500.02, -187500.02, 187500.00, -0.00, -0.00, -0.00
10, 60769.54, 23521.59, -187500.02, -187500.02, 626.72, -187500.02, -187500.02, 187500.00, -0.00, -0.00, -0.00
11, 58312.86, 21659.53, -187500.02, -187500.02, 142.11, -187500.02, -187500.02, 187500.00, -0.00, -0.00, -0.00
12, 61606.30, 26016.71, -187500.02, -187500.02, 274.08, -187500.02, -187500.02, 187500.00, -0.00, -0.00, -0.00
13, 64674.14, 28698.39, -187500.02, -187500.02, 800.44, -187500.02, -187500.02, 187500.00, -0.00, -0.00, -0.00
14, 61640.61, 24494.92, -187500.02, -187500.02, 786.07, -187500.02, -187500.02, 187500.00, -0.00, -0.00, -0.00
15, 58383.98, 21543.15, -187500.02, -187500.02, 312.46, -187500.02, -187500.02, 187500.00, -0.00, -0.00, -0.00
16, 60850.43, 25152.08, -187500.02, -187500.02, 299.71, -187500.02, -187500.02, 187500.00, -0.00, -0.00, -0.00
17, 64628.64, 28859.43, -187500.02, -187500.02, 849.68, -187500.02, -187500.02, 187500.00, -0.00, -0.00, -0.00
18, 62590.45, 25579.94, -187500.02, -187500.02, 987.52, -187500.02, -187500.02, 187500.00, -0.00, -0.00, -0.00
19, 58695.54, 21693.89, -187500.02, -187500.02, 515.54, -187500.02, -187500.02, 187500.00, -0.00, -0.00, -0.00
20, 60210.73, 24371.11, -187500.02, -187500.02, 398.84, -187500.02, -187500.02, 187500.00, -0.00, -0.00, -0.00
21, 64398.41, 28798.84, -187500.02, -187500.02, 886.49, -187500.02, -187500.02, 187500.00, -0.00, -0.00, -0.00
22, 63530.76, 26716.44, -187500.02, -187500.02, 1179.30, -187500.02, -187500.02, 187500.00, -0.00, -0.00, -0.00
23, 59264.91, 22136.68, -187500.02, -187500.02, 764.09, -187500.02, -187500.02, 187500.00, -0.00, -0.00, -0.00
24, 59638.09, 23613.46, -187500.02, -187500.02, 476.92, -187500.02, -187500.02, 187500.00, -0.00, -0.00, -0.00
25, 63954.60, 28463.56, -187500.02, -187500.02, 883.32, -187500.02, -187500.02, 187500.00, -0.00, -0.00, -0.00
26, 64248.61, 27681.99, -187500.02, -187500.02, 1227.20, -187500.02, -187500.02, 187500.00, -0.00, -0.00, -0.00
27, 59938.64, 22743.55, -187500.02, -187500.02, 919.75, -187500.02, -187500.02, 187500.00, -0.00, -0.00, -0.00
28, 59155.77, 22910.18, -187500.02, -187500.02, 528.31, -187500.02, -187500.02, 187500.00, -0.00, -0.00, -0.00
29, 63282.46, 27833.87, -187500.02, -187500.02, 802.61, -187500.02, -187500.02, 187500.00, -0.00, -0.00, -0.00
30, 64784.90, 28481.04, -187500.02, -187500.02, 1222.22, -187500.02, -187500.02, 187500.00, -0.00, -0.00, -0.00
31, 60702.26, 23489.83, -187500.02, -187500.02, 1013.67, -187500.02, -187500.02, 187500.00, -0.00, -0.00, -0.00
32, 58789.58, 22319.91, -187500.02, -187500.02, 546.90, -187500.02, -187500.02, 187500.00, -0.00, -0.00, -0.00
33, 62454.50, 26971.56, -187500.02, -187500.02, 703.16, -187500.02, -187500.02, 187500.00, -0.00, -0.00, -0.00
34, 65027.79, 28965.31, -187500.02, -187500.02, 1188.29, -187500.02, -187500.02, 187500.00, -0.00, -0.00, -0.00
35, 61461.68, 24287.70, -187500.02, -187500.02, 1044.01, -187500.02, -187500.02, 187500.00, -0.00, -0.00, -0.00
36, 58603.86, 21913.56, -187500.02, -187500.02, 560.96, -187500.02, -187500.02, 187500.00, -0.00, -0.00, -0.00
37, 61541.97, 25980.19, -187500.02, -187500.02, 578.33, -187500.02, -187500.02, 187500.00, -0.00, -0.00, -0.00
38, 64977.84, 29159.10, -187500.02, -187500.02, 1094.81, -187500.02, -187500.02, 187500.00, -0.00, -0.00, -0.00
39, 62333.29, 25278.50, -187500.02, -187500.02, 1156.79, -187500.02, -187500.02, 187500.00, -0.00, -0.00, -0.00
40, 58734.32, 21854.87, -187500.02, -187500.02, 706.05, -187500.02, -187500.02, 187500.00, -0.00, -0.00, -0.00
41, 60820.10, 25122.42, -187500.02, -187500.02, 640.13, -187500.02, -187500.02, 187500.00, -0.00, -0.00, -0.00
42, 64896.25, 29267.46, -187500.02, -187500.02, 1167.97, -187500.02, -187500.02, 187500.00, -0.00, -0.00, -0.00
43, 63311.94, 26422.58, -187500.02, -187500.02, 1345.69, -187500.02, -187500.02, 187500.00, -0.00, -0.00, -0.00
44, 59191.39, 22161.66, -187500.02, -187500.02, 940.76, -187500.02, -187500.02, 187500.00, -0.00, -0.00, -0.00
45, 60240.09, 24368.63, -187500.02, -187500.02, 766.33, -187500.02, -187500.02, 187500.00, -0.00, -0.00, -0.00
46, 64546.76, 29053.71, -187500.02, -187500.02, 1170.87, -187500.02, -187500.02, 187500.00, -0.00, -0.00, -0.00
47, 64187.75, 27510.21, -187500.02, -187500.02, 1498.30, -187500.02, -187500.02, 187500.00, -0.00, -0.00, -0.00
48, 59810.98, 22674.84, -187500.02, -187500.02, 1138.71, -187500.02, -187500.02, 187500.00, -0.00, -0.00, -0.00
49, 59754.86, 23680.62, -187500.02, -187500.02, 873.48, -187500.02, -187500.02, 187500.00, -0.00, -0.00, -0.00
50, 64105.83, 28687.44, -187500.02, -187500.02, 1244.70, -187500.02, -187500.02, 187500.00, -0.00, -0.00, -0.00
51, 64942.39, 28509.56, -187500.02, -187500.02, 1644.75, -187500.02, -187500.02, 187500.00, -0.00, -0.00, -0.00
52, 60662.21, 23473.09, -187500.02, -187500.02, 1400.85, -187500.02, -187500.02, 187500.00, -0.00, -0.00, -0.00
53, 59433.71, 23135.26, -187500.02, -187500.02, 1019.64, -187500.02, -187500.02, 187500.00, -0.00, -0.00, -0.00
54, 63460.24, 28050.12, -187500.02, -187500.02, 1263.79, -187500.02, -187500.02, 187500.00, -0.00, -0.00, -0.00
55, 65433.77, 29260.11, -187500.02, -187500.02, 1741.78, -187500.02, -187500.02, 187500.00, -0.00, -0.00, -0.00
56, 61535.65, 24365.21, -187500.02, -187500.02, 1612.57, -187500.02, -187500.02, 187500.00, -0.00, -0.00, -0.00
57, 59270.30, 22752.85, -187500.02, -187500.02, 1193.94, -187500.02, -187500.02, 187500.00, -0.00, -0.00, -0.00
58, 62729.36, 27265.19, -187500.02, -187500.02, 1342.09, -187500.02, -187500.02, 187500.00, -0.00, -0.00, -0.00
59, 65681.41, 29757.50, -187500.02, -187500.02, 1873.41, -187500.02, -187500.02, 187500.00, -0.00, -0.00, -0.00
60, 62475.96, 25379.09, -187500.02, -187500.02, 1865.12, -187500.02, -187500.02, 187500.00, -0.00, -0.00, -0.00
61, 59307.71, 22589.86, -187500.02, -187500.02, 1386.14, -187500.02, -187500.02, 187500.00, -0.00, -0.00, -0.00
62, 61959.79, 26392.92, -187500.02, -187500.02, 1386.75, -187500.02, -187500.02, 187500.00, -0.00, -0.00, -0.00
63, 65673.87, 29964.72, -187500.02, -187500.02, 1931.10, -187500.02, -187500.02, 187500.00, -0.00, -0.00, -0.00
64, 63416.95, 26452.71, -187500.02, -187500.02, 2064.03, -187500.02, -187500.02, 187500.00, -0.00, -0.00, -0.00
65, 59532.55, 22634.81, -187500.02, -187500.02, 1562.57, -187500.02, -187500.02, 187500.00, -0.00, -0.00, -0.00
66, 61199.39, 25479.47, -187500.02, -187500.02, 1421.21, -187500.02, -187500.02, 187500.00, -0.00, -0.00, -0.00
67, 65385.22, 29848.96, -187500.02, -187500.02, 1939.71, -187500.02, -187500.02, 187500.00, -0.00, -0.00, -0.00
68, 64242.11, 27462.94, -187500.02, -187500.02, 2192.13, -187500.02, -187500.02, 187500.00, -0.00, -0.00, -0.00
69, 59984.70, 22951.20, -187500.02, -187500.02, 1787.16, -187500.02, -187500.02, 187500.00, -0.00, -0.00, -0.00
70, 60563.57, 24662.31, -187500.02, -187500.02, 1509.82, -187500.02, -187500.02, 187500.00, -0.00, -0.00, -0.00
71, 64880.90, 29461.12, -187500.02, -187500.02, 1874.77, -187500.02, -187500.02, 187500.00, -0.00, -0.00, -0.00
72, 64940.96, 28396.46, -187500.02, -187500.02, 2199.14, -187500.02, -187500.02, 187500.00, -0.00, -0.00, -0.00
73, 60537.78, 23427.60, -187500.02, -187500.02, 1838.83, -187500.02, -187500.02, 187500.00, -0.00, -0.00, -0.00
74, 59974.31, 23870.79, -187500.02, -187500.02, 1443.90, -187500.02, -187500.02, 187500.00, -0.00, -0.00, -0.00
75, 64204.02, 28839.61, -187500.02, -187500.02, 1741.45, -187500.02, -187500.02, 187500.00, -0.00, -0.00, -0.00
76, 65433.01, 29145.18, -187500.02, -187500.02, 2133.50, -187500.02, -187500.02, 187500.00, -0.00, -0.00, -0.00
77, 61196.37, 24061.79, -187500.02, -187500.02, 1854.41, -187500.02, -187500.02, 187500.00, -0.00, -0.00, -0.00
78, 59571.71, 23238.24, -187500.02, -187500.02, 1449.13, -187500.02, -187500.02, 187500.00, -0.00, -0.00, -0.00
79, 63394.15, 28015.29, -187500.02, -187500.02, 1636.91, -187500.02, -187500.02, 187500.00, -0.00, -0.00, -0.00
80, 65747.61, 29715.28, -187500.02, -187500.02, 2129.85, -187500.02, -187500.02, 187500.00, -0.00, -0.00, -0.00
81, 62091.18, 24990.79, -187500.02, -187500.02, 2049.72, -187500.02, -187500.02, 187500.00, -0.00, -0.00, -0.00
82, 59428.10, 22882.60, -187500.02, -187500.02, 1564.04, -187500.02, -187500.02, 187500.00, -0.00, -0.00, -0.00
83, 62587.99, 27141.81, -187500.02, -187500.02, 1618.33, -187500.02, -187500.02, 187500.00, -0.00, -0.00, -0.00
84, 65865.76, 30077.89, -187500.02, -187500.02, 2149.61, -187500.02, -187500.02, 187500.00, -0.00, -0.00, -0.00
85, 63000.09, 25999.57, -187500.02, -187500.02, 2203.68, -187500.02, -187500.02, 187500.00, -0.00, -0.00, -0.00
86, 59516.75, 22772.63, -187500.02, -187500.02, 1703.56, -187500.02, -187500.02, 187500.00, -0.00, -0.00, -0.00
87, 61813.10, 26240.95, -187500.02, -187500.02, 1639.97, -187500.02, -187500.02, 187500.00, -0.00, -0.00, -0.00
88, 65728.88, 30143.07, -187500.02, -187500.02, 2151.65, -187500.02, -187500.02, 187500.00, -0.00, -0.00, -0.00
89, 63847.35, 26999.70, -187500.02, -187500.02, 2291.95, -187500.02, -187500.02, 187500.00, -0.00, -0.00, -0.00
90, 59805.84, 22903.16, -187500.02, -187500.02, 1834.12, -187500.02, -187500.02, 187500.00, -0.00, -0.00, -0.00
91, 61107.30, 25376.11, -187500.02, -187500.02, 1666.68, -187500.02, -187500.02, 187500.00, -0.00, -0.00, -0.00
92, 65403.08, 29968.50, -187500.02, -187500.02, 2157.26, -187500.02, -187500.02, 187500.00, -0.00, -0.00, -0.00
93, 64718.58, 28080.34, -187500.02, -187500.02, 2454.33, -187500.02, -187500.02, 187500.00, -0.00, -0.00, -0.00
94, 60385.71, 23369.66, -187500.02, -187500.02, 2062.13, -187500.02, -187500.02, 187500.00, -0.00, -0.00, -0.00
95, 60608.68, 24680.21, -187500.02, -187500.02, 1811.30, -187500.02, -187500.02, 187500.00, -0.00, -0.00, -0.00
96, 64944.46, 29604.08, -187500.02, -187500.02, 2210.68, -187500.02, -187500.02, 187500.00, -0.00, -0.00, -0.00
97, 65431.98, 29036.52, -187500.02, -187500.02, 2570.58, -187500.02, -187500.02, 187500.00, -0.00, -0.00, -0.00
98, 61105.93, 24026.94, -187500.02, -187500.02, 2272.95, -187500.02, -187500.02, 187500.00, -0.00, -0.00, -0.00
99, 60160.61, 24021.35, -187500.02, -187500.02, 1891.94, -187500.02, -187500.02, 187500.00, -0.00, -0.00, -0.00
100, 64248.30, 28938.22, -187500.02, -187500.02, 2161.17, -187500.02, -187500.02, 187500.00, -0.00, -0.00, -0.00
101, 65954.95, 29817.67, -187500.02, -187500.02, 2647.54, -187500.02, -187500.02, 187500.00, -0.00, -0.00, -0.00
102, 61962.21, 24885.40, -187500.02, -187500.02, 2482.88, -187500.02, -187500.02, 187500.00, -0.00, -0.00, -0.00
103, 59967.47, 23610.66, -187500.02, -187500.02, 2071.72, -187500.02, -187500.02, 187500.00, -0.00, -0.00, -0.00
104, 63577.72, 28240.11, -187500.02, -187500.02, 2229.61, -187500.02, -187500.02, 187500.00, -0.00, -0.00, -0.00
105, 66294.40, 30414.84, -187500.02, -187500.02, 2736.77, -187500.02, -187500.02, 187500.00, -0.00, -0.00, -0.00
106, 62893.47, 25883.23, -187500.02, -187500.02, 2676.76, -187500.02, -187500.02, 187500.00, -0.00, -0.00, -0.00
107, 59943.00, 23370.25, -187500.02, -187500.02, 2215.88, -187500.02, -187500.02, 187500.00, -0.00, -0.00, -0.00
108, 62819.66, 27384.78, -187500.02, -187500.02, 2253.68, -187500.02, -187500.02, 187500.00, -0.00, -0.00, -0.00
109, 66377.77, 30725.80, -187500.02, -187500.02, 2800.27, -187500.02, -187500.02, 187500.00, -0.00, -0.00, -0.00
110, 63908.11, 27011.88, -187500.02, -187500.02, 2931.61, -187500.02, -187500.02, 187500.00, -0.00, -0.00, -0.00
111, 60203.44, 23449.79, -187500.02, -187500.02, 2454.60, -187500.02, -187500.02, 187500.00, -0.00, -0.00, -0.00
112, 62106.22, 26532.10, -187500.02, -187500.02, 2312.71, -187500.02, -187500.02, 187500.00, -0.00, -0.00, -0.00
113, 66164.88, 30700.43, -187500.02, -187500.02, 2786.08, -187500.02, -187500.02, 187500.00, -0.00, -0.00, -0.00
114, 64695.69, 27980.90, -187500.02, -187500.02, 2954.16, -187500.02, -187500.02, 187500.00, -0.00, -0.00, -0.00
115, 60483.84, 23588.82, -187500.02, -187500.02, 2485.98, -187500.02, -187500.02, 187500.00, -0.00, -0.00, -0.00
116, 61344.70, 25596.97, -187500.02, -187500.02, 2249.50, -187500.02, -187500.02, 187500.00, -0.00, -0.00, -0.00
117, 65627.38, 30292.27, -187500.02, -187500.02, 2653.46, -187500.02, -187500.02, 187500.00, -0.00, -0.00, -0.00
118, 65376.10, 28886.05, -187500.02, -187500.02, 2972.85, -187500.02, -187500.02, 187500.00, -0.00, -0.00, -0.00
119, 60966.01, 23980.07, -187500.02, -187500.02, 2558.00, -187500.02, -187500.02, 187500.00, -0.00, -0.00, -0.00
120, 60715.98, 24757.26, -187500.02, -187500.02, 2209.98, -187500.02, -187500.02, 187500.00, -0.00, -0.00, -0.00
121, 64991.52, 29706.90, -187500.02, -187500.02, 2592.80, -187500.02, -187500.02, 187500.00, -0.00, -0.00, -0.00
122, 65937.64, 29680.19, -187500.02, -187500.02, 3032.91, -187500.02, -187500.02, 187500.00, -0.00, -0.00, -0.00
123, 61723.82, 24698.65, -187500.02, -187500.02, 2765.40, -187500.02, -187500.02, 187500.00, -0.00, -0.00, -0.00
124, 60422.75, 24254.08, -187500.02, -187500.02, 2325.21, -187500.02, -187500.02, 187500.00, -0.00, -0.00, -0.00
125, 64322.24, 29028.19, -187500.02, -187500.02, 2592.27, -187500.02, -187500.02, 187500.00, -0.00, -0.00, -0.00
126, 66264.34, 30232.03, -187500.02, -187500.02, 3125.58, -187500.02, -187500.02, 187500.00, -0.00, -0.00, -0.00
127, 62485.93, 25482.33, -187500.02, -187500.02, 2978.57, -187500.02, -187500.02, 187500.00, -0.00, -0.00, -0.00
128, 60335.98, 23986.24, -187500.02, -187500.02, 2469.80, -187500.02, -187500.02, 187500.00, -0.00, -0.00, -0.00
129, 63723.01, 28382.45, -187500.02, -187500.02, 2604.02, -187500.02, -187500.02, 187500.00, -0.00, -0.00, -0.00
130, 66493.42, 30682.80, -187500.02, -187500.02, 3206.65, -187500.02, -187500.02, 187500.00, -0.00, -0.00, -0.00
131, 63292.81, 26355.63, -187500.02, -187500.02, 3182.91, -187500.02, -187500.02, 187500.00, -0.00, -0.00, -0.00
132, 60305.59, 23756.28, -187500.02, -187500.02, 2618.69, -187500.02, -187500.02, 187500.00, -0.00, -0.00, -0.00
133, 63016.76, 27577.69, -187500.02, -187500.02, 2628.97, -187500.02, -187500.02, 187500.00, -0.00, -0.00, -0.00
134, 66538.41, 30945.90, -187500.02, -187500.02, 3240.53, -187500.02, -187500.02, 187500.00, -0.00, -0.00, -0.00
135, 64223.60, 27420.11, -187500.02, -187500.02, 3372.83, -187500.02, -187500.02, 187500.00, -0.00, -0.00, -0.00
136, 60527.61, 23811.42, -187500.02, -187500.02, 2806.75, -187500.02, -187500.02, 187500.00, -0.00, -0.00, -0.00
137, 62301.39, 26722.02, -187500.02, -187500.02, 2657.15, -187500.02, -187500.02, 187500.00, -0.00, -0.00, -0.00
138, 66344.06, 30914.61, -187500.02, -187500.02, 3265.57, -187500.02, -187500.02, 187500.00, -0.00, -0.00, -0.00
139, 65124.78, 28485.29, -187500.02, -187500.02, 3565.17, -187500.02, -187500.02, 187500.00, -0.00, -0.00, -0.00
140, 61009.62, 24147.59, -187500.02, -187500.02, 3087.25, -187500.02, -187500.02, 187500.00, -0.00, -0.00, -0.00
141, 61712.63, 25958.13, -187500.02, -187500.02, 2777.83, -187500.02, -187500.02, 187500.00, -0.00, -0.00, -0.00
142, 65898.71, 30588.63, -187500.02, -187500.02, 3243.35, -187500.02, -187500.02, 187500.00, -0.00, -0.00, -0.00
143, 65848.48, 29437.96, -187500.02, -187500.02, 3679.81, -187500.02, -187500.02, 187500.00, -0.00, -0.00, -0.00
144, 61560.84, 24622.44, -187500.02, -187500.02, 3284.12, -187500.02, -187500.02, 187500.00, -0.00, -0.00, -0.00
145, 61126.39, 25176.11, -187500.02, -187500.02, 2816.52, -187500.02, -187500.02, 187500.00, -0.00, -0.00, -0.00
146, 65246.89, 29990.05, -187500.02, -187500.02, 3183.51, -187500.02, -187500.02, 187500.00, -0.00, -0.00, -0.00
147, 66370.80, 30197.79, -187500.02, -187500.02, 3723.87, -187500.02, -187500.02, 187500.00, -0.00, -0.00, -0.00
148, 62216.75, 25238.72, -187500.02, -187500.02, 3433.65, -187500.02, -187500.02, 187500.00, -0.00, -0.00, -0.00
149, 60688.27, 24506.61, -187500.02, -187500.02, 2910.85, -187500.02, -187500.02, 187500.00, -0.00, -0.00, -0.00
150, 64468.20, 29195.91, -187500.02, -187500.02, 3181.95, -187500.02, -187500.02, 187500.00, -0.00, -0.00, -0.00
151, 66727.42, 30808.86, -187500.02, -187500.02, 3795.68, -187500.02, -187500.02, 187500.00, -0.00, -0.00, -0.00
152, 63078.10, 26119.26, -187500.02, -187500.02, 3638.15, -187500.02, -187500.02, 187500.00, -0.00, -0.00, -0.00
153, 60519.04, 24103.07, -187500.02, -187500.02, 3070.10, -187500.02, -187500.02, 187500.00, -0.00, -0.00, -0.00
154, 63601.98, 28250.64, -187500.02, -187500.02, 3130.27, -187500.02, -187500.02, 187500.00, -0.00, -0.00, -0.00
155, 66739.13, 31061.79, -187500.02, -187500.02, 3682.09, -187500.02, -187500.02, 187500.00, -0.00, -0.00, -0.00
156, 63889.35, 27032.29, -187500.02, -187500.02, 3662.40, -187500.02, -187500.02, 187500.00, -0.00, -0.00, -0.00
157, 60479.23, 23865.76, -187500.02, -187500.02, 3098.35, -187500.02, -187500.02, 187500.00, -0.00, -0.00, -0.00
158, 62692.17, 27223.93, -187500.02, -187500.02, 3008.75, -187500.02, -187500.02, 187500.00, -0.00, -0.00, -0.00
159, 66487.19, 31024.02, -187500.02, -187500.02, 3508.55, -187500.02, -187500.02, 187500.00, -0.00, -0.00, -0.00
160, 64700.18, 28000.65, -187500.02, -187500.02, 3673.80, -187500.02, -187500.02, 187500.00, -0.00, -0.00, -0.00
161, 60721.51, 23949.40, -187500.02, -187500.02, 3194.71, -187500.02, -187500.02, 187500.00, -0.00, -0.00, -0.00
162, 61901.50, 26270.50, -187500.02, -187500.02, 2972.31, -187500.02, -187500.02, 187500.00, -0.00, -0.00, -0.00
163, 66084.47, 30762.21, -187500.02, -187500.02, 3473.24, -187500.02, -187500.02, 187500.00, -0.00, -0.00, -0.00
164, 65433.57, 28941.13, -187500.02, -187500.02, 3766.40, -187500.02, -187500.02, 187500.00, -0.00, -0.00, -0.00
165, 61148.80, 24272.85, -187500.02, -187500.02, 3321.51, -187500.02, -187500.02, 187500.00, -0.00, -0.00, -0.00
166, 61305.65, 25483.96, -187500.02, -187500.02, 3025.82, -187500.02, -187500.02, 187500.00, -0.00, -0.00, -0.00
167, 65522.66, 30283.39, -187500.02, -187500.02, 3441.56, -187500.02, -187500.02, 187500.00, -0.00, -0.00, -0.00
168, 66061.38, 29792.86, -187500.02, -187500.02, 3868.55, -187500.02, -187500.02, 187500.00, -0.00, -0.00, -0.00
169, 61815.63, 24869.02, -187500.02, -187500.02, 3562.22, -187500.02, -187500.02, 187500.00, -0.00, -0.00, -0.00
170, 60835.07, 24792.02, -187500.02, -187500.02, 3154.93, -187500.02, -187500.02, 187500.00, -0.00, -0.00, -0.00
171, 64840.53, 29625.31, -187500.02, -187500.02, 3486.56, -187500.02, -187500.02, 187500.00, -0.00, -0.00, -0.00
172, 66543.02, 30537.47, -187500.02, -187500.02, 3954.16, -187500.02, -187500.02, 187500.00, -0.00, -0.00, -0.00
173, 62623.24, 25675.74, -187500.02, -187500.02, 3752.23, -187500.02, -187500.02, 187500.00, -0.00, -0.00, -0.00
174, 60559.50, 24287.67, -187500.02, -187500.02, 3312.51, -187500.02, -187500.02, 187500.00, -0.00, -0.00, -0.00
175, 64063.07, 28808.94, -187500.02, -187500.02, 3497.89, -187500.02, -187500.02, 187500.00, -0.00, -0.00, -0.00
176, 66886.43, 31136.89, -187500.02, -187500.02, 4037.06, -187500.02, -187500.02, 187500.00, -0.00, -0.00, -0.00
177, 63600.90, 26703.25, -187500.02, -187500.02, 3996.00, -187500.02, -187500.02, 187500.00, -0.00, -0.00, -0.00
178, 60530.38, 24030.09, -187500.02, -187500.02, 3523.93, -187500.02, -187500.02, 187500.00, -0.00, -0.00, -0.00
179, 63246.98, 27890.46, -187500.02, -187500.02, 3529.81, -187500.02, -187500.02, 187500.00, -0.00, -0.00, -0.00
180, 66848.61, 31325.99, -187500.02, -187500.02, 4053.85, -187500.02, -187500.02, 187500.00, -0.00, -0.00, -0.00
181, 64466.86, 27702.88, -187500.02, -187500.02, 4119.83, -187500.02, -187500.02, 187500.00, -0.00, -0.00, -0.00
182, 60725.51, 24054.59, -187500.02, -187500.02, 3667.65, -187500.02, -187500.02, 187500.00, -0.00, -0.00, -0.00
183, 62504.82, 27018.21, -187500.02, -187500.02, 3579.59, -187500.02, -187500.02, 187500.00, -0.00, -0.00, -0.00
184, 66567.83, 31225.30, -187500.02, -187500.02, 4062.41, -187500.02, -187500.02, 187500.00, -0.00, -0.00, -0.00
185, 65309.00, 28731.18, -187500.02, -187500.02, 4267.46, -187500.02, -187500.02, 187500.00, -0.00, -0.00, -0.00
186, 61162.04, 24370.89, -187500.02, -187500.02, 3828.03, -187500.02, -187500.02, 187500.00, -0.00, -0.00, -0.00
187, 61900.61, 26230.93, -187500.02, -187500.02, 3610.61, -187500.02, -187500.02, 187500.00, -0.00, -0.00, -0.00
188, 66156.49, 30924.84, -187500.02, -187500.02, 4055.72, -187500.02, -187500.02, 187500.00, -0.00, -0.00, -0.00
189, 66046.16, 29695.37, -187500.02, -187500.02, 4368.29, -187500.02, -187500.02, 187500.00, -0.00, -0.00, -0.00
190, 61742.91, 24875.14, -187500.02, -187500.02, 3978.81, -187500.02, -187500.02, 187500.00, -0.00, -0.00, -0.00
191, 61406.59, 25544.42, -187500.02, -187500.02, 3652.45, -187500.02, -187500.02, 187500.00, -0.00, -0.00, -0.00
192, 65553.41, 30392.20, -187500.02, -187500.02, 3974.34, -187500.02, -187500.02, 187500.00, -0.00, -0.00, -0.00
193, 66619.93, 30515.92, -187500.02, -187500.02, 4394.96, -187500.02, -187500.02, 187500.00, -0.00, -0.00, -0.00
194, 62426.05, 25520.35, -187500.02, -187500.02, 4073.07, -187500.02, -187500.02, 187500.00, -0.00, -0.00, -0.00
195, 60936.80, 24850.74, -187500.02, -187500.02, 3594.07, -187500.02, -187500.02, 187500.00, -0.00, -0.00, -0.00
196, 64773.92, 29611.12, -187500.02, -187500.02, 3816.40, -187500.02, -187500.02, 187500.00, -0.00, -0.00, -0.00
197, 66936.34, 31093.69, -187500.02, -187500.02, 4301.93, -187500.02, -187500.02, 187500.00, -0.00, -0.00, -0.00
198, 63224.59, 26356.35, -187500.02, -187500.02, 4121.80, -187500.02, -187500.02, 187500.00, -0.00, -0.00, -0.00
199, 60755.53, 24463.47, -187500.02, -187500.02, 3566.22, -187500.02, -187500.02, 187500.00, -0.00, -0.00, -0.00
200, 64010.75, 28776.71, -187500.02, -187500.02, 3696.40, -187500.02, -187500.02, 187500.00, -0.00, -0.00, -0.00
201, 67103.96, 31483.73, -187500.02, -187500.02, 4254.81, -187500.02, -187500.02, 187500.00, -0.00, -0.00, -0.00
202, 64166.58, 27370.22, -187500.02, -187500.02, 4254.25, -187500.02, -187500.02, 187500.00, -0.00, -0.00, -0.00
203, 60919.90, 24427.84, -187500.02, -187500.02, 3740.70, -187500.02, -187500.02, 187500.00, -0.00, -0.00, -0.00
204, 63363.57, 28014.76, -187500.02, -187500.02, 3734.06, -187500.02, -187500.02, 187500.00, -0.00, -0.00, -0.00
205, 67153.65, 31746.36, -187500.02, -187500.02, 4313.95, -187500.02, -187500.02, 187500.00, -0.00, -0.00, -0.00
206, 65166.15, 28523.64, -187500.02, -187500.02, 4453.52, -187500.02, -187500.02, 187500.00, -0.00, -0.00, -0.00
207, 61253.16, 24595.63, -187500.02, -187500.02, 3951.01, -187500.02, -187500.02, 187500.00, -0.00, -0.00, -0.00
208, 62692.84, 27196.06, -187500.02, -187500.02, 3795.57, -187500.02, -187500.02, 187500.00, -0.00, -0.00, -0.00
209, 66954.67, 31722.42, -187500.02, -187500.02, 4304.01, -187500.02, -187500.02, 187500.00, -0.00, -0.00, -0.00
210, 66141.38, 29697.22, -187500.02, -187500.02, 4573.99, -187500.02, -187500.02, 187500.00, -0.00, -0.00, -0.00
211, 61865.56, 25086.23, -187500.02, -187500.02, 4159.28, -187500.02, -187500.02, 187500.00, -0.00, -0.00, -0.00
212, 62197.15, 26513.77, -187500.02, -187500.02, 3880.91, -187500.02, -187500.02, 187500.00, -0.00, -0.00, -0.00
213, 66537.50, 31418.64, -187500.02, -187500.02, 4287.15, -187500.02, -187500.02, 187500.00, -0.00, -0.00, -0.00
214, 66936.25, 30743.10, -187500.02, -187500.02, 4665.75, -187500.02, -187500.02, 187500.00, -0.00, -0.00, -0.00
215, 62598.02, 25752.36, -187500.02, -187500.02, 4362.84, -187500.02, -187500.02, 187500.00, -0.00, -0.00, -0.00
216, 61765.49, 25877.17, -187500.02, -187500.02, 3968.62, -187500.02, -187500.02, 187500.00, -0.00, -0.00, -0.00
217, 65938.80, 30859.67, -187500.02, -187500.02, 4253.58, -187500.02, -187500.02, 187500.00, -0.00, -0.00, -0.00
218, 67552.98, 31610.62, -187500.02, -187500.02, 4733.94, -187500.02, -187500.02, 187500.00, -0.00, -0.00, -0.00
219, 63493.17, 26633.02, -187500.02, -187500.02, 4547.80, -187500.02, -187500.02, 187500.00, -0.00, -0.00, -0.00
220, 61578.29, 25467.35, -187500.02, -187500.02, 4094.15, -187500.02, -187500.02, 187500.00, -0.00, -0.00, -0.00
221, 65269.80, 30169.45, -187500.02, -187500.02, 4259.10, -187500.02, -187500.02, 187500.00, -0.00, -0.00, -0.00
222, 67912.71, 32240.45, -187500.02, -187500.02, 4766.60, -187500.02, -187500.02, 187500.00, -0.00, -0.00, -0.00
223, 64443.45, 27650.07, -187500.02, -187500.02, 4698.47, -187500.02, -187500.02, 187500.00, -0.00, -0.00, -0.00
224, 61624.56, 25307.22, -187500.02, -187500.02, 4266.12, -187500.02, -187500.02, 187500.00, -0.00, -0.00, -0.00
225, 64592.00, 29402.96, -187500.02, -187500.02, 4293.28, -187500.02, -187500.02, 187500.00, -0.00, -0.00, -0.00
226, 68092.27, 32653.28, -187500.02, -187500.02, 4830.17, -187500.02, -187500.02, 187500.00, -0.00, -0.00, -0.00
227, 65526.84, 28857.58, -187500.02, -187500.02, 4906.01, -187500.02, -187500.02, 187500.00, -0.00, -0.00, -0.00
228, 61973.03, 25485.53, -187500.02, -187500.02, 4396.99, -187500.02, -187500.02, 187500.00, -0.00, -0.00, -0.00
229, 64042.86, 28715.38, -187500.02, -187500.02, 4318.31, -187500.02, -187500.02, 187500.00, -0.00, -0.00, -0.00
230, 67979.05, 32706.46, -187500.02, -187500.02, 4861.37, -187500.02, -187500.02, 187500.00, -0.00, -0.00, -0.00
231, 66377.75, 29860.77, -187500.02, -187500.02, 5067.48, -187500.02, -187500.02, 187500.00, -0.00, -0.00, -0.00
232, 62330.45, 25685.10, -187500.02, -187500.02, 4608.75, -187500.02, -187500.02, 187500.00, -0.00, -0.00, -0.00
233, 63375.31, 27871.98, -187500.02, -187500.02, 4401.13, -187500.02, -187500.02, 187500.00, -0.00, -0.00, -0.00
234, 67591.41, 32449.12, -187500.02, -187500.02, 4876.79, -187500.02, -187500.02, 187500.00, -0.00, -0.00, -0.00
235, 67151.92, 30843.37, -187500.02, -187500.02, 5196.40, -187500.02, -187500.02, 187500.00, -0.00, -0.00, -0.00
236, 62846.42, 26101.38, -187500.02, -187500.02, 4812.80, -187500.02, -187500.02, 187500.00, -0.00, -0.00, -0.00
237, 62738.06, 27040.40, -187500.02, -187500.02, 4443.19, -187500.02, -187500.02, 187500.00, -0.00, -0.00, -0.00
238, 66965.78, 31907.85, -187500.02, -187500.02, 4791.63, -187500.02, -187500.02, 187500.00, -0.00, -0.00, -0.00
239, 67747.20, 31697.10, -187500.02, -187500.02, 5188.76, -187500.02, -187500.02, 187500.00, -0.00, -0.00, -0.00
240, 63453.72, 26663.71, -187500.02, -187500.02, 4862.49, -187500.02, -187500.02, 187500.00, -0.00, -0.00, -0.00
241, 62240.53, 26327.31, -187500.02, -187500.02, 4436.78, -187500.02, -187500.02, 187500.00, -0.00, -0.00, -0.00
242, 66157.41, 31119.39, -187500.02, -187500.02, 4650.28, -187500.02, -187500.02, 187500.00, -0.00, -0.00, -0.00
243, 68083.26, 32294.54, -187500.02, -187500.02, 5124.29, -187500.02, -187500.02, 187500.00, -0.00, -0.00, -0.00
244, 64191.88, 27412.87, -187500.02, -187500.02, 4916.65, -187500.02, -187500.02, 187500.00, -0.00, -0.00, -0.00
245, 61935.96, 25805.38, -187500.02, -187500.02, 4424.59, -187500.02, -187500.02, 187500.00, -0.00, -0.00, -0.00
246, 65383.66, 30303.60, -187500.02, -187500.02, 4580.74, -187500.02, -187500.02, 187500.00, -0.00, -0.00, -0.00
247, 68308.52, 32781.09, -187500.02, -187500.02, 5102.10, -187500.02, -187500.02, 187500.00, -0.00, -0.00, -0.00
248, 65130.01, 28434.64, -187500.02, -187500.02, 5052.39, -187500.02, -187500.02, 187500.00, -0.00, -0.00, -0.00
249, 62019.85, 25681.39, -187500.02, -187500.02, 4581.37, -187500.02, -187500.02, 187500.00, -0.00, -0.00, -0.00
250, 64685.81, 29494.20, -187500.02, -187500.02, 4601.24, -187500.02, -187500.02, 187500.00, -0.00, -0.00, -0.00
251, 68383.95, 33068.60, -187500.02, -187500.02, 5132.72, -187500.02, -187500.02, 187500.00, -0.00, -0.00, -0.00
252, 66166.28, 29598.16, -187500.02, -187500.02, 5250.69, -187500.02, -187500.02, 187500.00, -0.00, -0.00, -0.00
253, 62349.21, 25835.89, -187500.02, -187500.02, 4783.21, -187500.02, -187500.02, 187500.00, -0.00, -0.00, -0.00
254, 64031.13, 28699.71, -187500.02, -187500.02, 4658.26, -187500.02, -187500.02, 187500.00, -0.00, -0.00, -0.00
255, 68192.22, 33054.88, -187500.02, -187500.02, 5133.77, -187500.02, -187500.02, 187500.00, -0.00, -0.00, -0.00
0, 67094.75, 30715.25, -187500.02, -187500.02, 5381.63, -187500.02, -187500.02, 187500.00, -0.00, -0.00, -0.00
1, 62838.60, 26190.88, -187500.02, -187500.02, 4947.96, -187500.02, -187500.02, 187500.00, -0.00, -0.00, -0.00
2, 63439.64, 27920.75, -187500.02, -187500.02, 4705.35, -187500.02, -187500.02, 187500.00, -0.00, -0.00, -0.00
3, 67795.38, 32767.70, -187500.02, -187500.02, 5129.10, -187500.02, -187500.02, 187500.00, -0.00, -0.00, -0.00
4, 67877.46, 31723.00, -187500.02, -187500.02, 5471.44, -187500.02, -187500.02, 187500.00, -0.00, -0.00, -0.00
5, 63515.00, 26779.04, -187500.02, -187500.02, 5157.62, -187500.02, -187500.02, 187500.00, -0.00, -0.00, -0.00
6, 62953.48, 27214.16, -187500.02, -187500.02, 4794.67, -187500.02, -187500.02, 187500.00, -0.00, -0.00, -0.00
7, 67174.68, 32186.82, -187500.02, -187500.02, 5116.60, -187500.02, -187500.02, 187500.00, -0.00, -0.00, -0.00
8, 68469.49, 32559.09, -187500.02, -187500.02, 5572.02, -187500.02, -187500.02, 187500.00, -0.00, -0.00, -0.00
9, 64293.88, 27525.81, -187500.02, -187500.02, 5352.35, -187500.02, -187500.02, 187500.00, -0.00, -0.00, -0.00
10, 62666.71, 26706.15, -187500.02, -187500.02, 4948.45, -187500.02, -187500.02, 187500.00, -0.00, -0.00, -0.00
11, 66500.75, 31508.45, -187500.02, -187500.02, 5172.51, -187500.02, -187500.02, 187500.00, -0.00, -0.00, -0.00
12, 68871.51, 33235.50, -187500.02, -187500.02, 5664.56, -187500.02, -187500.02, 187500.00, -0.00, -0.00, -0.00
13, 65226.05, 28506.36, -187500.02, -187500.02, 5573.50, -187500.02, -187500.02, 187500.00, -0.00, -0.00, -0.00
14, 62562.13, 26382.90, -187500.02, -187500.02, 5088.89, -187500.02, -187500.02, 187500.00, -0.00, -0.00, -0.00
15, 65734.71, 30660.49, -187500.02, -187500.02, 5190.99, -187500.02, -187500.02, 187500.00, -0.00, -0.00, -0.00
16, 69010.12, 33606.59, -187500.02, -187500.02, 5717.82, -187500.02, -187500.02, 187500.00, -0.00, -0.00, -0.00
17, 66163.95, 29536.33, -187500.02, -187500.02, 5760.71, -187500.02, -187500.02, 187500.00, -0.00, -0.00, -0.00
18, 62688.01, 26302.06, -187500.02, -187500.02, 5289.58, -187500.02, -187500.02, 187500.00, -0.00, -0.00, -0.00
19, 64955.53, 29751.98, -187500.02, -187500.02, 5234.91, -187500.02, -187500.02, 187500.00, -0.00, -0.00, -0.00
20, 68894.87, 33687.30, -187500.02, -187500.02, 5767.51, -187500.02, -187500.02, 187500.00, -0.00, -0.00, -0.00
21, 67055.08, 30580.31, -187500.02, -187500.02, 5920.40, -187500.02, -187500.02, 187500.00, -0.00, -0.00, -0.00
22, 62975.81, 26425.88, -187500.02, -187500.02, 5460.44, -187500.02, -187500.02, 187500.00, -0.00, -0.00, -0.00
23, 64189.98, 28815.64, -187500.02, -187500.02, 5256.57, -187500.02, -187500.02, 187500.00, -0.00, -0.00, -0.00
24, 68463.13, 33397.89, -187500.02, -187500.02, 5729.49, -187500.02, -187500.02, 187500.00, -0.00, -0.00, -0.00
25, 67803.03, 31526.55, -187500.02, -187500.02, 6029.41, -187500.02, -187500.02, 187500.00, -0.00, -0.00, -0.00
26, 63424.61, 26758.19, -187500.02, -187500.02, 5626.16, -187500.02, -187500.02, 187500.00, -0.00, -0.00, -0.00
27, 63519.54, 27943.55, -187500.02, -187500.02, 5294.10, -187500.02, -187500.02, 187500.00, -0.00, -0.00, -0.00
28, 67784.99, 32808.09, -187500.02, -187500.02, 5620.52, -187500.02, -187500.02, 187500.00, -0.00, -0.00, -0.00
29, 68320.18, 32284.23, -187500.02, -187500.02, 6008.01, -187500.02, -187500.02, 187500.00, -0.00, -0.00, -0.00
30, 63988.44, 27256.77, -187500.02, -187500.02, 5734.47, -187500.02, -187500.02, 187500.00, -0.00, -0.00, -0.00
31, 62958.09, 27157.44, -187500.02, -187500.02, 5308.49, -187500.02, -187500.02, 187500.00, -0.00, -0.00, -0.00
32, 66990.14, 32032.22, -187500.02, -187500.02, 5542.20, -187500.02, -187500.02, 187500.00, -0.00, -0.00, -0.00
33, 68643.05, 32869.76, -187500.02, -187500.02, 5973.24, -187500.02, -187500.02, 187500.00, -0.00, -0.00, -0.00
34, 64559.35, 27838.83, -187500.02, -187500.02, 5735.12, -187500.02, -187500.02, 187500.00, -0.00, -0.00, -0.00
35, 62471.69, 26459.41, -187500.02, -187500.02, 5244.86, -187500.02, -187500.02, 187500.00, -0.00, -0.00, -0.00
36, 66023.59, 31023.97, -187500.02, -187500.02, 5390.15, -187500.02, -187500.02, 187500.00, -0.00, -0.00, -0.00
37, 68756.42, 33227.72, -187500.02, -187500.02, 5943.15, -187500.02, -187500.02, 187500.00, -0.00, -0.00, -0.00
38, 65350.26, 28683.84, -187500.02, -187500.02, 5893.26, -187500.02, -187500.02, 187500.00, -0.00, -0.00, -0.00
39, 62346.05, 26115.62, -187500.02, -187500.02, 5393.34, -187500.02, -187500.02, 187500.00, -0.00, -0.00, -0.00
40, 65165.70, 30069.64, -187500.02, -187500.02, 5426.27, -187500.02, -187500.02, 187500.00, -0.00, -0.00, -0.00
41, 68693.41, 33388.32, -187500.02, -187500.02, 5969.41, -187500.02, -187500.02, 187500.00, -0.00, -0.00, -0.00
42, 66194.63, 29644.51, -187500.02, -187500.02, 6057.95, -187500.02, -187500.02, 187500.00, -0.00, -0.00, -0.00
43, 62479.45, 26055.99, -187500.02, -187500.02, 5579.87, -187500.02, -187500.02, 187500.00, -0.00, -0.00, -0.00
44, 64372.66, 29130.13, -187500.02, -187500.02, 5480.13, -187500.02, -187500.02, 187500.00, -0.00, -0.00, -0.00
45, 68426.42, 33306.00, -187500.02, -187500.02, 5980.86, -187500.02, -187500.02, 187500.00, -0.00, -0.00, -0.00
46, 67049.04, 30676.74, -187500.02, -187500.02, 6226.50, -187500.02, -187500.02, 187500.00, -0.00, -0.00, -0.00
47, 62859.81, 26291.53, -187500.02, -187500.02, 5804.32, -187500.02, -187500.02, 187500.00, -0.00, -0.00, -0.00
48, 63692.14, 28274.04, -187500.02, -187500.02, 5585.52, -187500.02, -187500.02, 187500.00, -0.00, -0.00, -0.00
49, 67979.16, 32984.16, -187500.02, -187500.02, 5997.29, -187500.02, -187500.02, 187500.00, -0.00, -0.00, -0.00
50, 67753.55, 31596.83, -187500.02, -187500.02, 6314.46, -187500.02, -187500.02, 187500.00, -0.00, -0.00, -0.00
51, 63372.85, 26710.42, -187500.02, -187500.02, 5959.85, -187500.02, -187500.02, 187500.00, -0.00, -0.00, -0.00
52, 63087.06, 27462.83, -187500.02, -187500.02, 5635.30, -187500.02, -187500.02, 187500.00, -0.00, -0.00, -0.00
53, 67374.19, 32446.55, -187500.02, -187500.02, 6010.81, -187500.02, -187500.02, 187500.00, -0.00, -0.00, -0.00
54, 68354.05, 32453.70, -187500.02, -187500.02, 6431.33, -187500.02, -187500.02, 187500.00, -0.00, -0.00, -0.00
55, 64065.42, 27368.84, -187500.02, -187500.02, 6142.75, -187500.02, -187500.02, 187500.00, -0.00, -0.00, -0.00
56, 62706.05, 26859.78, -187500.02, -187500.02, 5770.91, -187500.02, -187500.02, 187500.00, -0.00, -0.00, -0.00
57, 66616.31, 31686.37, -187500.02, -187500.02, 6010.58, -187500.02, -187500.02, 187500.00, -0.00, -0.00, -0.00
58, 68721.09, 33074.39, -187500.02, -187500.02, 6514.33, -187500.02, -187500.02, 187500.00, -0.00, -0.00, -0.00
59, 64903.16, 28228.33, -187500.02, -187500.02, 6387.82, -187500.02, -187500.02, 187500.00, -0.00, -0.00, -0.00
60, 62464.81, 26405.19, -187500.02, -187500.02, 5901.67, -187500.02, -187500.02, 187500.00, -0.00, -0.00, -0.00
61, 65782.61, 30794.96, -187500.02, -187500.02, 6015.48, -187500.02, -187500.02, 187500.00, -0.00, -0.00, -0.00
62, 68849.65, 33458.23, -187500.02, -187500.02, 6557.53, -187500.02, -187500.02, 187500.00, -0.00, -0.00, -0.00
63, 65771.88, 29187.13, -187500.02, -187500.02, 6552.32, -187500.02, -187500.02, 187500.00, -0.00, -0.00, -0.00
64, 62464.27, 26200.02, -187500.02, -187500.02, 6024.78, -187500.02, -187500.02, 187500.00, -0.00, -0.00, -0.00
65, 64956.54, 29850.57, -187500.02, -187500.02, 5994.89, -187500.02, -187500.02, 187500.00, -0.00, -0.00, -0.00
66, 68710.35, 33522.30, -187500.02, -187500.02, 6510.97, -187500.02, -187500.02, 187500.00, -0.00, -0.00, -0.00
67, 66573.53, 30125.48, -187500.02, -187500.02, 6591.51, -187500.02, -187500.02, 187500.00, -0.00, -0.00, -0.00
68, 62644.98, 26208.94, -187500.02, -187500.02, 6101.02, -187500.02, -187500.02, 187500.00, -0.00, -0.00, -0.00
69, 64091.21, 28834.00, -187500.02, -187500.02, 5884.70, -187500.02, -187500.02, 187500.00, -0.00, -0.00, -0.00
70, 68259.63, 33231.86, -187500.02, -187500.02, 6346.82, -187500.02, -187500.02, 187500.00, -0.00, -0.00, -0.00
71, 67292.31, 31037.81, -187500.02, -187500.02, 6591.91, -187500.02, -187500.02, 187500.00, -0.00, -0.00, -0.00
72, 62976.39, 26405.54, -187500.02, -187500.02, 6141.43, -187500.02, -187500.02, 187500.00, -0.00, -0.00, -0.00
73, 63388.16, 27930.05, -187500.02, -187500.02, 5867.24, -187500.02, -187500.02, 187500.00, -0.00, -0.00, -0.00
74, 67697.22, 32769.96, -187500.02, -187500.02, 6275.70, -187500.02, -187500.02, 187500.00, -0.00, -0.00, -0.00
75, 67955.25, 31928.97, -187500.02, -187500.02, 6656.08, -187500.02, -187500.02, 187500.00, -0.00, -0.00, -0.00
76, 63620.68, 26969.44, -187500.02, -187500.02, 6345.77, -187500.02, -187500.02, 187500.00, -0.00, -0.00, -0.00
77, 62890.34, 27204.98, -187500.02, -187500.02, 5965.17, -187500.02, -187500.02, 187500.00, -0.00, -0.00, -0.00
78, 67012.14, 32110.65, -187500.02, -187500.02, 6267.45, -187500.02, -187500.02, 187500.00, -0.00, -0.00, -0.00
79, 68443.72, 32659.90, -187500.02, -187500.02, 6749.27, -187500.02, -187500.02, 187500.00, -0.00, -0.00, -0.00
80, 64361.15, 27684.71, -187500.02, -187500.02, 6556.35, -187500.02, -187500.02, 187500.00, -0.00, -0.00, -0.00
81, 62555.09, 26644.35, -187500.02, -187500.02, 6096.80, -187500.02, -187500.02, 187500.00, -0.00, -0.00, -0.00
82, 66212.41, 31284.13, -187500.02, -187500.02, 6256.90, -187500.02, -187500.02, 187500.00, -0.00, -0.00, -0.00
83, 68689.01, 33161.09, -187500.02, -187500.02, 6771.93, -187500.02, -187500.02, 187500.00, -0.00, -0.00, -0.00
84, 65172.03, 28548.09, -187500.02, -187500.02, 6712.47, -187500.02, -187500.02, 187500.00, -0.00, -0.00, -0.00
85, 62422.03, 26304.22, -187500.02, -187500.02, 6229.27, -187500.02, -187500.02, 187500.00, -0.00, -0.00, -0.00
86, 65435.87, 30431.74, -187500.02, -187500.02, 6309.58, -187500.02, -187500.02, 187500.00, -0.00, -0.00, -0.00
87, 68760.91, 33467.51, -187500.02, -187500.02, 6852.04, -187500.02, -187500.02, 187500.00, -0.00, -0.00, -0.00
88, 66033.04, 29509.69, -187500.02, -187500.02, 6887.67, -187500.02, -187500.02, 187500.00, -0.00, -0.00, -0.00
89, 62517.11, 26204.92, -187500.02, -187500.02, 6401.85, -187500.02, -187500.02, 187500.00, -0.00, -0.00, -0.00
90, 64634.34, 29497.48, -187500.02, -187500.02, 6334.91, -187500.02, -187500.02, 187500.00, -0.00, -0.00, -0.00
91, 68546.83, 33457.30, -187500.02, -187500.02, 6862.79, -187500.02, -187500.02, 187500.00, -0.00, -0.00, -0.00
92, 66869.38, 30528.41, -187500.02, -187500.02, 7054.52, -187500.02, -187500.02, 187500.00, -0.00, -0.00, -0.00
93, 62795.28, 26350.49, -187500.02, -187500.02, 6577.36, -187500.02, -187500.02, 187500.00, -0.00, -0.00, -0.00
94, 63899.57, 28609.43, -187500.02, -187500.02, 6376.44, -187500.02, -187500.02, 187500.00, -0.00, -0.00, -0.00
95, 68147.09, 33201.77, -187500.02, -187500.02, 6859.84, -187500.02, -187500.02, 187500.00, -0.00, -0.00, -0.00
96, 67654.88, 31525.19, -187500.02, -187500.02, 7193.77, -187500.02, -187500.02, 187500.00, -0.00, -0.00, -0.00
97, 63319.54, 26760.63, -187500.02, -187500.02, 6802.69, -187500.02, -187500.02, 187500.00, -0.00, -0.00, -0.00
98, 63290.57, 27796.85, -187500.02, -187500.02, 6475.81, -187500.02, -187500.02, 187500.00, -0.00, -0.00, -0.00
99, 67539.50, 32672.42, -187500.02, -187500.02, 6844.82, -187500.02, -187500.02, 187500.00, -0.00, -0.00, -0.00
100, 68271.91, 32383.41, -187500.02, -187500.02, 7298.25, -187500.02, -187500.02, 187500.00, -0.00, -0.00, -0.00
101, 63978.56, 27367.68, -187500.02, -187500.02, 6996.95, -187500.02, -187500.02, 187500.00, -0.00, -0.00, -0.00
102, 62810.81, 27092.75, -187500.02, -187500.02, 6540.59, -187500.02, -187500.02, 187500.00, -0.00, -0.00, -0.00
103, 66808.34, 31950.81, -187500.02, -187500.02, 6793.32, -187500.02, -187500.02, 187500.00, -0.00, -0.00, -0.00
104, 68649.23, 33018.20, -187500.02, -187500.02, 7269.35, -187500.02, -187500.02, 187500.00, -0.00, -0.00, -0.00
105, 64694.37, 28082.62, -187500.02, -187500.02, 7043.66, -187500.02, -187500.02, 187500.00, -0.00, -0.00, -0.00
106, 62477.68, 26531.83, -187500.02, -187500.02, 6518.77, -187500.02, -187500.02, 187500.00, -0.00, -0.00, -0.00
107, 65886.59, 30985.93, -187500.02, -187500.02, 6600.58, -187500.02, -187500.02, 187500.00, -0.00, -0.00, -0.00
108, 68722.98, 33343.30, -187500.02, -187500.02, 7105.55, -187500.02, -187500.02, 187500.00, -0.00, -0.00, -0.00
109, 65449.23, 28910.39, -187500.02, -187500.02, 7027.48, -187500.02, -187500.02, 187500.00, -0.00, -0.00, -0.00
110, 62356.47, 26204.98, -187500.02, -187500.02, 6506.97, -187500.02, -187500.02, 187500.00, -0.00, -0.00, -0.00
111, 65021.74, 30020.31, -187500.02, -187500.02, 6476.40, -187500.02, -187500.02, 187500.00, -0.00, -0.00, -0.00
112, 68663.48, 33509.09, -187500.02, -187500.02, 7022.76, -187500.02, -187500.02, 187500.00, -0.00, -0.00, -0.00
113, 66369.68, 29959.41, -187500.02, -187500.02, 7143.37, -187500.02, -187500.02, 187500.00, -0.00, -0.00, -0.00
114, 62576.34, 26246.18, -187500.02, -187500.02, 6640.37, -187500.02, -187500.02, 187500.00, -0.00, -0.00, -0.00
115, 64320.92, 29172.58, -187500.02, -187500.02, 6517.28, -187500.02, -187500.02, 187500.00, -0.00, -0.00, -0.00
116, 68433.17, 33454.70, -187500.02, -187500.02, 7015.25, -187500.02, -187500.02, 187500.00, -0.00, -0.00, -0.00
117, 67219.90, 31000.53, -187500.02, -187500.02, 7257.88, -187500.02, -187500.02, 187500.00, -0.00, -0.00, -0.00
118, 62986.54, 26521.60, -187500.02, -187500.02, 6807.00, -187500.02, -187500.02, 187500.00, -0.00, -0.00, -0.00
119, 63642.10, 28317.87, -187500.02, -187500.02, 6547.29, -187500.02, -187500.02, 187500.00, -0.00, -0.00, -0.00
120, 67963.29, 33104.30, -187500.02, -187500.02, 7002.22, -187500.02, -187500.02, 187500.00, -0.00, -0.00, -0.00
121, 67931.84, 31941.45, -187500.02, -187500.02, 7337.14, -187500.02, -187500.02, 187500.00, -0.00, -0.00, -0.00
122, 63571.51, 27038.88, -187500.02, -187500.02, 6947.97, -187500.02, -187500.02, 187500.00, -0.00, -0.00, -0.00
123, 63148.23, 27624.59, -187500.02, -187500.02, 6589.12, -187500.02, -187500.02, 187500.00, -0.00, -0.00, -0.00
124, 67358.01, 32553.30, -187500.02, -187500.02, 6949.69, -187500.02, -187500.02, 187500.00, -0.00, -0.00, -0.00
125, 68504.02, 32761.60, -187500.02, -187500.02, 7405.47, -187500.02, -187500.02, 187500.00, -0.00, -0.00, -0.00
126, 64313.39, 27746.83, -187500.02, -187500.02, 7120.33, -187500.02, -187500.02, 187500.00, -0.00, -0.00, -0.00
127, 62784.04, 27039.87, -187500.02, -187500.02, 6667.55, -187500.02, -187500.02, 187500.00, -0.00, -0.00, -0.00
128, 66623.46, 31813.71, -187500.02, -187500.02, 6906.55, -187500.02, -187500.02, 187500.00, -0.00, -0.00, -0.00
129, 68885.64, 33396.61, -187500.02, -187500.02, 7432.69, -187500.02, -187500.02, 187500.00, -0.00, -0.00, -0.00
130, 65191.97, 28654.31, -187500.02, -187500.02, 7296.82, -187500.02, -187500.02, 187500.00, -0.00, -0.00, -0.00
131, 62665.04, 26700.19, -187500.02, -187500.02, 6807.76, -187500.02, -187500.02, 187500.00, -0.00, -0.00, -0.00
132, 65865.36, 30990.20, -187500.02, -187500.02, 6891.06, -187500.02, -187500.02, 187500.00, -0.00, -0.00, -0.00
133, 69042.63, 33801.09, -187500.02, -187500.02, 7418.95, -187500.02, -187500.02, 187500.00, -0.00, -0.00, -0.00
134, 66132.73, 29684.81, -187500.02, -187500.02, 7446.26, -187500.02, -187500.02, 187500.00, -0.00, -0.00, -0.00
135, 62762.36, 26586.24, -187500.02, -187500.02, 6948.49, -187500.02, -187500.02, 187500.00, -0.00, -0.00, -0.00
136, 65106.96, 30099.84, -187500.02, -187500.02, 6884.72, -187500.02, -187500.02, 187500.00, -0.00, -0.00, -0.00
137, 68939.73, 33903.21, -187500.02, -187500.02, 7384.93, -187500.02, -187500.02, 187500.00, -0.00, -0.00, -0.00
138, 67040.91, 30734.07, -187500.02, -187500.02, 7562.35, -187500.02, -187500.02, 187500.00, -0.00, -0.00, -0.00
139, 63045.39, 26698.85, -187500.02, -187500.02, 7096.70, -187500.02, -187500.02, 187500.00, -0.00, -0.00, -0.00
140, 64379.39, 29200.72, -187500.02, -187500.02, 6914.94, -187500.02, -187500.02, 187500.00, -0.00, -0.00, -0.00
141, 68578.93, 33687.18, -187500.02, -187500.02, 7353.95, -187500.02, -187500.02, 187500.00, -0.00, -0.00, -0.00
142, 67815.33, 31702.60, -187500.02, -187500.02, 7637.81, -187500.02, -187500.02, 187500.00, -0.00, -0.00, -0.00
143, 63481.79, 27008.97, -187500.02, -187500.02, 7233.36, -187500.02, -187500.02, 187500.00, -0.00, -0.00, -0.00
144, 63699.47, 28326.01, -187500.02, -187500.02, 6929.35, -187500.02, -187500.02, 187500.00, -0.00, -0.00, -0.00
145, 67986.09, 33187.15, -187500.02, -187500.02, 7284.34, -187500.02, -187500.02, 187500.00, -0.00, -0.00, -0.00
146, 68386.37, 32517.34, -187500.02, -187500.02, 7609.67, -187500.02, -187500.02, 187500.00, -0.00, -0.00, -0.00
147, 64018.12, 27473.80, -187500.02, -187500.02, 7264.72, -187500.02, -187500.02, 187500.00, -0.00, -0.00, -0.00
148, 63110.68, 27517.72, -187500.02, -187500.02, 6858.83, -187500.02, -187500.02, 187500.00, -0.00, -0.00, -0.00
149, 67202.80, 32436.52, -187500.02, -187500.02, 7123.43, -187500.02, -187500.02, 187500.00, -0.00, -0.00, -0.00
150, 68809.09, 33191.31, -187500.02, -187500.02, 7568.05, -187500.02, -187500.02, 187500.00, -0.00, -0.00, -0.00
151, 64752.84, 28210.31, -187500.02, -187500.02, 7334.99, -187500.02, -187500.02, 187500.00, -0.00, -0.00, -0.00
152, 62796.98, 26988.72, -187500.02, -187500.02, 6858.10, -187500.02, -187500.02, 187500.00, -0.00, -0.00, -0.00
153, 66412.64, 31610.64, -187500.02, -187500.02, 7008.70, -187500.02, -187500.02, 187500.00, -0.00, -0.00, -0.00
154, 69061.81, 33709.18, -187500.02, -187500.02, 7535.82, -187500.02, -187500.02, 187500.00, -0.00, -0.00, -0.00
155, 65616.31, 29145.98, -187500.02, -187500.02, 7439.80, -187500.02, -187500.02, 187500.00, -0.00, -0.00, -0.00
156, 62752.59, 26745.69, -187500.02, -187500.02, 6942.65, -187500.02, -187500.02, 187500.00, -0.00, -0.00, -0.00
157, 65653.04, 30769.81, -187500.02, -187500.02, 6978.80, -187500.02, -187500.02, 187500.00, -0.00, -0.00, -0.00
158, 69127.44, 34006.93, -187500.02, -187500.02, 7556.68, -187500.02, -187500.02, 187500.00, -0.00, -0.00, -0.00
159, 66562.45, 30209.12, -187500.02, -187500.02, 7634.95, -187500.02, -187500.02, 187500.00, -0.00, -0.00, -0.00
160, 62941.66, 26747.50, -187500.02, -187500.02, 7114.94, -187500.02, -187500.02, 187500.00, -0.00, -0.00, -0.00
161, 64940.87, 29914.41, -187500.02, -187500.02, 7017.13, -187500.02, -187500.02, 187500.00, -0.00, -0.00, -0.00
162, 68965.61, 34027.94, -187500.02, -187500.02, 7566.36, -187500.02, -187500.02, 187500.00, -0.00, -0.00, -0.00
163, 67447.80, 31255.07, -187500.02, -187500.02, 7762.40, -187500.02, -187500.02, 187500.00, -0.00, -0.00, -0.00
164, 63289.81, 26938.16, -187500.02, -187500.02, 7287.34, -187500.02, -187500.02, 187500.00, -0.00, -0.00, -0.00
165, 64239.78, 29037.91, -187500.02, -187500.02, 7090.33, -187500.02, -187500.02, 187500.00, -0.00, -0.00, -0.00
166, 68528.84, 33728.04, -187500.02, -187500.02, 7546.84, -187500.02, -187500.02, 187500.00, -0.00, -0.00, -0.00
167, 68213.52, 32242.05, -187500.02, -187500.02, 7850.42, -187500.02, -187500.02, 187500.00, -0.00, -0.00, -0.00
168, 63836.80, 27379.68, -187500.02, -187500.02, 7464.25, -187500.02, -187500.02, 187500.00, -0.00, -0.00, -0.00
169, 63599.41, 28188.03, -187500.02, -187500.02, 7103.52, -187500.02, -187500.02, 187500.00, -0.00, -0.00, -0.00
170, 67864.01, 33132.19, -187500.02, -187500.02, 7449.66, -187500.02, -187500.02, 187500.00, -0.00, -0.00, -0.00
171, 68788.79, 33068.40, -187500.02, -187500.02, 7868.69, -187500.02, -187500.02, 187500.00, -0.00, -0.00, -0.00
172, 64532.19, 28026.27, -187500.02, -187500.02, 7608.35, -187500.02, -187500.02, 187500.00, -0.00, -0.00, -0.00
173, 63161.02, 27528.99, -187500.02, -187500.02, 7158.88, -187500.02, -187500.02, 187500.00, -0.00, -0.00, -0.00
174, 67130.73, 32411.84, -187500.02, -187500.02, 7414.32, -187500.02, -187500.02, 187500.00, -0.00, -0.00, -0.00
175, 69191.14, 33736.87, -187500.02, -187500.02, 7902.08, -187500.02, -187500.02, 187500.00, -0.00, -0.00, -0.00
176, 65331.06, 28853.91, -187500.02, -187500.02, 7720.60, -187500.02, -187500.02, 187500.00, -0.00, -0.00, -0.00
177, 62955.16, 27099.66, -187500.02, -187500.02, 7241.65, -187500.02, -187500.02, 187500.00, -0.00, -0.00, -0.00
178, 66341.54, 31562.96, -187500.02, -187500.02, 7378.20, -187500.02, -187500.02, 187500.00, -0.00, -0.00, -0.00
179, 69383.12, 34175.61, -187500.02, -187500.02, 7912.79, -187500.02, -187500.02, 187500.00, -0.00, -0.00, -0.00
180, 66314.36, 29917.25, -187500.02, -187500.02, 7939.90, -187500.02, -187500.02, 187500.00, -0.00, -0.00, -0.00
181, 63090.39, 27034.23, -187500.02, -187500.02, 7450.31, -187500.02, -187500.02, 187500.00, -0.00, -0.00, -0.00
182, 65601.54, 30708.68, -187500.02, -187500.02, 7379.96, -187500.02, -187500.02, 187500.00, -0.00, -0.00, -0.00
183, 69311.26, 34318.00, -187500.02, -187500.02, 7860.13, -187500.02, -187500.02, 187500.00, -0.00, -0.00, -0.00
184, 67154.20, 30894.42, -187500.02, -187500.02, 7960.62, -187500.02, -187500.02, 187500.00, -0.00, -0.00, -0.00
185, 63280.98, 27048.87, -187500.02, -187500.02, 7484.32, -187500.02, -187500.02, 187500.00, -0.00, -0.00, -0.00
186, 64835.64, 29788.37, -187500.02, -187500.02, 7311.17, -187500.02, -187500.02, 187500.00, -0.00, -0.00, -0.00
187, 69001.38, 34182.43, -187500.02, -187500.02, 7762.18, -187500.02, -187500.02, 187500.00, -0.00, -0.00, -0.00
188, 67958.11, 31902.96, -187500.02, -187500.02, 7967.70, -187500.02, -187500.02, 187500.00, -0.00, -0.00, -0.00
189, 63658.75, 27305.09, -187500.02, -187500.02, 7521.21, -187500.02, -187500.02, 187500.00, -0.00, -0.00, -0.00
190, 64102.61, 28870.36, -187500.02, -187500.02, 7219.64, -187500.02, -187500.02, 187500.00, -0.00, -0.00, -0.00
191, 68454.00, 33740.23, -187500.02, -187500.02, 7634.42, -187500.02, -187500.02, 187500.00, -0.00, -0.00, -0.00
192, 68629.89, 32805.54, -187500.02, -187500.02, 7961.42, -187500.02, -187500.02, 187500.00, -0.00, -0.00, -0.00
193, 64280.84, 27850.61, -187500.02, -187500.02, 7650.02, -187500.02, -187500.02, 187500.00, -0.00, -0.00, -0.00
194, 63595.11, 28147.24, -187500.02, -187500.02, 7247.75, -187500.02, -187500.02, 187500.00, -0.00, -0.00, -0.00
195, 67786.05, 33114.42, -187500.02, -187500.02, 7550.35, -187500.02, -187500.02, 187500.00, -0.00, -0.00, -0.00
196, 69187.54, 33623.44, -187500.02, -187500.02, 7999.94, -187500.02, -187500.02, 187500.00, -0.00, -0.00, -0.00
197, 65086.85, 28640.81, -187500.02, -187500.02, 7798.75, -187500.02, -187500.02, 187500.00, -0.00, -0.00, -0.00
198, 63341.18, 27670.61, -187500.02, -187500.02, 7359.94, -187500.02, -187500.02, 187500.00, -0.00, -0.00, -0.00
199, 67078.77, 32386.71, -187500.02, -187500.02, 7514.95, -187500.02, -187500.02, 187500.00, -0.00, -0.00, -0.00
200, 69565.76, 34252.95, -187500.02, -187500.02, 8022.35, -187500.02, -187500.02, 187500.00, -0.00, -0.00, -0.00
201, 66011.34, 29602.27, -187500.02, -187500.02, 7939.25, -187500.02, -187500.02, 187500.00, -0.00, -0.00, -0.00
202, 63302.78, 27407.71, -187500.02, -187500.02, 7479.59, -187500.02, -187500.02, 187500.00, -0.00, -0.00, -0.00
203, 66399.45, 31624.61, -187500.02, -187500.02, 7561.13, -187500.02, -187500.02, 187500.00, -0.00, -0.00, -0.00
204, 69752.55, 34677.50, -187500.02, -187500.02, 8083.64, -187500.02, -187500.02, 187500.00, -0.00, -0.00, -0.00
205, 67025.64, 30721.31, -187500.02, -187500.02, 8142.49, -187500.02, -187500.02, 187500.00, -0.00, -0.00, -0.00
206, 63510.45, 27423.58, -187500.02, -187500.02, 7652.30, -187500.02, -187500.02, 187500.00, -0.00, -0.00, -0.00
207, 65715.13, 30811.45, -187500.02, -187500.02, 7596.84, -187500.02, -187500.02, 187500.00, -0.00, -0.00, -0.00
208, 69663.92, 34788.54, -187500.02, -187500.02, 8093.77, -187500.02, -187500.02, 187500.00, -0.00, -0.00, -0.00
209, 67923.24, 31775.75, -187500.02, -187500.02, 8247.93, -187500.02, -187500.02, 187500.00, -0.00, -0.00, -0.00
210, 63887.18, 27635.43, -187500.02, -187500.02, 7840.59, -187500.02, -187500.02, 187500.00, -0.00, -0.00, -0.00
211, 65038.48, 29952.65, -187500.02, -187500.02, 7651.00, -187500.02, -187500.02, 187500.00, -0.00, -0.00, -0.00
212, 69284.64, 34537.89, -187500.02, -187500.02, 8079.91, -187500.02, -187500.02, 187500.00, -0.00, -0.00, -0.00
213, 68709.39, 32764.55, -187500.02, -187500.02, 8354.79, -187500.02, -187500.02, 187500.00, -0.00, -0.00, -0.00
214, 64364.66, 28000.97, -187500.02, -187500.02, 7977.99, -187500.02, -187500.02, 187500.00, -0.00, -0.00, -0.00
215, 64413.68, 29124.30, -187500.02, -187500.02, 7688.53, -187500.02, -187500.02, 187500.00, -0.00, -0.00, -0.00
216, 68713.51, 34050.27, -187500.02, -187500.02, 8056.10, -187500.02, -187500.02, 187500.00, -0.00, -0.00, -0.00
217, 69364.30, 33667.07, -187500.02, -187500.02, 8435.41, -187500.02, -187500.02, 187500.00, -0.00, -0.00, -0.00
218, 65052.58, 28630.37, -187500.02, -187500.02, 8146.96, -187500.02, -187500.02, 187500.00, -0.00, -0.00, -0.00
219, 63967.18, 28460.01, -187500.02, -187500.02, 7767.32, -187500.02, -187500.02, 187500.00, -0.00, -0.00, -0.00
220, 67992.57, 33350.93, -187500.02, -187500.02, 8011.04, -187500.02, -187500.02, 187500.00, -0.00, -0.00, -0.00
221, 69834.16, 34395.40, -187500.02, -187500.02, 8498.38, -187500.02, -187500.02, 187500.00, -0.00, -0.00, -0.00
222, 65868.11, 29448.11, -187500.02, -187500.02, 8320.53, -187500.02, -187500.02, 187500.00, -0.00, -0.00, -0.00
223, 63680.16, 27946.92, -187500.02, -187500.02, 7841.04, -187500.02, -187500.02, 187500.00, -0.00, -0.00, -0.00
224, 67231.12, 32545.73, -187500.02, -187500.02, 8014.58, -187500.02, -187500.02, 187500.00, -0.00, -0.00, -0.00
225, 70079.20, 34895.86, -187500.02, -187500.02, 8531.42, -187500.02, -187500.02, 187500.00, -0.00, -0.00, -0.00
226, 66804.69, 30456.91, -187500.02, -187500.02, 8509.22, -187500.02, -187500.02, 187500.00, -0.00, -0.00, -0.00
227, 63702.25, 27759.26, -187500.02, -187500.02, 7990.59, -187500.02, -187500.02, 187500.00, -0.00, -0.00, -0.00
228, 66440.63, 31652.51, -187500.02, -187500.02, 7964.24, -187500.02, -187500.02, 187500.00, -0.00, -0.00, -0.00
229, 70095.20, 35133.16, -187500.02, -187500.02, 8486.73, -187500.02, -187500.02, 187500.00, -0.00, -0.00, -0.00
230, 67701.06, 31471.23, -187500.02, -187500.02, 8557.45, -187500.02, -187500.02, 187500.00, -0.00, -0.00, -0.00
231, 63898.79, 27757.24, -187500.02, -187500.02, 8061.65, -187500.02, -187500.02, 187500.00, -0.00, -0.00, -0.00
232, 65676.89, 30728.93, -187500.02, -187500.02, 7903.29, -187500.02, -187500.02, 187500.00, -0.00, -0.00, -0.00
233, 69822.22, 35031.87, -187500.02, -187500.02, 8365.77, -187500.02, -187500.02, 187500.00, -0.00, -0.00, -0.00
234, 68529.02, 32476.10, -187500.02, -187500.02, 8546.95, -187500.02, -187500.02, 187500.00, -0.00, -0.00, -0.00
235, 64277.45, 27989.75, -187500.02, -187500.02, 8092.76, -187500.02, -187500.02, 187500.00, -0.00, -0.00, -0.00
236, 65010.79, 29872.05, -187500.02, -187500.02, 7846.00, -187500.02, -187500.02, 187500.00, -0.00, -0.00, -0.00
237, 69352.52, 34679.42, -187500.02, -187500.02, 8234.61, -187500.02, -187500.02, 187500.00, -0.00, -0.00, -0.00
238, 69297.73, 33466.80, -187500.02, -187500.02, 8573.57, -187500.02, -187500.02, 187500.00, -0.00, -0.00, -0.00
239, 64876.81, 28494.56, -187500.02, -187500.02, 8212.57, -187500.02, -187500.02, 187500.00, -0.00, -0.00, -0.00
240, 64450.45, 29099.38, -187500.02, -187500.02, 7863.28, -187500.02, -187500.02, 187500.00, -0.00, -0.00, -0.00
241, 68739.52, 34123.85, -187500.02, -187500.02, 8209.66, -187500.02, -187500.02, 187500.00, -0.00, -0.00, -0.00
242, 69901.91, 34325.04, -187500.02, -187500.02, 8654.24, -187500.02, -187500.02, 187500.00, -0.00, -0.00, -0.00
243, 65676.62, 29256.78, -187500.02, -187500.02, 8425.42, -187500.02, -187500.02, 187500.00, -0.00, -0.00, -0.00
244, 64145.88, 28565.51, -187500.02, -187500.02, 8003.78, -187500.02, -187500.02, 187500.00, -0.00, -0.00, -0.00
245, 68031.73, 33404.30, -187500.02, -187500.02, 8208.57, -187500.02, -187500.02, 187500.00, -0.00, -0.00, -0.00
246, 70300.26, 34979.90, -187500.02, -187500.02, 8703.79, -187500.02, -187500.02, 187500.00, -0.00, -0.00, -0.00
247, 66548.16, 30161.06, -187500.02, -187500.02, 8583.43, -187500.02, -187500.02, 187500.00, -0.00, -0.00, -0.00
248, 63999.59, 28201.33, -187500.02, -187500.02, 8120.92, -187500.02, -187500.02, 187500.00, -0.00, -0.00, -0.00
249, 67273.23, 32579.95, -187500.02, -187500.02, 8221.40, -187500.02, -187500.02, 187500.00, -0.00, -0.00, -0.00
250, 70477.82, 35406.75, -187500.02, -187500.02, 8743.33, -187500.02, -187500.02, 187500.00, -0.00, -0.00, -0.00
251, 67505.06, 31218.79, -187500.02, -187500.02, 8766.38, -187500.02, -187500.02, 187500.00, -0.00, -0.00, -0.00
252, 64098.23, 28100.68, -187500.02, -187500.02, 8275.08, -187500.02, -187500.02, 187500.00, -0.00, -0.00, -0.00
253, 66502.80, 31692.98, -187500.02, -187500.02, 8228.08, -187500.02, -187500.02, 187500.00, -0.00, -0.00, -0.00
254, 70389.44, 35543.77, -187500.02, -187500.02, 8737.01, -187500.02, -187500.02, 187500.00, -0.00, -0.00, -0.00
255, 68419.27, 32297.22, -187500.02, -187500.02, 8880.30, -187500.02, -187500.02, 187500.00, -0.00, -0.00, -0.00
0, 64417.34, 28265.54, -187500.02, -187500.02, 8429.38, -187500.02, -187500.02, 187500.00, -0.00, -0.00, -0.00
1, 65793.70, 30836.11, -187500.02, -187500.02, 8242.92, -187500.02, -187500.02, 187500.00, -0.00, -0.00, -0.00
2, 70060.52, 35379.86, -187500.02, -187500.02, 8700.08, -187500.02, -187500.02, 187500.00, -0.00, -0.00, -0.00
3, 69232.78, 33306.78, -187500.02, -187500.02, 8939.07, -187500.02, -187500.02, 187500.00, -0.00, -0.00, -0.00
4, 64914.61, 28626.17, -187500.02, -187500.02, 8558.62, -187500.02, -187500.02, 187500.00, -0.00, -0.00, -0.00
5, 65205.60, 30029.79, -187500.02, -187500.02, 8283.91, -187500.02, -187500.02, 187500.00, -0.00, -0.00, -0.00
6, 69574.54, 34972.97, -187500.02, -187500.02, 8697.13, -187500.02, -187500.02, 187500.00, -0.00, -0.00, -0.00
7, 69995.78, 34301.81, -187500.02, -187500.02, 9090.54, -187500.02, -187500.02, 187500.00, -0.00, -0.00, -0.00
8, 65609.66, 29255.06, -187500.02, -187500.02, 8761.95, -187500.02, -187500.02, 187500.00, -0.00, -0.00, -0.00
9, 64762.05, 29368.76, -187500.02, -187500.02, 8386.84, -187500.02, -187500.02, 187500.00, -0.00, -0.00, -0.00
10, 68917.49, 34339.90, -187500.02, -187500.02, 8694.34, -187500.02, -187500.02, 187500.00, -0.00, -0.00, -0.00
11, 70489.89, 35047.00, -187500.02, -187500.02, 9153.20, -187500.02, -187500.02, 187500.00, -0.00, -0.00, -0.00
12, 66401.30, 30028.70, -187500.02, -187500.02, 8950.44, -187500.02, -187500.02, 187500.00, -0.00, -0.00, -0.00
13, 64456.75, 28831.36, -187500.02, -187500.02, 8499.97, -187500.02, -187500.02, 187500.00, -0.00, -0.00, -0.00
14, 68085.96, 33470.62, -187500.02, -187500.02, 8629.36, -187500.02, -187500.02, 187500.00, -0.00, -0.00, -0.00
16, 0.00, 25144.93, -187500.02, -187500.02, -2363.67, -187500.02, -187500.02, 187500.00, -0.00, -0.00, -0.00
17, 0.00, 28789.92, -187500.02, -187500.02, -1909.13, -187500.02, -187500.02, 187500.00, -0.00, -0.00, -0.00
18, 0.00, 25547.69, -187500.02, -187500.02, -1565.90, -187500.02, -187500.02, 187500.00, -0.00, -0.00, -0.00
19, 0.00, 22758.01, -187500.02, -187500.02, -1692.81, -187500.02, -187500.02, 187500.00, -0.00, -0.00, -0.00
20, 0.00, 26276.33, -187500.02, -187500.02, -1752.06, -187500.02, -187500.02, 187500.00, -0.00, -0.00, -0.00
21, 0.00, 30375.26, -187500.02, -187500.02, -1407.62, -187500.02, -187500.02, 187500.00, -0.00, -0.00, -0.00
22, 0.00, 27801.10, -187500.02, -187500.02, -1014.17, -187500.02, -187500.02, 187500.00, -0.00, -0.00, -0.00
23, 0.00, 23982.01, -187500.02, -187500.02, -1066.67, -187500.02, -187500.02, 187500.00, -0.00, -0.00, -0.00
24, 0.00, 26288.89, -187500.02, -187500.02, -1241.04, -187500.02, -187500.02, 187500.00, -0.00, -0.00, -0.00
25, 0.00, 30898.56, -187500.02, -187500.02, -961.84, -187500.02, -187500.02, 187500.00, -0.00, -0.00, -0.00
26, 0.00, 29446.61, -187500.02, -187500.02, -544.51, -187500.02, -187500.02, 187500.00, -0.00, -0.00, -0.00
27, 0.00, 24968.26, -187500.02, -187500.02, -575.42, -187500.02, -187500.02, 187500.00, -0.00, -0.00, -0.00
28, 0.00, 26127.56, -187500.02, -187500.02, -753.45, -187500.02, -187500.02, 187500.00, -0.00, -0.00, -0.00
29, 0.00, 31006.32, -187500.02, -187500.02, -551.28, -187500.02, -187500.02, 187500.00, -0.00, -0.00, -0.00
30, 0.00, 30864.03, -187500.02, -187500.02, -108.43, -187500.02, -187500.02, 187500.00, -0.00, -0.00, -0.00
31, 0.00, 26147.56, -187500.02, -187500.02, -32.01, -187500.02, -187500.02, 187500.00, -0.00, -0.00, -0.00
32, 0.00, 26027.15, -187500.02, -187500.02, -246.25, -187500.02, -187500.02, 187500.00, -0.00, -0.00, -0.00
33, 0.00, 30829.16, -187500.02, -187500.02, -155.23, -187500.02, -187500.02, 187500.00, -0.00, -0.00, -0.00
34, 0.00, 32011.34, -187500.02, -187500.02, 294.19, -187500.02, -187500.02, 187500.00, -0.00, -0.00, -0.00
35, 0.00, 27414.88, -187500.02, -187500.02, 461.70, -187500.02, -187500.02, 187500.00, -0.00, -0.00, -0.00
36, 0.00, 26042.60, -187500.02, -187500.02, 246.43, -187500.02, -187500.02, 187500.00, -0.00, -0.00, -0.00
37, 0.00, 30481.10, -187500.02, -187500.02, 241.91, -187500.02, -187500.02, 187500.00, -0.00, -0.00, -0.00
38, 0.00, 32900.34, -187500.02, -187500.02, 655.11, -187500.02, -187500.02, 187500.00, -0.00, -0.00, -0.00
39, 0.00, 28777.42, -187500.02, -187500.02, 912.02, -187500.02, -187500.02, 187500.00, -0.00, -0.00, -0.00
40, 0.00, 26254.94, -187500.02, -187500.02, 719.86, -187500.02, -187500.02, 187500.00, -0.00, -0.00, -0.00
41, 0.00, 30074.58, -187500.02, -187500.02, 658.77, -187500.02, -187500.02, 187500.00, -0.00, -0.00, -0.00
42, 0.00, 33549.99, -187500.02, -187500.02, 1031.40, -187500.02, -187500.02, 187500.00, -0.00, -0.00, -0.00
43, 0.00, 30218.46, -187500.02, -187500.02, 1359.32, -187500.02, -187500.02, 187500.00, -0.00, -0.00, -0.00
44, 0.00, 26744.73, -187500.02, -187500.02, 1229.50, -187500.02, -187500.02, 187500.00, -0.00, -0.00, -0.00
45, 0.00, 29645.52, -187500.02, -187500.02, 1082.67, -187500.02, -187500.02, 187500.00, -0.00, -0.00, -0.00
46, 0.00, 33871.96, -187500.02, -187500.02, 1369.96, -187500.02, -187500.02, 187500.00, -0.00, -0.00, -0.00
47, 0.00, 31601.30, -187500.02, -187500.02, 1757.85, -187500.02, -187500.02, 187500.00, -0.00, -0.00, -0.00
48, 0.00, 27368.28, -187500.02, -187500.02, 1690.73, -187500.02, -187500.02, 187500.00, -0.00, -0.00, -0.00
49, 0.00, 29180.67, -187500.02, -187500.02, 1498.77, -187500.02, -187500.02, 187500.00, -0.00, -0.00, -0.00
50, 0.00, 33877.67, -187500.02, -187500.02, 1707.52, -187500.02, -187500.02, 187500.00, -0.00, -0.00, -0.00
51, 0.00, 32857.89, -187500.02, -187500.02, 2123.66, -187500.02, -187500.02, 187500.00, -0.00, -0.00, -0.00
52, 0.00, 28169.63, -187500.02, -187500.02, 2144.72, -187500.02, -187500.02, 187500.00, -0.00, -0.00, -0.00
53, 0.00, 28765.64, -187500.02, -187500.02, 1915.83, -187500.02, -187500.02, 187500.00, -0.00, -0.00, -0.00
54, 0.00, 33640.96, -187500.02, -187500.02, 2048.56, -187500.02, -187500.02, 187500.00, -0.00, -0.00, -0.00
55, 0.00, 33982.09, -187500.02, -187500.02, 2477.80, -187500.02, -187500.02, 187500.00, -0.00, -0.00, -0.00
56, 0.00, 29201.75, -187500.02, -187500.02, 2598.03, -187500.02, -187500.02, 187500.00, -0.00, -0.00, -0.00
57, 0.00, 28526.48, -187500.02, -187500.02, 2350.60, -187500.02, -187500.02, 187500.00, -0.00, -0.00, -0.00
58, 0.00, 33231.43, -187500.02, -187500.02, 2387.28, -187500.02, -187500.02, 187500.00, -0.00, -0.00, -0.00
59, 0.00, 34910.12, -187500.02, -187500.02, 2824.90, -187500.02, -187500.02, 187500.00, -0.00, -0.00, -0.00
60, 0.00, 30386.66, -187500.02, -187500.02, 3028.08, -187500.02, -187500.02, 187500.00, -0.00, -0.00, -0.00
61, 0.00, 28468.61, -187500.02, -187500.02, 2796.63, -187500.02, -187500.02, 187500.00, -0.00, -0.00, -0.00
62, 0.00, 32682.68, -187500.02, -187500.02, 2738.94, -187500.02, -187500.02, 187500.00, -0.00, -0.00, -0.00
63, 0.00, 35519.67, -187500.02, -187500.02, 3111.92, -187500.02, -187500.02, 187500.00, -0.00, -0.00, -0.00
64, 0.00, 31593.97, -187500.02, -187500.02, 3385.98, -187500.02, -187500.02, 187500.00, -0.00, -0.00, -0.00
65, 0.00, 28597.89, -187500.02, -187500.02, 3214.72, -187500.02, -187500.02, 187500.00, -0.00, -0.00, -0.00
66, 0.00, 32083.51, -187500.02, -187500.02, 3115.12, -187500.02, -187500.02, 187500.00, -0.00, -0.00, -0.00
67, 0.00, 35886.71, -187500.02, -187500.02, 3443.46, -187500.02, -187500.02, 187500.00, -0.00, -0.00, -0.00
68, 0.00, 32868.98, -187500.02, -187500.02, 3781.58, -187500.02, -187500.02, 187500.00, -0.00, -0.00, -0.00
69, 0.00, 29000.45, -187500.02, -187500.02, 3678.36, -187500.02, -187500.02, 187500.00, -0.00, -0.00, -0.00
70, 0.00, 31475.08, -187500.02, -187500.02, 3494.14, -187500.02, -187500.02, 187500.00, -0.00, -0.00, -0.00
71, 0.00, 35927.52, -187500.02, -187500.02, 3730.04, -187500.02, -187500.02, 187500.00, -0.00, -0.00, -0.00
72, 0.00, 34089.40, -187500.02, -187500.02, 4122.31, -187500.02, -187500.02, 187500.00, -0.00, -0.00, -0.00
73, 0.00, 29622.34, -187500.02, -187500.02, 4123.81, -187500.02, -187500.02, 187500.00, -0.00, -0.00, -0.00
74, 0.00, 30946.46, -187500.02, -187500.02, 3888.33, -187500.02, -187500.02, 187500.00, -0.00, -0.00, -0.00
75, 0.00, 35729.91, -187500.02, -187500.02, 4022.82, -187500.02, -187500.02, 187500.00, -0.00, -0.00, -0.00
76, 0.00, 35229.61, -187500.02, -187500.02, 4455.22, -187500.02, -187500.02, 187500.00, -0.00, -0.00, -0.00
77, 0.00, 30486.19, -187500.02, -187500.02, 4576.94, -187500.02, -187500.02, 187500.00, -0.00, -0.00, -0.00
78, 0.00, 30588.96, -187500.02, -187500.02, 4342.03, -187500.02, -187500.02, 187500.00, -0.00, -0.00, -0.00
79, 0.00, 35384.73, -187500.02, -187500.02, 4353.27, -187500.02, -187500.02, 187500.00, -0.00, -0.00, -0.00
80, 0.00, 36210.68, -187500.02, -187500.02, 4755.09, -187500.02, -187500.02, 187500.00, -0.00, -0.00, -0.00
81, 0.00, 31493.00, -187500.02, -187500.02, 4959.18, -187500.02, -187500.02, 187500.00, -0.00, -0.00, -0.00
82, 0.00, 30359.57, -187500.02, -187500.02, 4752.00, -187500.02, -187500.02, 187500.00, -0.00, -0.00, -0.00
83, 0.00, 34870.51, -187500.02, -187500.02, 4700.84, -187500.02, -187500.02, 187500.00, -0.00, -0.00, -0.00
84, 0.00, 36964.51, -187500.02, -187500.02, 5070.58, -187500.02, -187500.02, 187500.00, -0.00, -0.00, -0.00
85, 0.00, 32657.10, -187500.02, -187500.02, 5365.07, -187500.02, -187500.02, 187500.00, -0.00, -0.00, -0.00
86, 0.00, 30354.43, -187500.02, -187500.02, 5216.38, -187500.02, -187500.02, 187500.00, -0.00, -0.00, -0.00
87, 0.00, 34310.11, -187500.02, -187500.02, 5119.26, -187500.02, -187500.02, 187500.00, -0.00, -0.00, -0.00
88, 0.00, 37487.14, -187500.02, -187500.02, 5405.57, -187500.02, -187500.02, 187500.00, -0.00, -0.00, -0.00
89, 0.00, 33911.39, -187500.02, -187500.02, 5752.40, -187500.02, -187500.02, 187500.00, -0.00, -0.00, -0.00
90, 0.00, 30584.54, -187500.02, -187500.02, 5649.13, -187500.02, -187500.02, 187500.00, -0.00, -0.00, -0.00
91, 0.00, 33675.94, -187500.02, -187500.02, 5473.03, -187500.02, -187500.02, 187500.00, -0.00, -0.00, -0.00
92, 0.00, 37722.88, -187500.02, -187500.02, 5717.08, -187500.02, -187500.02, 187500.00, -0.00, -0.00, -0.00
93, 0.00, 35160.88, -187500.02, -187500.02, 6112.55, -187500.02, -187500.02, 187500.00, -0.00, -0.00, -0.00
94, 0.00, 31087.99, -187500.02, -187500.02, 6120.15, -187500.02, -187500.02, 187500.00, -0.00, -0.00, -0.00
95, 0.00, 33122.51, -187500.02, -187500.02, 5890.02, -187500.02, -187500.02, 187500.00, -0.00, -0.00, -0.00
96, 0.00, 37701.18, -187500.02, -187500.02, 6023.17, -187500.02, -187500.02, 187500.00, -0.00, -0.00, -0.00
97, 0.00, 36356.83, -187500.02, -187500.02, 6428.79, -187500.02, -187500.02, 187500.00, -0.00, -0.00, -0.00
98, 0.00, 31789.59, -187500.02, -187500.02, 6533.95, -187500.02, -187500.02, 187500.00, -0.00, -0.00, -0.00
99, 0.00, 32676.51, -187500.02, -187500.02, 6318.26, -187500.02, -187500.02, 187500.00, -0.00, -0.00, -0.00
100, 0.00, 37493.69, -187500.02, -187500.02, 6379.32, -187500.02, -187500.02, 187500.00, -0.00, -0.00, -0.00
101, 0.00, 37491.41, -187500.02, -187500.02, 6800.85, -187500.02, -187500.02, 187500.00, -0.00, -0.00, -0.00
102, 0.00, 32722.71, -187500.02, -187500.02, 6985.77, -187500.02, -187500.02, 187500.00, -0.00, -0.00, -0.00
103, 0.00, 32364.03, -187500.02, -187500.02, 6782.59, -187500.02, -187500.02, 187500.00, -0.00, -0.00, -0.00
104, 0.00, 37085.86, -187500.02, -187500.02, 6761.51, -187500.02, -187500.02, 187500.00, -0.00, -0.00, -0.00
105, 0.00, 38390.48, -187500.02, -187500.02, 7130.21, -187500.02, -187500.02, 187500.00, -0.00, -0.00, -0.00
106, 0.00, 33766.06, -187500.02, -187500.02, 7356.25, -187500.02, -187500.02, 187500.00, -0.00, -0.00, -0.00
107, 0.00, 32161.12, -187500.02, -187500.02, 7144.89, -187500.02, -187500.02, 187500.00, -0.00, -0.00, -0.00
108, 0.00, 36491.19, -187500.02, -187500.02, 7046.95, -187500.02, -187500.02, 187500.00, -0.00, -0.00, -0.00
109, 0.00, 39055.56, -187500.02, -187500.02, 7401.69, -187500.02, -187500.02, 187500.00, -0.00, -0.00, -0.00
110, 0.00, 35010.23, -187500.02, -187500.02, 7743.11, -187500.02, -187500.02, 187500.00, -0.00, -0.00, -0.00
111, 0.00, 32302.56, -187500.02, -187500.02, 7590.85, -187500.02, -187500.02, 187500.00, -0.00, -0.00, -0.00
112, 0.00, 35962.82, -187500.02, -187500.02, 7446.06, -187500.02, -187500.02, 187500.00, -0.00, -0.00, -0.00
113, 0.00, 39515.96, -187500.02, -187500.02, 7702.92, -187500.02, -187500.02, 187500.00, -0.00, -0.00, -0.00
114, 0.00, 36291.54, -187500.02, -187500.02, 8049.98, -187500.02, -187500.02, 187500.00, -0.00, -0.00, -0.00
115, 0.00, 32664.48, -187500.02, -187500.02, 7981.56, -187500.02, -187500.02, 187500.00, -0.00, -0.00, -0.00
116, 0.00, 35401.30, -187500.02, -187500.02, 7803.89, -187500.02, -187500.02, 187500.00, -0.00, -0.00, -0.00
117, 0.00, 39699.07, -187500.02, -187500.02, 8016.18, -187500.02, -187500.02, 187500.00, -0.00, -0.00, -0.00
118, 0.00, 37571.07, -187500.02, -187500.02, 8384.61, -187500.02, -187500.02, 187500.00, -0.00, -0.00, -0.00
119, 0.00, 33272.94, -187500.02, -187500.02, 8404.05, -187500.02, -187500.02, 187500.00, -0.00, -0.00, -0.00
120, 0.00, 34874.82, -187500.02, -187500.02, 8181.34, -187500.02, -187500.02, 187500.00, -0.00, -0.00, -0.00
121, 0.00, 39567.77, -187500.02, -187500.02, 8318.18, -187500.02, -187500.02, 187500.00, -0.00, -0.00, -0.00
122, 0.00, 38706.76, -187500.02, -187500.02, 8717.76, -187500.02, -187500.02, 187500.00, -0.00, -0.00, -0.00
123, 0.00, 33990.79, -187500.02, -187500.02, 8791.50, -187500.02, -187500.02, 187500.00, -0.00, -0.00, -0.00
124, 0.00, 34378.25, -187500.02, -187500.02, 8555.73, -187500.02, -187500.02, 187500.00, -0.00, -0.00, -0.00
125, 0.00, 39142.04, -187500.02, -187500.02, 8578.35, -187500.02, -187500.02, 187500.00, -0.00, -0.00, -0.00
126, 0.00, 39612.05, -187500.02, -187500.02, 8966.31, -187500.02, -187500.02, 187500.00, -0.00, -0.00, -0.00
127, 0.00, 34855.18, -187500.02, -187500.02, 9131.27, -187500.02, -187500.02, 187500.00, -0.00, -0.00, -0.00
128, 0.00, 34005.41, -187500.02, -187500.02, 8912.06, -187500.02, -187500.02, 187500.00, -0.00, -0.00, -0.00
129, 0.00, 38528.93, -187500.02, -187500.02, 8840.18, -187500.02, -187500.02, 187500.00, -0.00, -0.00, -0.00
130, 0.00, 40313.11, -187500.02, -187500.02, 9228.10, -187500.02, -187500.02, 187500.00, -0.00, -0.00, -0.00
131, 0.00, 35868.43, -187500.02, -187500.02, 9481.59, -187500.02, -187500.02, 187500.00, -0.00, -0.00, -0.00
132, 0.00, 33831.04, -187500.02, -187500.02, 9303.04, -187500.02, -187500.02, 187500.00, -0.00, -0.00, -0.00
133, 0.00, 37854.96, -187500.02, -187500.02, 9167.88, -187500.02, -187500.02, 187500.00, -0.00, -0.00, -0.00
134, 0.00, 40764.28, -187500.02, -187500.02, 9480.80, -187500.02, -187500.02, 187500.00, -0.00, -0.00, -0.00
135, 0.00, 36978.01, -187500.02, -187500.02, 9811.28, -187500.02, -187500.02, 187500.00, -0.00, -0.00, -0.00
136, 0.00, 33866.20, -187500.02, -187500.02, 9670.06, -187500.02, -187500.02, 187500.00, -0.00, -0.00, -0.00
137, 0.00, 37126.92, -187500.02, -187500.02, 9492.29, -187500.02, -187500.02, 187500.00, -0.00, -0.00, -0.00
138, 0.00, 40922.55, -187500.02, -187500.02, 9723.84, -187500.02, -187500.02, 187500.00, -0.00, -0.00, -0.00
139, 0.00, 38080.22, -187500.02, -187500.02, 10092.88, -187500.02, -187500.02, 187500.00, -0.00, -0.00, -0.00
140, 0.00, 34164.82, -187500.02, -187500.02, 10049.97, -187500.02, -187500.02, 187500.00, -0.00, -0.00, -0.00
141, 0.00, 36448.39, -187500.02, -187500.02, 9841.09, -187500.02, -187500.02, 187500.00, -0.00, -0.00, -0.00
142, 0.00, 40887.89, -187500.02, -187500.02, 10022.37, -187500.02, -187500.02, 187500.00, -0.00, -0.00, -0.00
143, 0.00, 39231.76, -187500.02, -187500.02, 10423.42, -187500.02, -187500.02, 187500.00, -0.00, -0.00, -0.00
144, 0.00, 34724.80, -187500.02, -187500.02, 10449.84, -187500.02, -187500.02, 187500.00, -0.00, -0.00, -0.00
145, 0.00, 35846.03, -187500.02, -187500.02, 10202.70, -187500.02, -187500.02, 187500.00, -0.00, -0.00, -0.00
146, 0.00, 40606.01, -187500.02, -187500.02, 10317.63, -187500.02, -187500.02, 187500.00, -0.00, -0.00, -0.00
147, 0.00, 40242.66, -187500.02, -187500.02, 10713.91, -187500.02, -187500.02, 187500.00, -0.00, -0.00, -0.00
148, 0.00, 35464.08, -187500.02, -187500.02, 10829.89, -187500.02, -187500.02, 187500.00, -0.00, -0.00, -0.00
149, 0.00, 35359.21, -187500.02, -187500.02, 10590.35, -187500.02, -187500.02, 187500.00, -0.00, -0.00, -0.00
150, 0.00, 40054.21, -187500.02, -187500.02, 10560.19, -187500.02, -187500.02, 187500.00, -0.00, -0.00, -0.00
151, 0.00, 40984.27, -187500.02, -187500.02, 10882.82, -187500.02, -187500.02, 187500.00, -0.00, -0.00, -0.00
152, 0.00, 36271.92, -187500.02, -187500.02, 11054.03, -187500.02, -187500.02, 187500.00, -0.00, -0.00, -0.00
153, 0.00, 34908.48, -187500.02, -187500.02, 10800.50, -187500.02, -187500.02, 187500.00, -0.00, -0.00, -0.00
154, 0.00, 39292.27, -187500.02, -187500.02, 10693.25, -187500.02, -187500.02, 187500.00, -0.00, -0.00, -0.00
155, 0.00, 41512.57, -187500.02, -187500.02, 11005.80, -187500.02, -187500.02, 187500.00, -0.00, -0.00, -0.00
156, 0.00, 37278.89, -187500.02, -187500.02, 11287.29, -187500.02, -187500.02, 187500.00, -0.00, -0.00, -0.00
157, 0.00, 34803.03, -187500.02, -187500.02, 11120.28, -187500.02, -187500.02, 187500.00, -0.00, -0.00, -0.00
158, 0.00, 38612.28, -187500.02, -187500.02, 10992.16, -187500.02, -187500.02, 187500.00, -0.00, -0.00, -0.00
159, 0.00, 41963.12, -187500.02, -187500.02, 11308.73, -187500.02, -187500.02, 187500.00, -0.00, -0.00, -0.00
160, 0.00, 38481.01, -187500.02, -187500.02, 11608.29, -187500.02, -187500.02, 187500.00, -0.00, -0.00, -0.00
161, 0.00, 35031.80, -187500.02, -187500.02, 11507.82, -187500.02, -187500.02, 187500.00, -0.00, -0.00, -0.00
162, 0.00, 37983.37, -187500.02, -187500.02, 11327.60, -187500.02, -187500.02, 187500.00, -0.00, -0.00, -0.00
163, 0.00, 42101.99, -187500.02, -187500.02, 11523.78, -187500.02, -187500.02, 187500.00, -0.00, -0.00, -0.00
164, 0.00, 39704.92, -187500.02, -187500.02, 11898.82, -187500.02, -187500.02, 187500.00, -0.00, -0.00, -0.00
165, 0.00, 35526.20, -187500.02, -187500.02, 11895.84, -187500.02, -187500.02, 187500.00, -0.00, -0.00, -0.00
166, 0.00, 37392.61, -187500.02, -187500.02, 11671.16, -187500.02, -187500.02, 187500.00, -0.00, -0.00, -0.00
167, 0.00, 42033.48, -187500.02, -187500.02, 11813.99, -187500.02, -187500.02, 187500.00, -0.00, -0.00, -0.00
168, 0.00, 40883.15, -187500.02, -187500.02, 12211.79, -187500.02, -187500.02, 187500.00, -0.00, -0.00, -0.00
169, 0.00, 36221.49, -187500.02, -187500.02, 12273.70, -187500.02, -187500.02, 187500.00, -0.00, -0.00, -0.00
170, 0.00, 36854.16, -187500.02, -187500.02, 11994.24, -187500.02, -187500.02, 187500.00, -0.00, -0.00, -0.00
171, 0.00, 41636.74, -187500.02, -187500.02, 12021.42, -187500.02, -187500.02, 187500.00, -0.00, -0.00, -0.00
172, 0.00, 41773.06, -187500.02, -187500.02, 12365.59, -187500.02, -187500.02, 187500.00, -0.00, -0.00, -0.00
173, 0.00, 36950.38, -187500.02, -187500.02, 12478.33, -187500.02, -187500.02, 187500.00, -0.00, -0.00, -0.00
174, 0.00, 36341.57, -187500.02, -187500.02, 12211.79, -187500.02, -187500.02, 187500.00, -0.00, -0.00, -0.00
175, 0.00, 40977.74, -187500.02, -187500.02, 12163.89, -187500.02, -187500.02, 187500.00, -0.00, -0.00, -0.00
176, 0.00, 42440.78, -187500.02, -187500.02, 12506.34, -187500.02, -187500.02, 187500.00, -0.00, -0.00, -0.00
177, 0.00, 37877.42, -187500.02, -187500.02, 12738.73, -187500.02, -187500.02, 187500.00, -0.00, -0.00, -0.00
178, 0.00, 36070.77, -187500.02, -187500.02, 12534.72, -187500.02, -187500.02, 187500.00, -0.00, -0.00, -0.00
179, 0.00, 40257.82, -187500.02, -187500.02, 12419.28, -187500.02, -187500.02, 187500.00, -0.00, -0.00, -0.00
180, 0.00, 42928.18, -187500.02, -187500.02, 12724.42, -187500.02, -187500.02, 187500.00, -0.00, -0.00, -0.00
181, 0.00, 38928.36, -187500.02, -187500.02, 13006.73, -187500.02, -187500.02, 187500.00, -0.00, -0.00, -0.00
182, 0.00, 36023.14, -187500.02, -187500.02, 12835.56, -187500.02, -187500.02, 187500.00, -0.00, -0.00, -0.00
183, 0.00, 39519.07, -187500.02, -187500.02, 12681.80, -187500.02, -187500.02, 187500.00, -0.00, -0.00, -0.00
184, 0.00, 43174.20, -187500.02, -187500.02, 12934.80, -187500.02, -187500.02, 187500.00, -0.00, -0.00, -0.00
185, 0.00, 40097.55, -187500.02, -187500.02, 13299.38, -187500.02, -187500.02, 187500.00, -0.00, -0.00, -0.00
186, 0.00, 36303.84, -187500.02, -187500.02, 13215.45, -187500.02, -187500.02, 187500.00, -0.00, -0.00, -0.00
187, 0.00, 38819.75, -187500.02, -187500.02, 12990.48, -187500.02, -187500.02, 187500.00, -0.00, -0.00, -0.00
188, 0.00, 43151.89, -187500.02, -187500.02, 13156.59, -187500.02, -187500.02, 187500.00, -0.00, -0.00, -0.00
189, 0.00, 41214.34, -187500.02, -187500.02, 13557.81, -187500.02, -187500.02, 187500.00, -0.00, -0.00, -0.00
190, 0.00, 36777.98, -187500.02, -187500.02, 13557.65, -187500.02, -187500.02, 187500.00, -0.00, -0.00, -0.00
191, 0.00, 38162.81, -187500.02, -187500.02, 13312.34, -187500.02, -187500.02, 187500.00, -0.00, -0.00, -0.00
192, 0.00, 42884.30, -187500.02, -187500.02, 13418.76, -187500.02, -187500.02, 187500.00, -0.00, -0.00, -0.00
193, 0.00, 42230.20, -187500.02, -187500.02, 13832.78, -187500.02, -187500.02, 187500.00, -0.00, -0.00, -0.00
194, 0.00, 37413.53, -187500.02, -187500.02, 13886.83, -187500.02, -187500.02, 187500.00, -0.00, -0.00, -0.00
195, 0.00, 37516.30, -187500.02, -187500.02, 13566.37, -187500.02, -187500.02, 187500.00, -0.00, -0.00, -0.00
196, 0.00, 42263.82, -187500.02, -187500.02, 13546.54, -187500.02, -187500.02, 187500.00, -0.00, -0.00, -0.00
197, 0.00, 42926.43, -187500.02, -187500.02, 13914.70, -187500.02, -187500.02, 187500.00, -0.00, -0.00, -0.00
198, 0.00, 38102.32, -187500.02, -187500.02, 14037.19, -187500.02, -187500.02, 187500.00, -0.00, -0.00, -0.00
199, 0.00, 36986.95, -187500.02, -187500.02, 13759.80, -187500.02, -187500.02, 187500.00, -0.00, -0.00, -0.00
200, 0.00, 41436.49, -187500.02, -187500.02, 13628.48, -187500.02, -187500.02, 187500.00, -0.00, -0.00, -0.00
201, 0.00, 43372.17, -187500.02, -187500.02, 13955.42, -187500.02, -187500.02, 187500.00, -0.00, -0.00, -0.00
202, 0.00, 38988.37, -187500.02, -187500.02, 14235.24, -187500.02, -187500.02, 187500.00, -0.00, -0.00, -0.00
203, 0.00, 36717.95, -187500.02, -187500.02, 14028.04, -187500.02, -187500.02, 187500.00, -0.00, -0.00, -0.00
204, 0.00, 40653.82, -187500.02, -187500.02, 13873.68, -187500.02, -187500.02, 187500.00, -0.00, -0.00, -0.00
205, 0.00, 43738.32, -187500.02, -187500.02, 14167.79, -187500.02, -187500.02, 187500.00, -0.00, -0.00, -0.00
206, 0.00, 40041.50, -187500.02, -187500.02, 14486.46, -187500.02, -187500.02, 187500.00, -0.00, -0.00, -0.00
207, 0.00, 36771.03, -187500.02, -187500.02, 14360.75, -187500.02, -187500.02, 187500.00, -0.00, -0.00, -0.00
208, 0.00, 39903.63, -187500.02, -187500.02, 14156.32, -187500.02, -187500.02, 187500.00, -0.00, -0.00, -0.00
209, 0.00, 43855.64, -187500.02, -187500.02, 14366.94, -187500.02, -187500.02, 187500.00, -0.00, -0.00, -0.00
210, 0.00, 41152.24, -187500.02, -187500.02, 14714.49, -187500.02, -187500.02, 187500.00, -0.00, -0.00, -0.00
211, 0.00, 37072.85, -187500.02, -187500.02, 14668.64, -187500.02, -187500.02, 187500.00, -0.00, -0.00, -0.00
212, 0.00, 39200.11, -187500.02, -187500.02, 14445.82, -187500.02, -187500.02, 187500.00, -0.00, -0.00, -0.00
213, 0.00, 43733.78, -187500.02, -187500.02, 14581.56, -187500.02, -187500.02, 187500.00, -0.00, -0.00, -0.00
214, 0.00, 42255.48, -187500.02, -187500.02, 14952.15, -187500.02, -187500.02, 187500.00, -0.00, -0.00, -0.00
215, 0.00, 37643.55, -187500.02, -187500.02, 14979.89, -187500.02, -187500.02, 187500.00, -0.00, -0.00, -0.00
216, 0.00, 38575.27, -187500.02, -187500.02, 14723.67, -187500.02, -187500.02, 187500.00, -0.00, -0.00, -0.00
217, 0.00, 43347.45, -187500.02, -187500.02, 14746.92, -187500.02, -187500.02, 187500.00, -0.00, -0.00, -0.00
218, 0.00, 43150.78, -187500.02, -187500.02, 15061.32, -187500.02, -187500.02, 187500.00, -0.00, -0.00, -0.00
219, 0.00, 38317.04, -187500.02, -187500.02, 15158.46, -187500.02, -187500.02, 187500.00, -0.00, -0.00, -0.00
220, 0.00, 37982.00, -187500.02, -187500.02, 14878.73, -187500.02, -187500.02, 187500.00, -0.00, -0.00, -0.00
221, 0.00, 42663.51, -187500.02, -187500.02, 14802.98, -187500.02, -187500.02, 187500.00, -0.00, -0.00, -0.00
222, 0.00, 43830.45, -187500.02, -187500.02, 15140.24, -187500.02, -187500.02, 187500.00, -0.00, -0.00, -0.00
223, 0.00, 39144.30, -187500.02, -187500.02, 15332.78, -187500.02, -187500.02, 187500.00, -0.00, -0.00, -0.00
224, 0.00, 37612.42, -187500.02, -187500.02, 15116.24, -187500.02, -187500.02, 187500.00, -0.00, -0.00, -0.00
225, 0.00, 41966.88, -187500.02, -187500.02, 15034.59, -187500.02, -187500.02, 187500.00, -0.00, -0.00, -0.00
226, 0.00, 44373.42, -187500.02, -187500.02, 15340.94, -187500.02, -187500.02, 187500.00, -0.00, -0.00, -0.00
227, 0.00, 40187.61, -187500.02, -187500.02, 15608.74, -187500.02, -187500.02, 187500.00, -0.00, -0.00, -0.00
228, 0.00, 37520.17, -187500.02, -187500.02, 15437.21, -187500.02, -187500.02, 187500.00, -0.00, -0.00, -0.00
229, 0.00, 41161.59, -187500.02, -187500.02, 15227.10, -187500.02, -187500.02, 187500.00, -0.00, -0.00, -0.00
230, 0.00, 44624.21, -187500.02, -187500.02, 15484.24, -187500.02, -187500.02, 187500.00, -0.00, -0.00, -0.00
231, 0.00, 41273.63, -187500.02, -187500.02, 15813.86, -187500.02, -187500.02, 187500.00, -0.00, -0.00, -0.00
232, 0.00, 37646.91, -187500.02, -187500.02, 15688.60, -187500.02, -187500.02, 187500.00, -0.00, -0.00, -0.00
233, 0.00, 40429.59, -187500.02, -187500.02, 15465.39, -187500.02, -187500.02, 187500.00, -0.00, -0.00, -0.00
234, 0.00, 44652.26, -187500.02, -187500.02, 15638.17, -187500.02, -187500.02, 187500.00, -0.00, -0.00, -0.00
235, 0.00, 42394.17, -187500.02, -187500.02, 15998.06, -187500.02, -187500.02, 187500.00, -0.00, -0.00, -0.00
236, 0.00, 38112.70, -187500.02, -187500.02, 16009.19, -187500.02, -187500.02, 187500.00, -0.00, -0.00, -0.00
237, 0.00, 39812.23, -187500.02, -187500.02, 15773.27, -187500.02, -187500.02, 187500.00, -0.00, -0.00, -0.00
238, 0.00, 44476.24, -187500.02, -187500.02, 15861.38, -187500.02, -187500.02, 187500.00, -0.00, -0.00, -0.00
239, 0.00, 43498.73, -187500.02, -187500.02, 16239.19, -187500.02, -187500.02, 187500.00, -0.00, -0.00, -0.00
240, 0.00, 38781.82, -187500.02, -187500.02, 16316.53, -187500.02, -187500.02, 187500.00, -0.00, -0.00, -0.00
241, 0.00, 39223.49, -187500.02, -187500.02, 16029.62, -187500.02, -187500.02, 187500.00, -0.00, -0.00, -0.00
242, 0.00, 44000.55, -187500.02, -187500.02, 16009.59, -187500.02, -187500.02, 187500.00, -0.00, -0.00, -0.00
243, 0.00, 44355.56, -187500.02, -187500.02, 16361.70, -187500.02, -187500.02, 187500.00, -0.00, -0.00, -0.00
244, 0.00, 39519.27, -187500.02, -187500.02, 16474.73, -187500.02, -187500.02, 187500.00, -0.00, -0.00, -0.00
245, 0.00, 38723.61, -187500.02, -187500.02, 16203.99, -187500.02, -187500.02, 187500.00, -0.00, -0.00, -0.00
246, 0.00, 43331.65, -187500.02, -187500.02, 16113.64, -187500.02, -187500.02, 187500.00, -0.00, -0.00, -0.00
247, 0.00, 44989.28, -187500.02, -187500.02, 16435.33, -187500.02, -187500.02, 187500.00, -0.00, -0.00, -0.00
248, 0.00, 40434.19, -187500.02, -187500.02, 16637.16, -187500.02, -187500.02, 187500.00, -0.00, -0.00, -0.00
249, 0.00, 38451.39, -187500.02, -187500.02, 16434.30, -187500.02, -187500.02, 187500.00, -0.00, -0.00, -0.00
250, 0.00, 42558.86, -187500.02, -187500.02, 16292.10, -187500.02, -187500.02, 187500.00, -0.00, -0.00, -0.00
251, 0.00, 45377.88, -187500.02, -187500.02, 16572.10, -187500.02, -187500.02, 187500.00, -0.00, -0.00, -0.00
252, 0.00, 41472.45, -187500.02, -187500.02, 16873.58, -187500.02, -187500.02, 187500.00, -0.00, -0.00, -0.00
253, 0.00, 38392.03, -187500.02, -187500.02, 16707.28, -187500.02, -187500.02, 187500.00, -0.00, -0.00, -0.00
254, 0.00, 41752.83, -187500.02, -187500.02, 16525.45, -187500.02, -187500.02, 187500.00, -0.00, -0.00, -0.00
255, 0.00, 45506.65, -187500.02, -187500.02, 16736.34, -187500.02, -187500.02, 187500.00, -0.00, -0.00, -0.00
0, 0.00, 42553.83, -187500.02, -187500.02, 17080.26, -187500.02, -187500.02, 187500.00, -0.00, -0.00, -0.00
1, 0.00, 38652.71, -187500.02, -187500.02, 17028.63, -187500.02, -187500.02, 187500.00, -0.00, -0.00, -0.00
2, 0.00, 40960.26, -187500.02, -187500.02, 16768.66, -187500.02, -187500.02, 187500.00, -0.00, -0.00, -0.00
3, 0.00, 45308.39, -187500.02, -187500.02, 16931.92, -187500.02, -187500.02, 187500.00, -0.00, -0.00, -0.00
4, 0.00, 43559.77, -187500.02, -187500.02, 17324.57, -187500.02, -187500.02, 187500.00, -0.00, -0.00, -0.00
5, 0.00, 39140.05, -187500.02, -187500.02, 17300.43, -187500.02, -187500.02, 187500.00, -0.00, -0.00, -0.00
6, 0.00, 40313.56, -187500.02, -187500.02, 17006.37, -187500.02, -187500.02, 187500.00, -0.00, -0.00, -0.00
7, 0.00, 45014.71, -187500.02, -187500.02, 17062.83, -187500.02, -187500.02, 187500.00, -0.00, -0.00, -0.00
8, 0.00, 44519.76, -187500.02, -187500.02, 17402.42, -187500.02, -187500.02, 187500.00, -0.00, -0.00, -0.00
9, 0.00, 39698.95, -187500.02, -187500.02, 17457.56, -187500.02, -187500.02, 187500.00, -0.00, -0.00, -0.00
10, 0.00, 39663.66, -187500.02, -187500.02, 17156.62, -187500.02, -187500.02, 187500.00, -0.00, -0.00, -0.00
11, 0.00, 44419.35, -187500.02, -187500.02, 17127.43, -187500.02, -187500.02, 187500.00, -0.00, -0.00, -0.00
12, 0.00, 45253.61, -187500.02, -187500.02, 17454.12, -187500.02, -187500.02, 187500.00, -0.00, -0.00, -0.00
13, 0.00, 40507.51, -187500.02, -187500.02, 17621.11, -187500.02, -187500.02, 187500.00, -0.00, -0.00, -0.00
14, 0.00, 39280.08, -187500.02, -187500.02, 17401.93, -187500.02, -187500.02, 187500.00, -0.00, -0.00, -0.00
15, 0.00, 43706.18, -187500.02, -187500.02, 17278.05, -187500.02, -187500.02, 187500.00, -0.00, -0.00, -0.00
16, 0.00, 45831.51, -187500.02, -187500.02, 17585.79, -187500.02, -187500.02, 187500.00, -0.00, -0.00, -0.00
17, 0.00, 41499.72, -187500.02, -187500.02, 17831.91, -187500.02, -187500.02, 187500.00, -0.00, -0.00, -0.00
18, 0.00, 39107.48, -187500.02, -187500.02, 17647.33, -187500.02, -187500.02, 187500.00, -0.00, -0.00, -0.00
19, 0.00, 42964.95, -187500.02, -187500.02, 17489.21, -187500.02, -187500.02, 187500.00, -0.00, -0.00, -0.00
20, 0.00, 46174.07, -187500.02, -187500.02, 17742.34, -187500.02, -187500.02, 187500.00, -0.00, -0.00, -0.00
21, 0.00, 42607.81, -187500.02, -187500.02, 18069.37, -187500.02, -187500.02, 187500.00, -0.00, -0.00, -0.00
22, 0.00, 39197.34, -187500.02, -187500.02, 17933.81, -187500.02, -187500.02, 187500.00, -0.00, -0.00, -0.00
23, 0.00, 42193.14, -187500.02, -187500.02, 17715.43, -187500.02, -187500.02, 187500.00, -0.00, -0.00, -0.00
24, 0.00, 46221.15, -187500.02, -187500.02, 17887.72, -187500.02, -187500.02, 187500.00, -0.00, -0.00, -0.00
25, 0.00, 43684.38, -187500.02, -187500.02, 18242.98, -187500.02, -187500.02, 187500.00, -0.00, -0.00, -0.00
26, 0.00, 39505.95, -187500.02, -187500.02, 18187.41, -187500.02, -187500.02, 187500.00, -0.00, -0.00, -0.00
27, 0.00, 41434.50, -187500.02, -187500.02, 17910.59, -187500.02, -187500.02, 187500.00, -0.00, -0.00, -0.00
28, 0.00, 46011.51, -187500.02, -187500.02, 18017.58, -187500.02, -187500.02, 187500.00, -0.00, -0.00, -0.00
29, 0.00, 44727.43, -187500.02, -187500.02, 18404.34, -187500.02, -187500.02, 187500.00, -0.00, -0.00, -0.00
30, 0.00, 40084.68, -187500.02, -187500.02, 18452.79, -187500.02, -187500.02, 187500.00, -0.00, -0.00, -0.00
31, 0.00, 40837.48, -187500.02, -187500.02, 18179.84, -187500.02, -187500.02, 187500.00, -0.00, -0.00, -0.00
32, 0.00, 45594.50, -187500.02, -187500.02, 18158.89, -187500.02, -187500.02, 187500.00, -0.00, -0.00, -0.00
33, 0.00, 45607.75, -187500.02, -187500.02, 18485.07, -187500.02, -187500.02, 187500.00, -0.00, -0.00, -0.00
34, 0.00, 40790.70, -187500.02, -187500.02, 18607.96, -187500.02, -187500.02, 187500.00, -0.00, -0.00, -0.00
35, 0.00, 40286.76, -187500.02, -187500.02, 18335.09, -187500.02, -187500.02, 187500.00, -0.00, -0.00, -0.00
36, 0.00, 44914.44, -187500.02, -187500.02, 18226.37, -187500.02, -187500.02, 187500.00, -0.00, -0.00, -0.00
37, 0.00, 46249.69, -187500.02, -187500.02, 18553.82, -187500.02, -187500.02, 187500.00, -0.00, -0.00, -0.00
38, 0.00, 41679.77, -187500.02, -187500.02, 18752.91, -187500.02, -187500.02, 187500.00, -0.00, -0.00, -0.00
39, 0.00, 39996.39, -187500.02, -187500.02, 18514.20, -187500.02, -187500.02, 187500.00, -0.00, -0.00, -0.00
40, 0.00, 44147.89, -187500.02, -187500.02, 18379.15, -187500.02, -187500.02, 187500.00, -0.00, -0.00, -0.00
41, 0.00, 46612.64, -187500.02, -187500.02, 18683.96, -187500.02, -187500.02, 187500.00, -0.00, -0.00, -0.00
42, 0.00, 42596.59, -187500.02, -187500.02, 18976.70, -187500.02, -187500.02, 187500.00, -0.00, -0.00, -0.00
43, 0.00, 39827.88, -187500.02, -187500.02, 18806.29, -187500.02, -187500.02, 187500.00, -0.00, -0.00, -0.00
44, 0.00, 43365.27, -187500.02, -187500.02, 18623.16, -187500.02, -187500.02, 187500.00, -0.00, -0.00, -0.00
45, 0.00, 46908.96, -187500.02, -187500.02, 18843.91, -187500.02, -187500.02, 187500.00, -0.00, -0.00, -0.00
46, 0.00, 43675.73, -187500.02, -187500.02, 19170.24, -187500.02, -187500.02, 187500.00, -0.00, -0.00, -0.00
47, 0.00, 39948.69, -187500.02, -187500.02, 19073.93, -187500.02, -187500.02, 187500.00, -0.00, -0.00, -0.00
48, 0.00, 42550.41, -187500.02, -187500.02, 18824.28, -187500.02, -187500.02, 187500.00, -0.00, -0.00, -0.00
