%OpenBCI Raw EEG Data
%
%Sample Rate = 250.0 Hz
%First Column = SampleIndex
%Other Columns = EEG data in microvolts followed by Accel Data (in G) interleaved with Aux Data
0, 131661.52, -187500.02, -187500.02, -187500.02, 152182.55, -187500.02, -187500.02, -187500.02, 0.00, 0.00, 0.00
1, 130765.21, -187500.02, -187500.02, -187500.02, 151318.05, -187500.02, -187500.02, -187500.02, 0.00, 0.00, 0.00
2, 135051.84, -187500.02, -187500.02, -187500.02, 155565.88, -187500.02, -187500.02, -187500.02, 0.00, 0.00, 0.00
3, 136561.78, -187500.02, -187500.02, -187500.02, 157047.70, -187500.02, -187500.02, -187500.02, 0.00, 0.00, 0.00
4, 132361.28, -187500.02, -187500.02, -187500.02, 152885.09, -187500.02, -187500.02, -187500.02, 0.00, 0.00, 0.00
5, 130361.07, -187500.02, -187500.02, -187500.02, 150928.89, -187500.02, -187500.02, -187500.02, 0.00, 0.00, 0.00
6, 134144.64, -187500.02, -187500.02, -187500.02, 154693.38, -187500.02, -187500.02, -187500.02, 0.00, 0.00, 0.00
7, 136707.38, -187500.02, -187500.02, -187500.02, 157221.61, -187500.02, -187500.02, -187500.02, 0.00, 0.00, 0.00
8, 133139.72, -187500.02, -187500.02, -187500.02, 153662.84, -187500.02, -187500.02, -187500.02, 0.00, 0.00, 0.00
9, 130157.22, -187500.02, -187500.02, -187500.02, 150713.45, -187500.02, -187500.02, -187500.02, 0.00, 0.00, 0.00
10, 133197.53, -187500.02, -187500.02, -187500.02, 153743.63, -187500.02, -187500.02, -187500.02, 0.00, 0.00, 0.00
11, 136635.20, -187500.02, -187500.02, -187500.02, 157150.44, -187500.02, -187500.02, -187500.02, 0.00, 0.00, 0.00
12, 133903.47, -187500.02, -187500.02, -187500.02, 154435.03, -187500.02, -187500.02, -187500.02, 0.00, 0.00, 0.00
13, 130146.07, -187500.02, -187500.02, -187500.02, 150733.08, -187500.02, -187500.02, -187500.02, 0.00, 0.00, 0.00
14, 132259.42, -187500.02, -187500.02, -187500.02, 152847.59, -187500.02, -187500.02, -187500.02, 0.00, 0.00, 0.00
15, 136309.83, -187500.02, -187500.02, -187500.02, 156848.47, -187500.02, -187500.02, -187500.02, 0.00, 0.00, 0.00
16, 134616.22, -187500.02, -187500.02, -187500.02, 155146.45, -187500.02, -187500.02, -187500.02, 0.00, 0.00, 0.00
17, 130323.43, -187500.02, -187500.02, -187500.02, 150897.47, -187500.02, -187500.02, -187500.02, 0.00, 0.00, 0.00
18, 131350.56, -187500.02, -187500.02, -187500.02, 151931.73, -187500.02, -187500.02, -187500.02, 0.00, 0.00, 0.00
19, 135746.67, -187500.02, -187500.02, -187500.02, 156291.08, -187500.02, -187500.02, -187500.02, 0.00, 0.00, 0.00
20, 135236.91, -187500.02, -187500.02, -187500.02, 155766.55, -187500.02, -187500.02, -187500.02, 0.00, 0.00, 0.00
21, 130750.37, -187500.02, -187500.02, -187500.02, 151317.22, -187500.02, -187500.02, -187500.02, 0.00, 0.00, 0.00
22, 130634.52, -187500.02, -187500.02, -187500.02, 151225.92, -187500.02, -187500.02, -187500.02, 0.00, 0.00, 0.00
23, 135021.25, -187500.02, -187500.02, -187500.02, 155580.27, -187500.02, -187500.02, -187500.02, 0.00, 0.00, 0.00
24, 135742.78, -187500.02, -187500.02, -187500.02, 156271.70, -187500.02, -187500.02, -187500.02, 0.00, 0.00, 0.00
25, 131334.08, -187500.02, -187500.02, -187500.02, 151898.97, -187500.02, -187500.02, -187500.02, 0.00, 0.00, 0.00
26, 130062.38, -187500.02, -187500.02, -187500.02, 150667.81, -187500.02, -187500.02, -187500.02, 0.00, 0.00, 0.00
27, 134193.95, -187500.02, -187500.02, -187500.02, 154779.19, -187500.02, -187500.02, -187500.02, 0.00, 0.00, 0.00
28, 136091.88, -187500.02, -187500.02, -187500.02, 156642.39, -187500.02, -187500.02, -187500.02, 0.00, 0.00, 0.00
29, 132091.72, -187500.02, -187500.02, -187500.02, 152666.56, -187500.02, -187500.02, -187500.02, 0.00, 0.00, 0.00
30, 129747.13, -187500.02, -187500.02, -187500.02, 150361.36, -187500.02, -187500.02, -187500.02, 0.00, 0.00, 0.00
31, 133352.20, -187500.02, -187500.02, -187500.02, 153953.41, -187500.02, -187500.02, -187500.02, 0.00, 0.00, 0.00
32, 136245.88, -187500.02, -187500.02, -187500.02, 156809.08, -187500.02, -187500.02, -187500.02, 0.00, 0.00, 0.00
33, 132931.34, -187500.02, -187500.02, -187500.02, 153494.86, -187500.02, -187500.02, -187500.02, 0.00, 0.00, 0.00
34, 129667.12, -187500.02, -187500.02, -187500.02, 150268.52, -187500.02, -187500.02, -187500.02, 0.00, 0.00, 0.00
35, 132504.22, -187500.02, -187500.02, -187500.02, 153111.67, -187500.02, -187500.02, -187500.02, 0.00, 0.00, 0.00
36, 136180.33, -187500.02, -187500.02, -187500.02, 156756.98, -187500.02, -187500.02, -187500.02, 0.00, 0.00, 0.00
37, 133751.69, -187500.02, -187500.02, -187500.02, 154326.31, -187500.02, -187500.02, -187500.02, 0.00, 0.00, 0.00
38, 129798.77, -187500.02, -187500.02, -187500.02, 150406.58, -187500.02, -187500.02, -187500.02, 0.00, 0.00, 0.00
39, 131635.23, -187500.02, -187500.02, -187500.02, 152246.42, -187500.02, -187500.02, -187500.02, 0.00, 0.00, 0.00
40, 135851.47, -187500.02, -187500.02, -187500.02, 156434.16, -187500.02, -187500.02, -187500.02, 0.00, 0.00, 0.00
41, 134566.19, -187500.02, -187500.02, -187500.02, 155139.05, -187500.02, -187500.02, -187500.02, 0.00, 0.00, 0.00
42, 130201.39, -187500.02, -187500.02, -187500.02, 150820.89, -187500.02, -187500.02, -187500.02, 0.00, 0.00, 0.00
43, 130861.14, -187500.02, -187500.02, -187500.02, 151495.52, -187500.02, -187500.02, -187500.02, 0.00, 0.00, 0.00
44, 135310.42, -187500.02, -187500.02, -187500.02, 155896.89, -187500.02, -187500.02, -187500.02, 0.00, 0.00, 0.00
45, 135218.81, -187500.02, -187500.02, -187500.02, 155780.91, -187500.02, -187500.02, -187500.02, 0.00, 0.00, 0.00
46, 130670.93, -187500.02, -187500.02, -187500.02, 151280.47, -187500.02, -187500.02, -187500.02, 0.00, 0.00, 0.00
47, 130159.37, -187500.02, -187500.02, -187500.02, 150803.84, -187500.02, -187500.02, -187500.02, 0.00, 0.00, 0.00
48, 134471.84, -187500.02, -187500.02, -187500.02, 155085.86, -187500.02, -187500.02, -187500.02, 0.00, 0.00, 0.00
49, 135577.56, -187500.02, -187500.02, -187500.02, 156152.72, -187500.02, -187500.02, -187500.02, 0.00, 0.00, 0.00
50, 131223.72, -187500.02, -187500.02, -187500.02, 151819.08, -187500.02, -187500.02, -187500.02, 0.00, 0.00, 0.00
51, 129520.17, -187500.02, -187500.02, -187500.02, 150147.84, -187500.02, -187500.02, -187500.02, 0.00, 0.00, 0.00
52, 133429.88, -187500.02, -187500.02, -187500.02, 154044.00, -187500.02, -187500.02, -187500.02, 0.00, 0.00, 0.00
53, 135611.22, -187500.02, -187500.02, -187500.02, 156198.92, -187500.02, -187500.02, -187500.02, 0.00, 0.00, 0.00
54, 131710.64, -187500.02, -187500.02, -187500.02, 152322.42, -187500.02, -187500.02, -187500.02, 0.00, 0.00, 0.00
55, 128995.34, -187500.02, -187500.02, -187500.02, 149650.59, -187500.02, -187500.02, -187500.02, 0.00, 0.00, 0.00
56, 132278.00, -187500.02, -187500.02, -187500.02, 152916.86, -187500.02, -187500.02, -187500.02, 0.00, 0.00, 0.00
57, 135359.48, -187500.02, -187500.02, -187500.02, 155962.22, -187500.02, -187500.02, -187500.02, 0.00, 0.00, 0.00
58, 132216.59, -187500.02, -187500.02, -187500.02, 152837.73, -187500.02, -187500.02, -187500.02, 0.00, 0.00, 0.00
59, 128588.80, -187500.02, -187500.02, -187500.02, 149250.73, -187500.02, -187500.02, -187500.02, 0.00, 0.00, 0.00
60, 130969.82, -187500.02, -187500.02, -187500.02, 151618.22, -187500.02, -187500.02, -187500.02, 0.00, 0.00, 0.00
61, 134755.52, -187500.02, -187500.02, -187500.02, 155365.14, -187500.02, -187500.02, -187500.02, 0.00, 0.00, 0.00
62, 132556.25, -187500.02, -187500.02, -187500.02, 153178.48, -187500.02, -187500.02, -187500.02, 0.00, 0.00, 0.00
63, 128272.95, -187500.02, -187500.02, -187500.02, 148946.05, -187500.02, -187500.02, -187500.02, 0.00, 0.00, 0.00
64, 129596.70, -187500.02, -187500.02, -187500.02, 150267.53, -187500.02, -187500.02, -187500.02, 0.00, 0.00, 0.00
65, 133791.41, -187500.02, -187500.02, -187500.02, 154412.91, -187500.02, -187500.02, -187500.02, 0.00, 0.00, 0.00
66, 132730.11, -187500.02, -187500.02, -187500.02, 153338.17, -187500.02, -187500.02, -187500.02, 0.00, 0.00, 0.00
67, 128083.63, -187500.02, -187500.02, -187500.02, 148735.77, -187500.02, -187500.02, -187500.02, 0.00, 0.00, 0.00
68, 128231.06, -187500.02, -187500.02, -187500.02, 148900.86, -187500.02, -187500.02, -187500.02, 0.00, 0.00, 0.00
69, 132549.03, -187500.02, -187500.02, -187500.02, 153181.97, -187500.02, -187500.02, -187500.02, 0.00, 0.00, 0.00
70, 132722.11, -187500.02, -187500.02, -187500.02, 153332.63, -187500.02, -187500.02, -187500.02, 0.00, 0.00, 0.00
71, 128065.63, -187500.02, -187500.02, -187500.02, 148718.13, -187500.02, -187500.02, -187500.02, 0.00, 0.00, 0.00
72, 127039.48, -187500.02, -187500.02, -187500.02, 147717.17, -187500.02, -187500.02, -187500.02, 0.00, 0.00, 0.00
73, 131160.03, -187500.02, -187500.02, -187500.02, 151805.06, -187500.02, -187500.02, -187500.02, 0.00, 0.00, 0.00
74, 132510.95, -187500.02, -187500.02, -187500.02, 153134.39, -187500.02, -187500.02, -187500.02, 0.00, 0.00, 0.00
75, 128202.00, -187500.02, -187500.02, -187500.02, 148860.53, -187500.02, -187500.02, -187500.02, 0.00, 0.00, 0.00
76, 126065.09, -187500.02, -187500.02, -187500.02, 146765.69, -187500.02, -187500.02, -187500.02, 0.00, 0.00, 0.00
77, 129697.91, -187500.02, -187500.02, -187500.02, 150376.91, -187500.02, -187500.02, -187500.02, 0.00, 0.00, 0.00
78, 132165.84, -187500.02, -187500.02, -187500.02, 152803.30, -187500.02, -187500.02, -187500.02, 0.00, 0.00, 0.00
79, 128477.69, -187500.02, -187500.02, -187500.02, 149130.97, -187500.02, -187500.02, -187500.02, 0.00, 0.00, 0.00
80, 125391.13, -187500.02, -187500.02, -187500.02, 146091.44, -187500.02, -187500.02, -187500.02, 0.00, 0.00, 0.00
81, 128354.24, -187500.02, -187500.02, -187500.02, 149045.66, -187500.02, -187500.02, -187500.02, 0.00, 0.00, 0.00
82, 131707.78, -187500.02, -187500.02, -187500.02, 152351.66, -187500.02, -187500.02, -187500.02, 0.00, 0.00, 0.00
83, 128936.39, -187500.02, -187500.02, -187500.02, 149573.88, -187500.02, -187500.02, -187500.02, 0.00, 0.00, 0.00
84, 125153.56, -187500.02, -187500.02, -187500.02, 145828.05, -187500.02, -187500.02, -187500.02, 0.00, 0.00, 0.00
85, 127167.85, -187500.02, -187500.02, -187500.02, 147861.80, -187500.02, -187500.02, -187500.02, 0.00, 0.00, 0.00
86, 131181.17, -187500.02, -187500.02, -187500.02, 151841.52, -187500.02, -187500.02, -187500.02, 0.00, 0.00, 0.00
87, 129503.56, -187500.02, -187500.02, -187500.02, 150151.59, -187500.02, -187500.02, -187500.02, 0.00, 0.00, 0.00
88, 125216.37, -187500.02, -187500.02, -187500.02, 145913.88, -187500.02, -187500.02, -187500.02, 0.00, 0.00, 0.00
89, 126200.98, -187500.02, -187500.02, -187500.02, 146933.19, -187500.02, -187500.02, -187500.02, 0.00, 0.00, 0.00
90, 130523.70, -187500.02, -187500.02, -187500.02, 151224.61, -187500.02, -187500.02, -187500.02, 0.00, 0.00, 0.00
91, 130051.34, -187500.02, -187500.02, -187500.02, 150726.02, -187500.02, -187500.02, -187500.02, 0.00, 0.00, 0.00
92, 125553.16, -187500.02, -187500.02, -187500.02, 146263.66, -187500.02, -187500.02, -187500.02, 0.00, 0.00, 0.00
93, 125414.59, -187500.02, -187500.02, -187500.02, 146149.52, -187500.02, -187500.02, -187500.02, 0.00, 0.00, 0.00
94, 129822.15, -187500.02, -187500.02, -187500.02, 150529.36, -187500.02, -187500.02, -187500.02, 0.00, 0.00, 0.00
95, 130544.45, -187500.02, -187500.02, -187500.02, 151223.83, -187500.02, -187500.02, -187500.02, 0.00, 0.00, 0.00
96, 126136.23, -187500.02, -187500.02, -187500.02, 146861.59, -187500.02, -187500.02, -187500.02, 0.00, 0.00, 0.00
97, 124834.55, -187500.02, -187500.02, -187500.02, 145598.67, -187500.02, -187500.02, -187500.02, 0.00, 0.00, 0.00
98, 128954.52, -187500.02, -187500.02, -187500.02, 149692.27, -187500.02, -187500.02, -187500.02, 0.00, 0.00, 0.00
99, 130831.77, -187500.02, -187500.02, -187500.02, 151529.27, -187500.02, -187500.02, -187500.02, 0.00, 0.00, 0.00
100, 126811.14, -187500.02, -187500.02, -187500.02, 147529.20, -187500.02, -187500.02, -187500.02, 0.00, 0.00, 0.00
101, 124474.85, -187500.02, -187500.02, -187500.02, 145239.38, -187500.02, -187500.02, -187500.02, 0.00, 0.00, 0.00
102, 128018.45, -187500.02, -187500.02, -187500.02, 148783.89, -187500.02, -187500.02, -187500.02, 0.00, 0.00, 0.00
103, 130858.64, -187500.02, -187500.02, -187500.02, 151594.88, -187500.02, -187500.02, -187500.02, 0.00, 0.00, 0.00
104, 127513.34, -187500.02, -187500.02, -187500.02, 148260.17, -187500.02, -187500.02, -187500.02, 0.00, 0.00, 0.00
105, 124287.72, -187500.02, -187500.02, -187500.02, 145073.80, -187500.02, -187500.02, -187500.02, 0.00, 0.00, 0.00
106, 127052.50, -187500.02, -187500.02, -187500.02, 147839.50, -187500.02, -187500.02, -187500.02, 0.00, 0.00, 0.00
107, 130710.98, -187500.02, -187500.02, -187500.02, 151458.97, -187500.02, -187500.02, -187500.02, 0.00, 0.00, 0.00
108, 128367.13, -187500.02, -187500.02, -187500.02, 149115.98, -187500.02, -187500.02, -187500.02, 0.00, 0.00, 0.00
109, 124458.53, -187500.02, -187500.02, -187500.02, 145248.11, -187500.02, -187500.02, -187500.02, 0.00, 0.00, 0.00
110, 126235.43, -187500.02, -187500.02, -187500.02, 147032.09, -187500.02, -187500.02, -187500.02, 0.00, 0.00, 0.00
111, 130438.90, -187500.02, -187500.02, -187500.02, 151201.03, -187500.02, -187500.02, -187500.02, 0.00, 0.00, 0.00
112, 129206.02, -187500.02, -187500.02, -187500.02, 149955.20, -187500.02, -187500.02, -187500.02, 0.00, 0.00, 0.00
113, 124870.59, -187500.02, -187500.02, -187500.02, 145662.16, -187500.02, -187500.02, -187500.02, 0.00, 0.00, 0.00
114, 125534.86, -187500.02, -187500.02, -187500.02, 146353.19, -187500.02, -187500.02, -187500.02, 0.00, 0.00, 0.00
115, 129958.54, -187500.02, -187500.02, -187500.02, 150744.55, -187500.02, -187500.02, -187500.02, 0.00, 0.00, 0.00
116, 129896.33, -187500.02, -187500.02, -187500.02, 150654.34, -187500.02, -187500.02, -187500.02, 0.00, 0.00, 0.00
117, 125450.68, -187500.02, -187500.02, -187500.02, 146242.08, -187500.02, -187500.02, -187500.02, 0.00, 0.00, 0.00
118, 124949.17, -187500.02, -187500.02, -187500.02, 145779.81, -187500.02, -187500.02, -187500.02, 0.00, 0.00, 0.00
119, 129269.50, -187500.02, -187500.02, -187500.02, 150080.41, -187500.02, -187500.02, -187500.02, 0.00, 0.00, 0.00
120, 130435.14, -187500.02, -187500.02, -187500.02, 151204.73, -187500.02, -187500.02, -187500.02, 0.00, 0.00, 0.00
121, 126173.94, -187500.02, -187500.02, -187500.02, 146967.39, -187500.02, -187500.02, -187500.02, 0.00, 0.00, 0.00
122, 124548.52, -187500.02, -187500.02, -187500.02, 145381.06, -187500.02, -187500.02, -187500.02, 0.00, 0.00, 0.00
123, 128502.19, -187500.02, -187500.02, -187500.02, 149316.70, -187500.02, -187500.02, -187500.02, 0.00, 0.00, 0.00
124, 130763.71, -187500.02, -187500.02, -187500.02, 151538.14, -187500.02, -187500.02, -187500.02, 0.00, 0.00, 0.00
125, 126979.27, -187500.02, -187500.02, -187500.02, 147782.75, -187500.02, -187500.02, -187500.02, 0.00, 0.00, 0.00
126, 124316.15, -187500.02, -187500.02, -187500.02, 145164.47, -187500.02, -187500.02, -187500.02, 0.00, 0.00, 0.00
127, 127640.08, -187500.02, -187500.02, -187500.02, 148467.91, -187500.02, -187500.02, -187500.02, 0.00, 0.00, 0.00
128, 130777.28, -187500.02, -187500.02, -187500.02, 151556.72, -187500.02, -187500.02, -187500.02, 0.00, 0.00, 0.00
129, 127747.62, -187500.02, -187500.02, -187500.02, 148529.42, -187500.02, -187500.02, -187500.02, 0.00, 0.00, 0.00
130, 124196.08, -187500.02, -187500.02, -187500.02, 145017.28, -187500.02, -187500.02, -187500.02, 0.00, 0.00, 0.00
131, 126655.40, -187500.02, -187500.02, -187500.02, 147481.16, -187500.02, -187500.02, -187500.02, 0.00, 0.00, 0.00
132, 130497.99, -187500.02, -187500.02, -187500.02, 151293.30, -187500.02, -187500.02, -187500.02, 0.00, 0.00, 0.00
133, 128443.60, -187500.02, -187500.02, -187500.02, 149243.95, -187500.02, -187500.02, -187500.02, 0.00, 0.00, 0.00
134, 124338.64, -187500.02, -187500.02, -187500.02, 145174.86, -187500.02, -187500.02, -187500.02, 0.00, 0.00, 0.00
135, 125751.78, -187500.02, -187500.02, -187500.02, 146594.47, -187500.02, -187500.02, -187500.02, 0.00, 0.00, 0.00
136, 130021.73, -187500.02, -187500.02, -187500.02, 150820.77, -187500.02, -187500.02, -187500.02, 0.00, 0.00, 0.00
137, 129155.95, -187500.02, -187500.02, -187500.02, 149938.88, -187500.02, -187500.02, -187500.02, 0.00, 0.00, 0.00
138, 124718.28, -187500.02, -187500.02, -187500.02, 145541.13, -187500.02, -187500.02, -187500.02, 0.00, 0.00, 0.00
139, 124951.30, -187500.02, -187500.02, -187500.02, 145798.14, -187500.02, -187500.02, -187500.02, 0.00, 0.00, 0.00
140, 129355.77, -187500.02, -187500.02, -187500.02, 150176.92, -187500.02, -187500.02, -187500.02, 0.00, 0.00, 0.00
141, 129714.37, -187500.02, -187500.02, -187500.02, 150509.25, -187500.02, -187500.02, -187500.02, 0.00, 0.00, 0.00
142, 125302.96, -187500.02, -187500.02, -187500.02, 146133.83, -187500.02, -187500.02, -187500.02, 0.00, 0.00, 0.00
143, 124453.68, -187500.02, -187500.02, -187500.02, 145324.78, -187500.02, -187500.02, -187500.02, 0.00, 0.00, 0.00
144, 128694.50, -187500.02, -187500.02, -187500.02, 149540.97, -187500.02, -187500.02, -187500.02, 0.00, 0.00, 0.00
145, 130211.63, -187500.02, -187500.02, -187500.02, 151017.86, -187500.02, -187500.02, -187500.02, 0.00, 0.00, 0.00
146, 126046.31, -187500.02, -187500.02, -187500.02, 146877.59, -187500.02, -187500.02, -187500.02, 0.00, 0.00, 0.00
147, 124019.68, -187500.02, -187500.02, -187500.02, 144886.30, -187500.02, -187500.02, -187500.02, 0.00, 0.00, 0.00
148, 127751.37, -187500.02, -187500.02, -187500.02, 148596.38, -187500.02, -187500.02, -187500.02, 0.00, 0.00, 0.00
149, 130306.06, -187500.02, -187500.02, -187500.02, 151109.55, -187500.02, -187500.02, -187500.02, 0.00, 0.00, 0.00
150, 126754.91, -187500.02, -187500.02, -187500.02, 147574.61, -187500.02, -187500.02, -187500.02, 0.00, 0.00, 0.00
151, 123804.72, -187500.02, -187500.02, -187500.02, 144670.23, -187500.02, -187500.02, -187500.02, 0.00, 0.00, 0.00
152, 126793.93, -187500.02, -187500.02, -187500.02, 147649.27, -187500.02, -187500.02, -187500.02, 0.00, 0.00, 0.00
153, 130219.20, -187500.02, -187500.02, -187500.02, 151032.83, -187500.02, -187500.02, -187500.02, 0.00, 0.00, 0.00
154, 127558.36, -187500.02, -187500.02, -187500.02, 148372.02, -187500.02, -187500.02, -187500.02, 0.00, 0.00, 0.00
155, 123791.29, -187500.02, -187500.02, -187500.02, 144651.45, -187500.02, -187500.02, -187500.02, 0.00, 0.00, 0.00
156, 125897.63, -187500.02, -187500.02, -187500.02, 146768.19, -187500.02, -187500.02, -187500.02, 0.00, 0.00, 0.00
157, 129913.90, -187500.02, -187500.02, -187500.02, 150745.19, -187500.02, -187500.02, -187500.02, 0.00, 0.00, 0.00
158, 128252.09, -187500.02, -187500.02, -187500.02, 149078.19, -187500.02, -187500.02, -187500.02, 0.00, 0.00, 0.00
159, 123980.96, -187500.02, -187500.02, -187500.02, 144851.45, -187500.02, -187500.02, -187500.02, 0.00, 0.00, 0.00
160, 125029.69, -187500.02, -187500.02, -187500.02, 145908.36, -187500.02, -187500.02, -187500.02, 0.00, 0.00, 0.00
161, 129381.19, -187500.02, -187500.02, -187500.02, 150212.30, -187500.02, -187500.02, -187500.02, 0.00, 0.00, 0.00
162, 128883.30, -187500.02, -187500.02, -187500.02, 149692.31, -187500.02, -187500.02, -187500.02, 0.00, 0.00, 0.00
163, 124355.70, -187500.02, -187500.02, -187500.02, 145206.72, -187500.02, -187500.02, -187500.02, 0.00, 0.00, 0.00
164, 124195.77, -187500.02, -187500.02, -187500.02, 145082.17, -187500.02, -187500.02, -187500.02, 0.00, 0.00, 0.00
165, 128539.36, -187500.02, -187500.02, -187500.02, 149395.88, -187500.02, -187500.02, -187500.02, 0.00, 0.00, 0.00
166, 129279.91, -187500.02, -187500.02, -187500.02, 150102.52, -187500.02, -187500.02, -187500.02, 0.00, 0.00, 0.00
167, 124951.57, -187500.02, -187500.02, -187500.02, 145800.22, -187500.02, -187500.02, -187500.02, 0.00, 0.00, 0.00
168, 123676.00, -187500.02, -187500.02, -187500.02, 144560.97, -187500.02, -187500.02, -187500.02, 0.00, 0.00, 0.00
169, 127758.23, -187500.02, -187500.02, -187500.02, 148625.66, -187500.02, -187500.02, -187500.02, 0.00, 0.00, 0.00
170, 129634.19, -187500.02, -187500.02, -187500.02, 150463.69, -187500.02, -187500.02, -187500.02, 0.00, 0.00, 0.00
171, 125648.29, -187500.02, -187500.02, -187500.02, 146492.50, -187500.02, -187500.02, -187500.02, 0.00, 0.00, 0.00
172, 123260.23, -187500.02, -187500.02, -187500.02, 144141.30, -187500.02, -187500.02, -187500.02, 0.00, 0.00, 0.00
173, 126739.69, -187500.02, -187500.02, -187500.02, 147606.89, -187500.02, -187500.02, -187500.02, 0.00, 0.00, 0.00
174, 129600.23, -187500.02, -187500.02, -187500.02, 150431.11, -187500.02, -187500.02, -187500.02, 0.00, 0.00, 0.00
175, 126296.20, -187500.02, -187500.02, -187500.02, 147148.48, -187500.02, -187500.02, -187500.02, 0.00, 0.00, 0.00
176, 123076.93, -187500.02, -187500.02, -187500.02, 143974.27, -187500.02, -187500.02, -187500.02, 0.00, 0.00, 0.00
177, 125769.04, -187500.02, -187500.02, -187500.02, 146661.77, -187500.02, -187500.02, -187500.02, 0.00, 0.00, 0.00
178, 129423.41, -187500.02, -187500.02, -187500.02, 150268.84, -187500.02, -187500.02, -187500.02, 0.00, 0.00, 0.00
179, 127131.13, -187500.02, -187500.02, -187500.02, 147965.66, -187500.02, -187500.02, -187500.02, 0.00, 0.00, 0.00
180, 123215.10, -187500.02, -187500.02, -187500.02, 144085.39, -187500.02, -187500.02, -187500.02, 0.00, 0.00, 0.00
181, 124909.39, -187500.02, -187500.02, -187500.02, 145790.80, -187500.02, -187500.02, -187500.02, 0.00, 0.00, 0.00
182, 129046.32, -187500.02, -187500.02, -187500.02, 149888.42, -187500.02, -187500.02, -187500.02, 0.00, 0.00, 0.00
183, 127791.60, -187500.02, -187500.02, -187500.02, 148623.63, -187500.02, -187500.02, -187500.02, 0.00, 0.00, 0.00
184, 123446.24, -187500.02, -187500.02, -187500.02, 144315.00, -187500.02, -187500.02, -187500.02, 0.00, 0.00, 0.00
185, 124053.74, -187500.02, -187500.02, -187500.02, 144934.66, -187500.02, -187500.02, -187500.02, 0.00, 0.00, 0.00
186, 128434.59, -187500.02, -187500.02, -187500.02, 149273.77, -187500.02, -187500.02, -187500.02, 0.00, 0.00, 0.00
187, 128362.53, -187500.02, -187500.02, -187500.02, 149180.20, -187500.02, -187500.02, -187500.02, 0.00, 0.00, 0.00
188, 123869.05, -187500.02, -187500.02, -187500.02, 144731.14, -187500.02, -187500.02, -187500.02, 0.00, 0.00, 0.00
189, 123310.68, -187500.02, -187500.02, -187500.02, 144206.88, -187500.02, -187500.02, -187500.02, 0.00, 0.00, 0.00
190, 127601.91, -187500.02, -187500.02, -187500.02, 148459.56, -187500.02, -187500.02, -187500.02, 0.00, 0.00, 0.00
191, 128676.59, -187500.02, -187500.02, -187500.02, 149501.69, -187500.02, -187500.02, -187500.02, 0.00, 0.00, 0.00
192, 124373.22, -187500.02, -187500.02, -187500.02, 145228.20, -187500.02, -187500.02, -187500.02, 0.00, 0.00, 0.00
193, 122758.16, -187500.02, -187500.02, -187500.02, 143643.41, -187500.02, -187500.02, -187500.02, 0.00, 0.00, 0.00
194, 126685.28, -187500.02, -187500.02, -187500.02, 147546.56, -187500.02, -187500.02, -187500.02, 0.00, 0.00, 0.00
195, 128887.10, -187500.02, -187500.02, -187500.02, 149718.30, -187500.02, -187500.02, -187500.02, 0.00, 0.00, 0.00
196, 125093.23, -187500.02, -187500.02, -187500.02, 145949.38, -187500.02, -187500.02, -187500.02, 0.00, 0.00, 0.00
197, 122396.85, -187500.02, -187500.02, -187500.02, 143291.58, -187500.02, -187500.02, -187500.02, 0.00, 0.00, 0.00
198, 125657.05, -187500.02, -187500.02, -187500.02, 146530.91, -187500.02, -187500.02, -187500.02, 0.00, 0.00, 0.00
199, 128756.05, -187500.02, -187500.02, -187500.02, 149589.36, -187500.02, -187500.02, -187500.02, 0.00, 0.00, 0.00
200, 125751.31, -187500.02, -187500.02, -187500.02, 146594.89, -187500.02, -187500.02, -187500.02, 0.00, 0.00, 0.00
201, 122257.29, -187500.02, -187500.02, -187500.02, 143148.33, -187500.02, -187500.02, -187500.02, 0.00, 0.00, 0.00
202, 124627.94, -187500.02, -187500.02, -187500.02, 145524.20, -187500.02, -187500.02, -187500.02, 0.00, 0.00, 0.00
203, 128444.02, -187500.02, -187500.02, -187500.02, 149297.56, -187500.02, -187500.02, -187500.02, 0.00, 0.00, 0.00
204, 126438.31, -187500.02, -187500.02, -187500.02, 147280.88, -187500.02, -187500.02, -187500.02, 0.00, 0.00, 0.00
205, 122394.64, -187500.02, -187500.02, -187500.02, 143277.19, -187500.02, -187500.02, -187500.02, 0.00, 0.00, 0.00
206, 123789.84, -187500.02, -187500.02, -187500.02, 144677.45, -187500.02, -187500.02, -187500.02, 0.00, 0.00, 0.00
207, 128020.84, -187500.02, -187500.02, -187500.02, 148872.77, -187500.02, -187500.02, -187500.02, 0.00, 0.00, 0.00
208, 127138.30, -187500.02, -187500.02, -187500.02, 147975.56, -187500.02, -187500.02, -187500.02, 0.00, 0.00, 0.00
209, 122763.84, -187500.02, -187500.02, -187500.02, 143632.84, -187500.02, -187500.02, -187500.02, 0.00, 0.00, 0.00
210, 123015.41, -187500.02, -187500.02, -187500.02, 143900.13, -187500.02, -187500.02, -187500.02, 0.00, 0.00, 0.00
211, 127401.83, -187500.02, -187500.02, -187500.02, 148255.16, -187500.02, -187500.02, -187500.02, 0.00, 0.00, 0.00
212, 127751.34, -187500.02, -187500.02, -187500.02, 148575.45, -187500.02, -187500.02, -187500.02, 0.00, 0.00, 0.00
213, 123346.89, -187500.02, -187500.02, -187500.02, 144196.50, -187500.02, -187500.02, -187500.02, 0.00, 0.00, 0.00
214, 122443.88, -187500.02, -187500.02, -187500.02, 143325.02, -187500.02, -187500.02, -187500.02, 0.00, 0.00, 0.00
215, 126625.09, -187500.02, -187500.02, -187500.02, 147468.09, -187500.02, -187500.02, -187500.02, 0.00, 0.00, 0.00
216, 128173.77, -187500.02, -187500.02, -187500.02, 148984.36, -187500.02, -187500.02, -187500.02, 0.00, 0.00, 0.00
217, 124069.59, -187500.02, -187500.02, -187500.02, 144915.36, -187500.02, -187500.02, -187500.02, 0.00, 0.00, 0.00
218, 122096.09, -187500.02, -187500.02, -187500.02, 142991.28, -187500.02, -187500.02, -187500.02, 0.00, 0.00, 0.00
219, 125820.91, -187500.02, -187500.02, -187500.02, 146708.11, -187500.02, -187500.02, -187500.02, 0.00, 0.00, 0.00
220, 128400.02, -187500.02, -187500.02, -187500.02, 149243.67, -187500.02, -187500.02, -187500.02, 0.00, 0.00, 0.00
221, 124901.72, -187500.02, -187500.02, -187500.02, 145754.20, -187500.02, -187500.02, -187500.02, 0.00, 0.00, 0.00
222, 121930.46, -187500.02, -187500.02, -187500.02, 142820.58, -187500.02, -187500.02, -187500.02, 0.00, 0.00, 0.00
223, 124975.30, -187500.02, -187500.02, -187500.02, 145853.13, -187500.02, -187500.02, -187500.02, 0.00, 0.00, 0.00
224, 128398.01, -187500.02, -187500.02, -187500.02, 149237.73, -187500.02, -187500.02, -187500.02, 0.00, 0.00, 0.00
225, 125756.19, -187500.02, -187500.02, -187500.02, 146607.30, -187500.02, -187500.02, -187500.02, 0.00, 0.00, 0.00
226, 122050.78, -187500.02, -187500.02, -187500.02, 142949.23, -187500.02, -187500.02, -187500.02, 0.00, 0.00, 0.00
227, 124182.58, -187500.02, -187500.02, -187500.02, 145072.11, -187500.02, -187500.02, -187500.02, 0.00, 0.00, 0.00
228, 128234.77, -187500.02, -187500.02, -187500.02, 149078.83, -187500.02, -187500.02, -187500.02, 0.00, 0.00, 0.00
229, 126681.88, -187500.02, -187500.02, -187500.02, 147518.22, -187500.02, -187500.02, -187500.02, 0.00, 0.00, 0.00
230, 122569.90, -187500.02, -187500.02, -187500.02, 143450.25, -187500.02, -187500.02, -187500.02, 0.00, 0.00, 0.00
231, 123640.46, -187500.02, -187500.02, -187500.02, 144528.08, -187500.02, -187500.02, -187500.02, 0.00, 0.00, 0.00
232, 128028.15, -187500.02, -187500.02, -187500.02, 148878.44, -187500.02, -187500.02, -187500.02, 0.00, 0.00, 0.00
233, 127645.22, -187500.02, -187500.02, -187500.02, 148480.20, -187500.02, -187500.02, -187500.02, 0.00, 0.00, 0.00
234, 123271.34, -187500.02, -187500.02, -187500.02, 144136.58, -187500.02, -187500.02, -187500.02, 0.00, 0.00, 0.00
235, 123168.03, -187500.02, -187500.02, -187500.02, 144051.11, -187500.02, -187500.02, -187500.02, 0.00, 0.00, 0.00
236, 127535.00, -187500.02, -187500.02, -187500.02, 148394.17, -187500.02, -187500.02, -187500.02, 0.00, 0.00, 0.00
237, 128322.91, -187500.02, -187500.02, -187500.02, 149151.53, -187500.02, -187500.02, -187500.02, 0.00, 0.00, 0.00
238, 124003.18, -187500.02, -187500.02, -187500.02, 144857.88, -187500.02, -187500.02, -187500.02, 0.00, 0.00, 0.00
239, 122742.03, -187500.02, -187500.02, -187500.02, 143639.97, -187500.02, -187500.02, -187500.02, 0.00, 0.00, 0.00
240, 126805.58, -187500.02, -187500.02, -187500.02, 147685.08, -187500.02, -187500.02, -187500.02, 0.00, 0.00, 0.00
241, 128696.27, -187500.02, -187500.02, -187500.02, 149536.16, -187500.02, -187500.02, -187500.02, 0.00, 0.00, 0.00
242, 124746.53, -187500.02, -187500.02, -187500.02, 145603.27, -187500.02, -187500.02, -187500.02, 0.00, 0.00, 0.00
243, 122390.30, -187500.02, -187500.02, -187500.02, 143276.05, -187500.02, -187500.02, -187500.02, 0.00, 0.00, 0.00
244, 125934.91, -187500.02, -187500.02, -187500.02, 146809.69, -187500.02, -187500.02, -187500.02, 0.00, 0.00, 0.00
245, 128831.00, -187500.02, -187500.02, -187500.02, 149658.17, -187500.02, -187500.02, -187500.02, 0.00, 0.00, 0.00
246, 125556.25, -187500.02, -187500.02, -187500.02, 146388.55, -187500.02, -187500.02, -187500.02, 0.00, 0.00, 0.00
247, 122293.23, -187500.02, -187500.02, -187500.02, 143180.70, -187500.02, -187500.02, -187500.02, 0.00, 0.00, 0.00
248, 125032.62, -187500.02, -187500.02, -187500.02, 145921.84, -187500.02, -187500.02, -187500.02, 0.00, 0.00, 0.00
249, 128734.95, -187500.02, -187500.02, -187500.02, 149573.95, -187500.02, -187500.02, -187500.02, 0.00, 0.00, 0.00
250, 126402.44, -187500.02, -187500.02, -187500.02, 147240.38, -187500.02, -187500.02, -187500.02, 0.00, 0.00, 0.00
251, 122474.57, -187500.02, -187500.02, -187500.02, 143343.66, -187500.02, -187500.02, -187500.02, 0.00, 0.00, 0.00
252, 124216.55, -187500.02, -187500.02, -187500.02, 145099.50, -187500.02, -187500.02, -187500.02, 0.00, 0.00, 0.00
253, 128421.07, -187500.02, -187500.02, -187500.02, 149253.05, -187500.02, -187500.02, -187500.02, 0.00, 0.00, 0.00
254, 127186.52, -187500.02, -187500.02, -187500.02, 148003.64, -187500.02, -187500.02, -187500.02, 0.00, 0.00, 0.00
255, 122789.55, -187500.02, -187500.02, -187500.02, 143648.69, -187500.02, -187500.02, -187500.02, 0.00, 0.00, 0.00
0, 123441.84, -187500.02, -187500.02, -187500.02, 144324.63, -187500.02, -187500.02, -187500.02, 0.00, 0.00, 0.00
1, 127836.98, -187500.02, -187500.02, -187500.02, 148683.63, -187500.02, -187500.02, -187500.02, 0.00, 0.00, 0.00
2, 127760.98, -187500.02, -187500.02, -187500.02, 148570.78, -187500.02, -187500.02, -187500.02, 0.00, 0.00, 0.00
3, 123239.16, -187500.02, -187500.02, -187500.02, 144089.69, -187500.02, -187500.02, -187500.02, 0.00, 0.00, 0.00
4, 122673.16, -187500.02, -187500.02, -187500.02, 143559.08, -187500.02, -187500.02, -187500.02, 0.00, 0.00, 0.00
5, 126952.52, -187500.02, -187500.02, -187500.02, 147808.48, -187500.02, -187500.02, -187500.02, 0.00, 0.00, 0.00
6, 128035.19, -187500.02, -187500.02, -187500.02, 148865.72, -187500.02, -187500.02, -187500.02, 0.00, 0.00, 0.00
7, 123685.19, -187500.02, -187500.02, -187500.02, 144550.48, -187500.02, -187500.02, -187500.02, 0.00, 0.00, 0.00
8, 121966.23, -187500.02, -187500.02, -187500.02, 142855.83, -187500.02, -187500.02, -187500.02, 0.00, 0.00, 0.00
9, 125831.13, -187500.02, -187500.02, -187500.02, 146705.95, -187500.02, -187500.02, -187500.02, 0.00, 0.00, 0.00
10, 128026.63, -187500.02, -187500.02, -187500.02, 148846.05, -187500.02, -187500.02, -187500.02, 0.00, 0.00, 0.00
11, 124162.02, -187500.02, -187500.02, -187500.02, 144991.38, -187500.02, -187500.02, -187500.02, 0.00, 0.00, 0.00
12, 121449.72, -187500.02, -187500.02, -187500.02, 142319.13, -187500.02, -187500.02, -187500.02, 0.00, 0.00, 0.00
13, 124698.88, -187500.02, -187500.02, -187500.02, 145548.28, -187500.02, -187500.02, -187500.02, 0.00, 0.00, 0.00
14, 127903.38, -187500.02, -187500.02, -187500.02, 148709.97, -187500.02, -187500.02, -187500.02, 0.00, 0.00, 0.00
15, 124898.23, -187500.02, -187500.02, -187500.02, 145704.67, -187500.02, -187500.02, -187500.02, 0.00, 0.00, 0.00
16, 121320.98, -187500.02, -187500.02, -187500.02, 142173.03, -187500.02, -187500.02, -187500.02, 0.00, 0.00, 0.00
17, 123719.00, -187500.02, -187500.02, -187500.02, 144569.95, -187500.02, -187500.02, -187500.02, 0.00, 0.00, 0.00
18, 127660.06, -187500.02, -187500.02, -187500.02, 148454.31, -187500.02, -187500.02, -187500.02, 0.00, 0.00, 0.00
19, 125659.52, -187500.02, -187500.02, -187500.02, 146442.67, -187500.02, -187500.02, -187500.02, 0.00, 0.00, 0.00
20, 121499.34, -187500.02, -187500.02, -187500.02, 142325.47, -187500.02, -187500.02, -187500.02, 0.00, 0.00, 0.00
21, 122912.15, -187500.02, -187500.02, -187500.02, 143754.69, -187500.02, -187500.02, -187500.02, 0.00, 0.00, 0.00
22, 127277.22, -187500.02, -187500.02, -187500.02, 148082.06, -187500.02, -187500.02, -187500.02, 0.00, 0.00, 0.00
23, 126449.47, -187500.02, -187500.02, -187500.02, 147239.31, -187500.02, -187500.02, -187500.02, 0.00, 0.00, 0.00
24, 121946.04, -187500.02, -187500.02, -187500.02, 142774.09, -187500.02, -187500.02, -187500.02, 0.00, 0.00, 0.00
25, 122171.57, -187500.02, -187500.02, -187500.02, 143017.86, -187500.02, -187500.02, -187500.02, 0.00, 0.00, 0.00
26, 126684.54, -187500.02, -187500.02, -187500.02, 147490.02, -187500.02, -187500.02, -187500.02, 0.00, 0.00, 0.00
27, 127020.02, -187500.02, -187500.02, -187500.02, 147784.91, -187500.02, -187500.02, -187500.02, 0.00, 0.00, 0.00
28, 122441.58, -187500.02, -187500.02, -187500.02, 143240.23, -187500.02, -187500.02, -187500.02, 0.00, 0.00, 0.00
29, 121487.63, -187500.02, -187500.02, -187500.02, 142322.11, -187500.02, -187500.02, -187500.02, 0.00, 0.00, 0.00
30, 125771.70, -187500.02, -187500.02, -187500.02, 146591.34, -187500.02, -187500.02, -187500.02, 0.00, 0.00, 0.00
31, 127279.01, -187500.02, -187500.02, -187500.02, 148064.77, -187500.02, -187500.02, -187500.02, 0.00, 0.00, 0.00
32, 122968.25, -187500.02, -187500.02, -187500.02, 143771.94, -187500.02, -187500.02, -187500.02, 0.00, 0.00, 0.00
33, 120893.97, -187500.02, -187500.02, -187500.02, 141721.83, -187500.02, -187500.02, -187500.02, 0.00, 0.00, 0.00
34, 124715.76, -187500.02, -187500.02, -187500.02, 145529.70, -187500.02, -187500.02, -187500.02, 0.00, 0.00, 0.00
35, 127326.64, -187500.02, -187500.02, -187500.02, 148099.23, -187500.02, -187500.02, -187500.02, 0.00, 0.00, 0.00
36, 123688.42, -187500.02, -187500.02, -187500.02, 144464.89, -187500.02, -187500.02, -187500.02, 0.00, 0.00, 0.00
37, 120602.92, -187500.02, -187500.02, -187500.02, 141428.25, -187500.02, -187500.02, -187500.02, 0.00, 0.00, 0.00
38, 123656.80, -187500.02, -187500.02, -187500.02, 144487.97, -187500.02, -187500.02, -187500.02, 0.00, 0.00, 0.00
39, 127176.59, -187500.02, -187500.02, -187500.02, 147970.22, -187500.02, -187500.02, -187500.02, 0.00, 0.00, 0.00
40, 124353.93, -187500.02, -187500.02, -187500.02, 145161.56, -187500.02, -187500.02, -187500.02, 0.00, 0.00, 0.00
41, 120455.11, -187500.02, -187500.02, -187500.02, 141325.06, -187500.02, -187500.02, -187500.02, 0.00, 0.00, 0.00
42, 122570.68, -187500.02, -187500.02, -187500.02, 143447.19, -187500.02, -187500.02, -187500.02, 0.00, 0.00, 0.00
43, 126694.24, -187500.02, -187500.02, -187500.02, 147527.59, -187500.02, -187500.02, -187500.02, 0.00, 0.00, 0.00
44, 124961.42, -187500.02, -187500.02, -187500.02, 145784.08, -187500.02, -187500.02, -187500.02, 0.00, 0.00, 0.00
45, 120555.67, -187500.02, -187500.02, -187500.02, 141427.94, -187500.02, -187500.02, -187500.02, 0.00, 0.00, 0.00
46, 121539.80, -187500.02, -187500.02, -187500.02, 142429.58, -187500.02, -187500.02, -187500.02, 0.00, 0.00, 0.00
47, 125994.72, -187500.02, -187500.02, -187500.02, 146849.14, -187500.02, -187500.02, -187500.02, 0.00, 0.00, 0.00
48, 125493.15, -187500.02, -187500.02, -187500.02, 146325.05, -187500.02, -187500.02, -187500.02, 0.00, 0.00, 0.00
49, 120849.58, -187500.02, -187500.02, -187500.02, 141734.50, -187500.02, -187500.02, -187500.02, 0.00, 0.00, 0.00
50, 120662.06, -187500.02, -187500.02, -187500.02, 141583.25, -187500.02, -187500.02, -187500.02, 0.00, 0.00, 0.00
51, 125161.85, -187500.02, -187500.02, -187500.02, 146055.33, -187500.02, -187500.02, -187500.02, 0.00, 0.00, 0.00
52, 125944.45, -187500.02, -187500.02, -187500.02, 146805.05, -187500.02, -187500.02, -187500.02, 0.00, 0.00, 0.00
53, 121411.99, -187500.02, -187500.02, -187500.02, 142301.13, -187500.02, -187500.02, -187500.02, 0.00, 0.00, 0.00
54, 120052.91, -187500.02, -187500.02, -187500.02, 140984.36, -187500.02, -187500.02, -187500.02, 0.00, 0.00, 0.00
55, 124251.58, -187500.02, -187500.02, -187500.02, 145154.70, -187500.02, -187500.02, -187500.02, 0.00, 0.00, 0.00
56, 126183.55, -187500.02, -187500.02, -187500.02, 147034.75, -187500.02, -187500.02, -187500.02, 0.00, 0.00, 0.00
57, 122048.90, -187500.02, -187500.02, -187500.02, 142913.45, -187500.02, -187500.02, -187500.02, 0.00, 0.00, 0.00
58, 119615.11, -187500.02, -187500.02, -187500.02, 140522.48, -187500.02, -187500.02, -187500.02, 0.00, 0.00, 0.00
59, 123311.17, -187500.02, -187500.02, -187500.02, 144203.19, -187500.02, -187500.02, -187500.02, 0.00, 0.00, 0.00
60, 126297.73, -187500.02, -187500.02, -187500.02, 147145.42, -187500.02, -187500.02, -187500.02, 0.00, 0.00, 0.00
61, 122819.41, -187500.02, -187500.02, -187500.02, 143678.95, -187500.02, -187500.02, -187500.02, 0.00, 0.00, 0.00
62, 119480.33, -187500.02, -187500.02, -187500.02, 140380.31, -187500.02, -187500.02, -187500.02, 0.00, 0.00, 0.00
63, 122406.48, -187500.02, -187500.02, -187500.02, 143303.20, -187500.02, -187500.02, -187500.02, 0.00, 0.00, 0.00
64, 126183.05, -187500.02, -187500.02, -187500.02, 147037.61, -187500.02, -187500.02, -187500.02, 0.00, 0.00, 0.00
65, 123721.66, -187500.02, -187500.02, -187500.02, 144571.59, -187500.02, -187500.02, -187500.02, 0.00, 0.00, 0.00
66, 119699.80, -187500.02, -187500.02, -187500.02, 140598.75, -187500.02, -187500.02, -187500.02, 0.00, 0.00, 0.00
67, 121580.72, -187500.02, -187500.02, -187500.02, 142486.47, -187500.02, -187500.02, -187500.02, 0.00, 0.00, 0.00
68, 125939.67, -187500.02, -187500.02, -187500.02, 146811.19, -187500.02, -187500.02, -187500.02, 0.00, 0.00, 0.00
69, 124610.95, -187500.02, -187500.02, -187500.02, 145472.61, -187500.02, -187500.02, -187500.02, 0.00, 0.00, 0.00
70, 120101.24, -187500.02, -187500.02, -187500.02, 141006.89, -187500.02, -187500.02, -187500.02, 0.00, 0.00, 0.00
71, 120848.46, -187500.02, -187500.02, -187500.02, 141773.42, -187500.02, -187500.02, -187500.02, 0.00, 0.00, 0.00
72, 125474.30, -187500.02, -187500.02, -187500.02, 146363.11, -187500.02, -187500.02, -187500.02, 0.00, 0.00, 0.00
73, 125443.15, -187500.02, -187500.02, -187500.02, 146297.91, -187500.02, -187500.02, -187500.02, 0.00, 0.00, 0.00
74, 120840.59, -187500.02, -187500.02, -187500.02, 141732.34, -187500.02, -187500.02, -187500.02, 0.00, 0.00, 0.00
75, 120406.52, -187500.02, -187500.02, -187500.02, 141334.39, -187500.02, -187500.02, -187500.02, 0.00, 0.00, 0.00
76, 124961.02, -187500.02, -187500.02, -187500.02, 145864.27, -187500.02, -187500.02, -187500.02, 0.00, 0.00, 0.00
77, 126174.88, -187500.02, -187500.02, -187500.02, 147050.28, -187500.02, -187500.02, -187500.02, 0.00, 0.00, 0.00
78, 121774.04, -187500.02, -187500.02, -187500.02, 142674.31, -187500.02, -187500.02, -187500.02, 0.00, 0.00, 0.00
79, 120107.81, -187500.02, -187500.02, -187500.02, 141044.28, -187500.02, -187500.02, -187500.02, 0.00, 0.00, 0.00
80, 124221.58, -187500.02, -187500.02, -187500.02, 145139.13, -187500.02, -187500.02, -187500.02, 0.00, 0.00, 0.00
81, 126516.19, -187500.02, -187500.02, -187500.02, 147391.88, -187500.02, -187500.02, -187500.02, 0.00, 0.00, 0.00
82, 122550.59, -187500.02, -187500.02, -187500.02, 143443.28, -187500.02, -187500.02, -187500.02, 0.00, 0.00, 0.00
83, 119796.43, -187500.02, -187500.02, -187500.02, 140736.81, -187500.02, -187500.02, -187500.02, 0.00, 0.00, 0.00
84, 123194.01, -187500.02, -187500.02, -187500.02, 144128.58, -187500.02, -187500.02, -187500.02, 0.00, 0.00, 0.00
85, 126435.23, -187500.02, -187500.02, -187500.02, 147321.30, -187500.02, -187500.02, -187500.02, 0.00, 0.00, 0.00
86, 123250.51, -187500.02, -187500.02, -187500.02, 144145.84, -187500.02, -187500.02, -187500.02, 0.00, 0.00, 0.00
87, 119554.80, -187500.02, -187500.02, -187500.02, 140504.69, -187500.02, -187500.02, -187500.02, 0.00, 0.00, 0.00
88, 122082.67, -187500.02, -187500.02, -187500.02, 143031.94, -187500.02, -187500.02, -187500.02, 0.00, 0.00, 0.00
89, 126064.13, -187500.02, -187500.02, -187500.02, 146968.38, -187500.02, -187500.02, -187500.02, 0.00, 0.00, 0.00
90, 123889.70, -187500.02, -187500.02, -187500.02, 144784.61, -187500.02, -187500.02, -187500.02, 0.00, 0.00, 0.00
91, 119556.93, -187500.02, -187500.02, -187500.02, 140498.30, -187500.02, -187500.02, -187500.02, 0.00, 0.00, 0.00
92, 121018.73, -187500.02, -187500.02, -187500.02, 141971.34, -187500.02, -187500.02, -187500.02, 0.00, 0.00, 0.00
93, 125374.57, -187500.02, -187500.02, -187500.02, 146284.83, -187500.02, -187500.02, -187500.02, 0.00, 0.00, 0.00
94, 124319.02, -187500.02, -187500.02, -187500.02, 145207.44, -187500.02, -187500.02, -187500.02, 0.00, 0.00, 0.00
95, 119618.55, -187500.02, -187500.02, -187500.02, 140549.83, -187500.02, -187500.02, -187500.02, 0.00, 0.00, 0.00
96, 119903.11, -187500.02, -187500.02, -187500.02, 140859.30, -187500.02, -187500.02, -187500.02, 0.00, 0.00, 0.00
97, 124445.30, -187500.02, -187500.02, -187500.02, 145365.92, -187500.02, -187500.02, -187500.02, 0.00, 0.00, 0.00
98, 124680.04, -187500.02, -187500.02, -187500.02, 145573.48, -187500.02, -187500.02, -187500.02, 0.00, 0.00, 0.00
99, 120041.70, -187500.02, -187500.02, -187500.02, 140972.73, -187500.02, -187500.02, -187500.02, 0.00, 0.00, 0.00
100, 119139.38, -187500.02, -187500.02, -187500.02, 140106.67, -187500.02, -187500.02, -187500.02, 0.00, 0.00, 0.00
101, 123535.38, -187500.02, -187500.02, -187500.02, 144474.66, -187500.02, -187500.02, -187500.02, 0.00, 0.00, 0.00
102, 125039.66, -187500.02, -187500.02, -187500.02, 145933.22, -187500.02, -187500.02, -187500.02, 0.00, 0.00, 0.00
103, 120682.79, -187500.02, -187500.02, -187500.02, 141593.89, -187500.02, -187500.02, -187500.02, 0.00, 0.00, 0.00
104, 118637.87, -187500.02, -187500.02, -187500.02, 139591.56, -187500.02, -187500.02, -187500.02, 0.00, 0.00, 0.00
105, 122542.56, -187500.02, -187500.02, -187500.02, 143482.58, -187500.02, -187500.02, -187500.02, 0.00, 0.00, 0.00
106, 121105.30, -187500.02, -187500.02, -187500.02, 141995.20, -187500.02, -187500.02, -187500.02, 0.00, 0.00, 0.00
107, 118181.78, -187500.02, -187500.02, -187500.02, 139115.59, -187500.02, -187500.02, -187500.02, 0.00, 0.00, 0.00
108, 121465.81, -187500.02, -187500.02, -187500.02, 142393.89, -187500.02, -187500.02, -187500.02, 0.00, 0.00, 0.00
109, 124886.16, -187500.02, -187500.02, -187500.02, 145762.50, -187500.02, -187500.02, -187500.02, 0.00, 0.00, 0.00
110, 121901.67, -187500.02, -187500.02, -187500.02, 142774.92, -187500.02, -187500.02, -187500.02, 0.00, 0.00, 0.00
111, 118124.02, -187500.02, -187500.02, -187500.02, 139048.47, -187500.02, -187500.02, -187500.02, 0.00, 0.00, 0.00
112, 120489.55, -187500.02, -187500.02, -187500.02, 141422.25, -187500.02, -187500.02, -187500.02, 0.00, 0.00, 0.00
113, 124590.05, -187500.02, -187500.02, -187500.02, 145472.81, -187500.02, -187500.02, -187500.02, 0.00, 0.00, 0.00
114, 122681.05, -187500.02, -187500.02, -187500.02, 143551.38, -187500.02, -187500.02, -187500.02, 0.00, 0.00, 0.00
115, 118313.50, -187500.02, -187500.02, -187500.02, 139223.80, -187500.02, -187500.02, -187500.02, 0.00, 0.00, 0.00
116, 119603.09, -187500.02, -187500.02, -187500.02, 140525.92, -187500.02, -187500.02, -187500.02, 0.00, 0.00, 0.00
117, 124128.76, -187500.02, -187500.02, -187500.02, 145014.22, -187500.02, -187500.02, -187500.02, 0.00, 0.00, 0.00
118, 123398.92, -187500.02, -187500.02, -187500.02, 144257.75, -187500.02, -187500.02, -187500.02, 0.00, 0.00, 0.00
119, 118780.95, -187500.02, -187500.02, -187500.02, 139666.23, -187500.02, -187500.02, -187500.02, 0.00, 0.00, 0.00
120, 118953.05, -187500.02, -187500.02, -187500.02, 139865.45, -187500.02, -187500.02, -187500.02, 0.00, 0.00, 0.00
121, 123617.64, -187500.02, -187500.02, -187500.02, 144491.17, -187500.02, -187500.02, -187500.02, 0.00, 0.00, 0.00
122, 124192.41, -187500.02, -187500.02, -187500.02, 145030.77, -187500.02, -187500.02, -187500.02, 0.00, 0.00, 0.00
123, 119616.61, -187500.02, -187500.02, -187500.02, 140487.81, -187500.02, -187500.02, -187500.02, 0.00, 0.00, 0.00
124, 118568.71, -187500.02, -187500.02, -187500.02, 139475.44, -187500.02, -187500.02, -187500.02, 0.00, 0.00, 0.00
125, 122979.61, -187500.02, -187500.02, -187500.02, 143868.31, -187500.02, -187500.02, -187500.02, 0.00, 0.00, 0.00
126, 124836.01, -187500.02, -187500.02, -187500.02, 145678.00, -187500.02, -187500.02, -187500.02, 0.00, 0.00, 0.00
127, 120677.60, -187500.02, -187500.02, -187500.02, 141534.22, -187500.02, -187500.02, -187500.02, 0.00, 0.00, 0.00
128, 118505.95, -187500.02, -187500.02, -187500.02, 139404.98, -187500.02, -187500.02, -187500.02, 0.00, 0.00, 0.00
129, 122381.34, -187500.02, -187500.02, -187500.02, 143268.08, -187500.02, -187500.02, -187500.02, 0.00, 0.00, 0.00
130, 125294.95, -187500.02, -187500.02, -187500.02, 146140.58, -187500.02, -187500.02, -187500.02, 0.00, 0.00, 0.00
131, 121787.86, -187500.02, -187500.02, -187500.02, 142640.05, -187500.02, -187500.02, -187500.02, 0.00, 0.00, 0.00
132, 118649.34, -187500.02, -187500.02, -187500.02, 139543.59, -187500.02, -187500.02, -187500.02, 0.00, 0.00, 0.00
133, 121754.84, -187500.02, -187500.02, -187500.02, 142649.20, -187500.02, -187500.02, -187500.02, 0.00, 0.00, 0.00
134, 125509.58, -187500.02, -187500.02, -187500.02, 146362.64, -187500.02, -187500.02, -187500.02, 0.00, 0.00, 0.00
135, 122920.91, -187500.02, -187500.02, -187500.02, 143770.64, -187500.02, -187500.02, -187500.02, 0.00, 0.00, 0.00
136, 119015.44, -187500.02, -187500.02, -187500.02, 139907.09, -187500.02, -187500.02, -187500.02, 0.00, 0.00, 0.00
137, 121086.23, -187500.02, -187500.02, -187500.02, 141986.33, -187500.02, -187500.02, -187500.02, 0.00, 0.00, 0.00
138, 125434.43, -187500.02, -187500.02, -187500.02, 146293.44, -187500.02, -187500.02, -187500.02, 0.00, 0.00, 0.00
139, 123964.67, -187500.02, -187500.02, -187500.02, 144803.41, -187500.02, -187500.02, -187500.02, 0.00, 0.00, 0.00
140, 119542.35, -187500.02, -187500.02, -187500.02, 140419.94, -187500.02, -187500.02, -187500.02, 0.00, 0.00, 0.00
141, 120476.66, -187500.02, -187500.02, -187500.02, 141367.48, -187500.02, -187500.02, -187500.02, 0.00, 0.00, 0.00
142, 125101.70, -187500.02, -187500.02, -187500.02, 145954.97, -187500.02, -187500.02, -187500.02, 0.00, 0.00, 0.00
143, 124855.25, -187500.02, -187500.02, -187500.02, 145680.80, -187500.02, -187500.02, -187500.02, 0.00, 0.00, 0.00
144, 120204.26, -187500.02, -187500.02, -187500.02, 141062.14, -187500.02, -187500.02, -187500.02, 0.00, 0.00, 0.00
145, 119917.35, -187500.02, -187500.02, -187500.02, 140807.17, -187500.02, -187500.02, -187500.02, 0.00, 0.00, 0.00
146, 124506.84, -187500.02, -187500.02, -187500.02, 145369.80, -187500.02, -187500.02, -187500.02, 0.00, 0.00, 0.00
147, 125470.46, -187500.02, -187500.02, -187500.02, 146298.17, -187500.02, -187500.02, -187500.02, 0.00, 0.00, 0.00
148, 120955.21, -187500.02, -187500.02, -187500.02, 141806.45, -187500.02, -187500.02, -187500.02, 0.00, 0.00, 0.00
149, 119441.57, -187500.02, -187500.02, -187500.02, 140322.28, -187500.02, -187500.02, -187500.02, 0.00, 0.00, 0.00
150, 123684.16, -187500.02, -187500.02, -187500.02, 144545.50, -187500.02, -187500.02, -187500.02, 0.00, 0.00, 0.00
151, 125815.87, -187500.02, -187500.02, -187500.02, 146635.44, -187500.02, -187500.02, -187500.02, 0.00, 0.00, 0.00
152, 121786.56, -187500.02, -187500.02, -187500.02, 142618.19, -187500.02, -187500.02, -187500.02, 0.00, 0.00, 0.00
153, 119261.73, -187500.02, -187500.02, -187500.02, 140131.08, -187500.02, -187500.02, -187500.02, 0.00, 0.00, 0.00
154, 122939.46, -187500.02, -187500.02, -187500.02, 143798.00, -187500.02, -187500.02, -187500.02, 0.00, 0.00, 0.00
155, 126092.96, -187500.02, -187500.02, -187500.02, 146910.64, -187500.02, -187500.02, -187500.02, 0.00, 0.00, 0.00
156, 122846.97, -187500.02, -187500.02, -187500.02, 143667.70, -187500.02, -187500.02, -187500.02, 0.00, 0.00, 0.00
157, 119445.20, -187500.02, -187500.02, -187500.02, 140314.13, -187500.02, -187500.02, -187500.02, 0.00, 0.00, 0.00
158, 122221.88, -187500.02, -187500.02, -187500.02, 143097.50, -187500.02, -187500.02, -187500.02, 0.00, 0.00, 0.00
159, 126157.84, -187500.02, -187500.02, -187500.02, 146985.64, -187500.02, -187500.02, -187500.02, 0.00, 0.00, 0.00
160, 123912.44, -187500.02, -187500.02, -187500.02, 144732.95, -187500.02, -187500.02, -187500.02, 0.00, 0.00, 0.00
161, 119800.49, -187500.02, -187500.02, -187500.02, 140667.59, -187500.02, -187500.02, -187500.02, 0.00, 0.00, 0.00
162, 121516.84, -187500.02, -187500.02, -187500.02, 142391.83, -187500.02, -187500.02, -187500.02, 0.00, 0.00, 0.00
163, 125968.37, -187500.02, -187500.02, -187500.02, 146800.80, -187500.02, -187500.02, -187500.02, 0.00, 0.00, 0.00
164, 124875.64, -187500.02, -187500.02, -187500.02, 145690.09, -187500.02, -187500.02, -187500.02, 0.00, 0.00, 0.00
165, 120347.78, -187500.02, -187500.02, -187500.02, 141202.64, -187500.02, -187500.02, -187500.02, 0.00, 0.00, 0.00
166, 120890.45, -187500.02, -187500.02, -187500.02, 141764.33, -187500.02, -187500.02, -187500.02, 0.00, 0.00, 0.00
167, 125508.23, -187500.02, -187500.02, -187500.02, 146345.20, -187500.02, -187500.02, -187500.02, 0.00, 0.00, 0.00
168, 125650.06, -187500.02, -187500.02, -187500.02, 146461.55, -187500.02, -187500.02, -187500.02, 0.00, 0.00, 0.00
169, 121069.88, -187500.02, -187500.02, -187500.02, 141915.44, -187500.02, -187500.02, -187500.02, 0.00, 0.00, 0.00
170, 120410.50, -187500.02, -187500.02, -187500.02, 141288.33, -187500.02, -187500.02, -187500.02, 0.00, 0.00, 0.00
171, 124900.56, -187500.02, -187500.02, -187500.02, 145752.59, -187500.02, -187500.02, -187500.02, 0.00, 0.00, 0.00
172, 126255.19, -187500.02, -187500.02, -187500.02, 147066.27, -187500.02, -187500.02, -187500.02, 0.00, 0.00, 0.00
173, 121926.05, -187500.02, -187500.02, -187500.02, 142756.58, -187500.02, -187500.02, -187500.02, 0.00, 0.00, 0.00
174, 120128.73, -187500.02, -187500.02, -187500.02, 140992.25, -187500.02, -187500.02, -187500.02, 0.00, 0.00, 0.00
175, 124192.91, -187500.02, -187500.02, -187500.02, 145035.97, -187500.02, -187500.02, -187500.02, 0.00, 0.00, 0.00
176, 126685.59, -187500.02, -187500.02, -187500.02, 147492.47, -187500.02, -187500.02, -187500.02, 0.00, 0.00, 0.00
177, 122906.96, -187500.02, -187500.02, -187500.02, 143730.58, -187500.02, -187500.02, -187500.02, 0.00, 0.00, 0.00
178, 120032.30, -187500.02, -187500.02, -187500.02, 140898.31, -187500.02, -187500.02, -187500.02, 0.00, 0.00, 0.00
179, 123352.05, -187500.02, -187500.02, -187500.02, 144216.78, -187500.02, -187500.02, -187500.02, 0.00, 0.00, 0.00
180, 126768.74, -187500.02, -187500.02, -187500.02, 147585.69, -187500.02, -187500.02, -187500.02, 0.00, 0.00, 0.00
181, 123794.66, -187500.02, -187500.02, -187500.02, 144601.14, -187500.02, -187500.02, -187500.02, 0.00, 0.00, 0.00
182, 120056.18, -187500.02, -187500.02, -187500.02, 140913.95, -187500.02, -187500.02, -187500.02, 0.00, 0.00, 0.00
183, 122512.77, -187500.02, -187500.02, -187500.02, 143375.45, -187500.02, -187500.02, -187500.02, 0.00, 0.00, 0.00
184, 126619.19, -187500.02, -187500.02, -187500.02, 147437.58, -187500.02, -187500.02, -187500.02, 0.00, 0.00, 0.00
185, 124700.29, -187500.02, -187500.02, -187500.02, 145499.88, -187500.02, -187500.02, -187500.02, 0.00, 0.00, 0.00
186, 120445.92, -187500.02, -187500.02, -187500.02, 141289.58, -187500.02, -187500.02, -187500.02, 0.00, 0.00, 0.00
187, 121795.21, -187500.02, -187500.02, -187500.02, 142652.73, -187500.02, -187500.02, -187500.02, 0.00, 0.00, 0.00
188, 126301.92, -187500.02, -187500.02, -187500.02, 147122.80, -187500.02, -187500.02, -187500.02, 0.00, 0.00, 0.00
189, 125640.52, -187500.02, -187500.02, -187500.02, 146433.00, -187500.02, -187500.02, -187500.02, 0.00, 0.00, 0.00
190, 121116.43, -187500.02, -187500.02, -187500.02, 141945.64, -187500.02, -187500.02, -187500.02, 0.00, 0.00, 0.00
191, 121246.43, -187500.02, -187500.02, -187500.02, 142102.39, -187500.02, -187500.02, -187500.02, 0.00, 0.00, 0.00
192, 125834.57, -187500.02, -187500.02, -187500.02, 146657.64, -187500.02, -187500.02, -187500.02, 0.00, 0.00, 0.00
193, 126427.79, -187500.02, -187500.02, -187500.02, 147216.88, -187500.02, -187500.02, -187500.02, 0.00, 0.00, 0.00
194, 121888.26, -187500.02, -187500.02, -187500.02, 142705.33, -187500.02, -187500.02, -187500.02, 0.00, 0.00, 0.00
195, 120837.69, -187500.02, -187500.02, -187500.02, 141684.19, -187500.02, -187500.02, -187500.02, 0.00, 0.00, 0.00
196, 125195.83, -187500.02, -187500.02, -187500.02, 146017.38, -187500.02, -187500.02, -187500.02, 0.00, 0.00, 0.00
197, 126970.22, -187500.02, -187500.02, -187500.02, 147754.70, -187500.02, -187500.02, -187500.02, 0.00, 0.00, 0.00
198, 122797.98, -187500.02, -187500.02, -187500.02, 143602.20, -187500.02, -187500.02, -187500.02, 0.00, 0.00, 0.00
199, 120623.17, -187500.02, -187500.02, -187500.02, 141462.42, -187500.02, -187500.02, -187500.02, 0.00, 0.00, 0.00
200, 124450.20, -187500.02, -187500.02, -187500.02, 145275.05, -187500.02, -187500.02, -187500.02, 0.00, 0.00, 0.00
201, 127301.27, -187500.02, -187500.02, -187500.02, 148092.13, -187500.02, -187500.02, -187500.02, 0.00, 0.00, 0.00
202, 123803.02, -187500.02, -187500.02, -187500.02, 144595.16, -187500.02, -187500.02, -187500.02, 0.00, 0.00, 0.00
203, 120636.48, -187500.02, -187500.02, -187500.02, 141474.56, -187500.02, -187500.02, -187500.02, 0.00, 0.00, 0.00
204, 123632.61, -187500.02, -187500.02, -187500.02, 144466.97, -187500.02, -187500.02, -187500.02, 0.00, 0.00, 0.00
205, 127262.49, -187500.02, -187500.02, -187500.02, 148050.11, -187500.02, -187500.02, -187500.02, 0.00, 0.00, 0.00
206, 124623.42, -187500.02, -187500.02, -187500.02, 145405.98, -187500.02, -187500.02, -187500.02, 0.00, 0.00, 0.00
207, 120725.86, -187500.02, -187500.02, -187500.02, 141557.91, -187500.02, -187500.02, -187500.02, 0.00, 0.00, 0.00
208, 122777.39, -187500.02, -187500.02, -187500.02, 143621.44, -187500.02, -187500.02, -187500.02, 0.00, 0.00, 0.00
209, 127035.46, -187500.02, -187500.02, -187500.02, 147830.34, -187500.02, -187500.02, -187500.02, 0.00, 0.00, 0.00
210, 125497.09, -187500.02, -187500.02, -187500.02, 146270.55, -187500.02, -187500.02, -187500.02, 0.00, 0.00, 0.00
211, 121063.52, -187500.02, -187500.02, -187500.02, 141878.88, -187500.02, -187500.02, -187500.02, 0.00, 0.00, 0.00
212, 121984.71, -187500.02, -187500.02, -187500.02, 142824.42, -187500.02, -187500.02, -187500.02, 0.00, 0.00, 0.00
213, 126580.52, -187500.02, -187500.02, -187500.02, 147379.38, -187500.02, -187500.02, -187500.02, 0.00, 0.00, 0.00
214, 126272.91, -187500.02, -187500.02, -187500.02, 147037.70, -187500.02, -187500.02, -187500.02, 0.00, 0.00, 0.00
215, 121662.75, -187500.02, -187500.02, -187500.02, 142463.48, -187500.02, -187500.02, -187500.02, 0.00, 0.00, 0.00
216, 121398.65, -187500.02, -187500.02, -187500.02, 142233.47, -187500.02, -187500.02, -187500.02, 0.00, 0.00, 0.00
217, 125941.66, -187500.02, -187500.02, -187500.02, 146748.50, -187500.02, -187500.02, -187500.02, 0.00, 0.00, 0.00
218, 126892.57, -187500.02, -187500.02, -187500.02, 147668.67, -187500.02, -187500.02, -187500.02, 0.00, 0.00, 0.00
219, 122420.23, -187500.02, -187500.02, -187500.02, 143218.22, -187500.02, -187500.02, -187500.02, 0.00, 0.00, 0.00
220, 120988.45, -187500.02, -187500.02, -187500.02, 141816.66, -187500.02, -187500.02, -187500.02, 0.00, 0.00, 0.00
221, 125179.20, -187500.02, -187500.02, -187500.02, 145993.39, -187500.02, -187500.02, -187500.02, 0.00, 0.00, 0.00
222, 127285.60, -187500.02, -187500.02, -187500.02, 148061.81, -187500.02, -187500.02, -187500.02, 0.00, 0.00, 0.00
223, 123295.73, -187500.02, -187500.02, -187500.02, 144083.05, -187500.02, -187500.02, -187500.02, 0.00, 0.00, 0.00
224, 120752.75, -187500.02, -187500.02, -187500.02, 141578.11, -187500.02, -187500.02, -187500.02, 0.00, 0.00, 0.00
225, 124322.74, -187500.02, -187500.02, -187500.02, 145137.98, -187500.02, -187500.02, -187500.02, 0.00, 0.00, 0.00
226, 127401.70, -187500.02, -187500.02, -187500.02, 148177.16, -187500.02, -187500.02, -187500.02, 0.00, 0.00, 0.00
227, 124141.12, -187500.02, -187500.02, -187500.02, 144923.23, -187500.02, -187500.02, -187500.02, 0.00, 0.00, 0.00
228, 120670.41, -187500.02, -187500.02, -187500.02, 141500.47, -187500.02, -187500.02, -187500.02, 0.00, 0.00, 0.00
229, 123344.01, -187500.02, -187500.02, -187500.02, 144174.80, -187500.02, -187500.02, -187500.02, 0.00, 0.00, 0.00
230, 127190.25, -187500.02, -187500.02, -187500.02, 147975.81, -187500.02, -187500.02, -187500.02, 0.00, 0.00, 0.00
231, 124864.38, -187500.02, -187500.02, -187500.02, 145642.64, -187500.02, -187500.02, -187500.02, 0.00, 0.00, 0.00
232, 120695.82, -187500.02, -187500.02, -187500.02, 141518.95, -187500.02, -187500.02, -187500.02, 0.00, 0.00, 0.00
233, 122346.92, -187500.02, -187500.02, -187500.02, 143184.52, -187500.02, -187500.02, -187500.02, 0.00, 0.00, 0.00
234, 126695.18, -187500.02, -187500.02, -187500.02, 147488.72, -187500.02, -187500.02, -187500.02, 0.00, 0.00, 0.00
235, 125528.17, -187500.02, -187500.02, -187500.02, 146301.02, -187500.02, -187500.02, -187500.02, 0.00, 0.00, 0.00
236, 121015.73, -187500.02, -187500.02, -187500.02, 141824.56, -187500.02, -187500.02, -187500.02, 0.00, 0.00, 0.00
237, 121530.63, -187500.02, -187500.02, -187500.02, 142369.45, -187500.02, -187500.02, -187500.02, 0.00, 0.00, 0.00
238, 126067.26, -187500.02, -187500.02, -187500.02, 146877.13, -187500.02, -187500.02, -187500.02, 0.00, 0.00, 0.00
239, 126183.70, -187500.02, -187500.02, -187500.02, 146962.63, -187500.02, -187500.02, -187500.02, 0.00, 0.00, 0.00
240, 121605.13, -187500.02, -187500.02, -187500.02, 142410.25, -187500.02, -187500.02, -187500.02, 0.00, 0.00, 0.00
241, 120937.20, -187500.02, -187500.02, -187500.02, 141776.53, -187500.02, -187500.02, -187500.02, 0.00, 0.00, 0.00
242, 125396.37, -187500.02, -187500.02, -187500.02, 146205.58, -187500.02, -187500.02, -187500.02, 0.00, 0.00, 0.00
243, 126737.09, -187500.02, -187500.02, -187500.02, 147505.92, -187500.02, -187500.02, -187500.02, 0.00, 0.00, 0.00
244, 122411.29, -187500.02, -187500.02, -187500.02, 143204.25, -187500.02, -187500.02, -187500.02, 0.00, 0.00, 0.00
245, 120622.64, -187500.02, -187500.02, -187500.02, 141457.69, -187500.02, -187500.02, -187500.02, 0.00, 0.00, 0.00
246, 124690.07, -187500.02, -187500.02, -187500.02, 145504.23, -187500.02, -187500.02, -187500.02, 0.00, 0.00, 0.00
247, 127146.91, -187500.02, -187500.02, -187500.02, 147913.47, -187500.02, -187500.02, -187500.02, 0.00, 0.00, 0.00
248, 123383.37, -187500.02, -187500.02, -187500.02, 144164.80, -187500.02, -187500.02, -187500.02, 0.00, 0.00, 0.00
249, 120573.87, -187500.02, -187500.02, -187500.02, 141399.20, -187500.02, -187500.02, -187500.02, 0.00, 0.00, 0.00
250, 123940.22, -187500.02, -187500.02, -187500.02, 144759.84, -187500.02, -187500.02, -187500.02, 0.00, 0.00, 0.00
251, 127337.08, -187500.02, -187500.02, -187500.02, 148110.83, -187500.02, -187500.02, -187500.02, 0.00, 0.00, 0.00
252, 124402.79, -187500.02, -187500.02, -187500.02, 145177.39, -187500.02, -187500.02, -187500.02, 0.00, 0.00, 0.00
253, 120743.29, -187500.02, -187500.02, -187500.02, 141562.64, -187500.02, -187500.02, -187500.02, 0.00, 0.00, 0.00
254, 123171.50, -187500.02, -187500.02, -187500.02, 143998.50, -187500.02, -187500.02, -187500.02, 0.00, 0.00, 0.00
255, 127273.48, -187500.02, -187500.02, -187500.02, 148064.30, -187500.02, -187500.02, -187500.02, 0.00, 0.00, 0.00
0, 125353.36, -187500.02, -187500.02, -187500.02, 146132.28, -187500.02, -187500.02, -187500.02, 0.00, 0.00, 0.00
1, 121118.80, -187500.02, -187500.02, -187500.02, 141935.16, -187500.02, -187500.02, -187500.02, 0.00, 0.00, 0.00
2, 122419.30, -187500.02, -187500.02, -187500.02, 143245.58, -187500.02, -187500.02, -187500.02, 0.00, 0.00, 0.00
3, 126880.73, -187500.02, -187500.02, -187500.02, 147664.31, -187500.02, -187500.02, -187500.02, 0.00, 0.00, 0.00
4, 126172.91, -187500.02, -187500.02, -187500.02, 146934.66, -187500.02, -187500.02, -187500.02, 0.00, 0.00, 0.00
5, 121605.45, -187500.02, -187500.02, -187500.02, 142408.56, -187500.02, -187500.02, -187500.02, 0.00, 0.00, 0.00
6, 121743.60, -187500.02, -187500.02, -187500.02, 142578.47, -187500.02, -187500.02, -187500.02, 0.00, 0.00, 0.00
7, 126357.60, -187500.02, -187500.02, -187500.02, 147156.59, -187500.02, -187500.02, -187500.02, 0.00, 0.00, 0.00
8, 126920.22, -187500.02, -187500.02, -187500.02, 147680.89, -187500.02, -187500.02, -187500.02, 0.00, 0.00, 0.00
9, 122395.66, -187500.02, -187500.02, -187500.02, 143186.03, -187500.02, -187500.02, -187500.02, 0.00, 0.00, 0.00
10, 121323.66, -187500.02, -187500.02, -187500.02, 142153.48, -187500.02, -187500.02, -187500.02, 0.00, 0.00, 0.00
11, 125630.77, -187500.02, -187500.02, -187500.02, 146437.98, -187500.02, -187500.02, -187500.02, 0.00, 0.00, 0.00
12, 127390.50, -187500.02, -187500.02, -187500.02, 148156.34, -187500.02, -187500.02, -187500.02, 0.00, 0.00, 0.00
13, 123240.88, -187500.02, -187500.02, -187500.02, 144024.00, -187500.02, -187500.02, -187500.02, 0.00, 0.00, 0.00
14, 121081.70, -187500.02, -187500.02, -187500.02, 141906.03, -187500.02, -187500.02, -187500.02, 0.00, 0.00, 0.00
15, 124888.49, -187500.02, -187500.02, -187500.02, 145699.70, -187500.02, -187500.02, -187500.02, 0.00, 0.00, 0.00
16, 127705.41, -187500.02, -187500.02, -187500.02, 148472.95, -187500.02, -187500.02, -187500.02, 0.00, 0.00, 0.00
17, 124190.00, -187500.02, -187500.02, -187500.02, 144962.13, -187500.02, -187500.02, -187500.02, 0.00, 0.00, 0.00
18, 121066.37, -187500.02, -187500.02, -187500.02, 141885.14, -187500.02, -187500.02, -187500.02, 0.00, 0.00, 0.00
19, 124083.89, -187500.02, -187500.02, -187500.02, 144906.31, -187500.02, -187500.02, -187500.02, 0.00, 0.00, 0.00
20, 127723.61, -187500.02, -187500.02, -187500.02, 148498.69, -187500.02, -187500.02, -187500.02, 0.00, 0.00, 0.00
21, 125092.38, -187500.02, -187500.02, -187500.02, 145855.98, -187500.02, -187500.02, -187500.02, 0.00, 0.00, 0.00
22, 121184.25, -187500.02, -187500.02, -187500.02, 141993.28, -187500.02, -187500.02, -187500.02, 0.00, 0.00, 0.00
23, 123259.98, -187500.02, -187500.02, -187500.02, 144080.59, -187500.02, -187500.02, -187500.02, 0.00, 0.00, 0.00
24, 127483.53, -187500.02, -187500.02, -187500.02, 148264.39, -187500.02, -187500.02, -187500.02, 0.00, 0.00, 0.00
25, 125898.37, -187500.02, -187500.02, -187500.02, 146661.30, -187500.02, -187500.02, -187500.02, 0.00, 0.00, 0.00
26, 121477.28, -187500.02, -187500.02, -187500.02, 142282.91, -187500.02, -187500.02, -187500.02, 0.00, 0.00, 0.00
27, 122435.52, -187500.02, -187500.02, -187500.02, 143260.73, -187500.02, -187500.02, -187500.02, 0.00, 0.00, 0.00
28, 126964.59, -187500.02, -187500.02, -187500.02, 147750.86, -187500.02, -187500.02, -187500.02, 0.00, 0.00, 0.00
29, 126615.45, -187500.02, -187500.02, -187500.02, 147377.19, -187500.02, -187500.02, -187500.02, 0.00, 0.00, 0.00
30, 121989.96, -187500.02, -187500.02, -187500.02, 142789.75, -187500.02, -187500.02, -187500.02, 0.00, 0.00, 0.00
31, 121672.30, -187500.02, -187500.02, -187500.02, 142507.98, -187500.02, -187500.02, -187500.02, 0.00, 0.00, 0.00
32, 126169.18, -187500.02, -187500.02, -187500.02, 146970.16, -187500.02, -187500.02, -187500.02, 0.00, 0.00, 0.00
33, 127117.92, -187500.02, -187500.02, -187500.02, 147882.56, -187500.02, -187500.02, -187500.02, 0.00, 0.00, 0.00
34, 122653.23, -187500.02, -187500.02, -187500.02, 143443.59, -187500.02, -187500.02, -187500.02, 0.00, 0.00, 0.00
35, 121221.09, -187500.02, -187500.02, -187500.02, 142053.73, -187500.02, -187500.02, -187500.02, 0.00, 0.00, 0.00
36, 125412.26, -187500.02, -187500.02, -187500.02, 146224.61, -187500.02, -187500.02, -187500.02, 0.00, 0.00, 0.00
37, 127518.51, -187500.02, -187500.02, -187500.02, 148288.23, -187500.02, -187500.02, -187500.02, 0.00, 0.00, 0.00
38, 123498.79, -187500.02, -187500.02, -187500.02, 144280.55, -187500.02, -187500.02, -187500.02, 0.00, 0.00, 0.00
39, 121014.60, -187500.02, -187500.02, -187500.02, 141833.84, -187500.02, -187500.02, -187500.02, 0.00, 0.00, 0.00
40, 124585.69, -187500.02, -187500.02, -187500.02, 145397.38, -187500.02, -187500.02, -187500.02, 0.00, 0.00, 0.00
41, 127719.07, -187500.02, -187500.02, -187500.02, 148487.23, -187500.02, -187500.02, -187500.02, 0.00, 0.00, 0.00
42, 124484.21, -187500.02, -187500.02, -187500.02, 145256.77, -187500.02, -187500.02, -187500.02, 0.00, 0.00, 0.00
43, 121087.06, -187500.02, -187500.02, -187500.02, 141906.17, -187500.02, -187500.02, -187500.02, 0.00, 0.00, 0.00
44, 123792.41, -187500.02, -187500.02, -187500.02, 144610.22, -187500.02, -187500.02, -187500.02, 0.00, 0.00, 0.00
45, 127656.58, -187500.02, -187500.02, -187500.02, 148430.69, -187500.02, -187500.02, -187500.02, 0.00, 0.00, 0.00
46, 125397.55, -187500.02, -187500.02, -187500.02, 146161.72, -187500.02, -187500.02, -187500.02, 0.00, 0.00, 0.00
47, 121323.55, -187500.02, -187500.02, -187500.02, 142127.42, -187500.02, -187500.02, -187500.02, 0.00, 0.00, 0.00
48, 122998.70, -187500.02, -187500.02, -187500.02, 143817.89, -187500.02, -187500.02, -187500.02, 0.00, 0.00, 0.00
49, 127372.23, -187500.02, -187500.02, -187500.02, 148156.09, -187500.02, -187500.02, -187500.02, 0.00, 0.00, 0.00
50, 126245.64, -187500.02, -187500.02, -187500.02, 147008.27, -187500.02, -187500.02, -187500.02, 0.00, 0.00, 0.00
51, 121755.31, -187500.02, -187500.02, -187500.02, 142562.11, -187500.02, -187500.02, -187500.02, 0.00, 0.00, 0.00
52, 122288.80, -187500.02, -187500.02, -187500.02, 143123.44, -187500.02, -187500.02, -187500.02, 0.00, 0.00, 0.00
53, 126843.30, -187500.02, -187500.02, -187500.02, 147643.19, -187500.02, -187500.02, -187500.02, 0.00, 0.00, 0.00
54, 126958.04, -187500.02, -187500.02, -187500.02, 147724.48, -187500.02, -187500.02, -187500.02, 0.00, 0.00, 0.00
55, 122370.52, -187500.02, -187500.02, -187500.02, 143165.06, -187500.02, -187500.02, -187500.02, 0.00, 0.00, 0.00
56, 121716.66, -187500.02, -187500.02, -187500.02, 142544.25, -187500.02, -187500.02, -187500.02, 0.00, 0.00, 0.00
57, 126133.10, -187500.02, -187500.02, -187500.02, 146937.97, -187500.02, -187500.02, -187500.02, 0.00, 0.00, 0.00
58, 127419.04, -187500.02, -187500.02, -187500.02, 148187.66, -187500.02, -187500.02, -187500.02, 0.00, 0.00, 0.00
59, 123059.40, -187500.02, -187500.02, -187500.02, 143852.78, -187500.02, -187500.02, -187500.02, 0.00, 0.00, 0.00
60, 121226.56, -187500.02, -187500.02, -187500.02, 142060.31, -187500.02, -187500.02, -187500.02, 0.00, 0.00, 0.00
61, 125201.02, -187500.02, -187500.02, -187500.02, 146022.06, -187500.02, -187500.02, -187500.02, 0.00, 0.00, 0.00
62, 127631.79, -187500.02, -187500.02, -187500.02, 148402.06, -187500.02, -187500.02, -187500.02, 0.00, 0.00, 0.00
63, 123864.13, -187500.02, -187500.02, -187500.02, 144641.39, -187500.02, -187500.02, -187500.02, 0.00, 0.00, 0.00
64, 121028.50, -187500.02, -187500.02, -187500.02, 141853.08, -187500.02, -187500.02, -187500.02, 0.00, 0.00, 0.00
65, 124344.78, -187500.02, -187500.02, -187500.02, 145167.72, -187500.02, -187500.02, -187500.02, 0.00, 0.00, 0.00
66, 127742.30, -187500.02, -187500.02, -187500.02, 148524.75, -187500.02, -187500.02, -187500.02, 0.00, 0.00, 0.00
67, 124778.66, -187500.02, -187500.02, -187500.02, 145562.84, -187500.02, -187500.02, -187500.02, 0.00, 0.00, 0.00
68, 121101.77, -187500.02, -187500.02, -187500.02, 141931.11, -187500.02, -187500.02, -187500.02, 0.00, 0.00, 0.00
69, 123491.73, -187500.02, -187500.02, -187500.02, 144330.19, -187500.02, -187500.02, -187500.02, 0.00, 0.00, 0.00
70, 127575.41, -187500.02, -187500.02, -187500.02, 148367.23, -187500.02, -187500.02, -187500.02, 0.00, 0.00, 0.00
71, 125656.45, -187500.02, -187500.02, -187500.02, 146434.05, -187500.02, -187500.02, -187500.02, 0.00, 0.00, 0.00
72, 121367.87, -187500.02, -187500.02, -187500.02, 142189.67, -187500.02, -187500.02, -187500.02, 0.00, 0.00, 0.00
73, 122689.66, -187500.02, -187500.02, -187500.02, 143526.00, -187500.02, -187500.02, -187500.02, 0.00, 0.00, 0.00
74, 127172.10, -187500.02, -187500.02, -187500.02, 147968.95, -187500.02, -187500.02, -187500.02, 0.00, 0.00, 0.00
75, 126418.27, -187500.02, -187500.02, -187500.02, 147196.22, -187500.02, -187500.02, -187500.02, 0.00, 0.00, 0.00
76, 121857.66, -187500.02, -187500.02, -187500.02, 142681.66, -187500.02, -187500.02, -187500.02, 0.00, 0.00, 0.00
77, 122010.08, -187500.02, -187500.02, -187500.02, 142862.83, -187500.02, -187500.02, -187500.02, 0.00, 0.00, 0.00
78, 126562.34, -187500.02, -187500.02, -187500.02, 147381.11, -187500.02, -187500.02, -187500.02, 0.00, 0.00, 0.00
79, 127092.22, -187500.02, -187500.02, -187500.02, 147881.45, -187500.02, -187500.02, -187500.02, 0.00, 0.00, 0.00
80, 122573.38, -187500.02, -187500.02, -187500.02, 143396.36, -187500.02, -187500.02, -187500.02, 0.00, 0.00, 0.00
81, 121504.75, -187500.02, -187500.02, -187500.02, 142354.52, -187500.02, -187500.02, -187500.02, 0.00, 0.00, 0.00
82, 125824.40, -187500.02, -187500.02, -187500.02, 146652.86, -187500.02, -187500.02, -187500.02, 0.00, 0.00, 0.00
83, 127520.09, -187500.02, -187500.02, -187500.02, 148313.08, -187500.02, -187500.02, -187500.02, 0.00, 0.00, 0.00
84, 123336.66, -187500.02, -187500.02, -187500.02, 144152.66, -187500.02, -187500.02, -187500.02, 0.00, 0.00, 0.00
85, 121144.91, -187500.02, -187500.02, -187500.02, 142003.59, -187500.02, -187500.02, -187500.02, 0.00, 0.00, 0.00
86, 124962.43, -187500.02, -187500.02, -187500.02, 145808.61, -187500.02, -187500.02, -187500.02, 0.00, 0.00, 0.00
87, 127691.91, -187500.02, -187500.02, -187500.02, 148490.41, -187500.02, -187500.02, -187500.02, 0.00, 0.00, 0.00
88, 124111.95, -187500.02, -187500.02, -187500.02, 144914.27, -187500.02, -187500.02, -187500.02, 0.00, 0.00, 0.00
89, 120959.43, -187500.02, -187500.02, -187500.02, 141812.63, -187500.02, -187500.02, -187500.02, 0.00, 0.00, 0.00
90, 123995.00, -187500.02, -187500.02, -187500.02, 144846.41, -187500.02, -187500.02, -187500.02, 0.00, 0.00, 0.00
91, 127604.41, -187500.02, -187500.02, -187500.02, 148408.09, -187500.02, -187500.02, -187500.02, 0.00, 0.00, 0.00
92, 124986.32, -187500.02, -187500.02, -187500.02, 145788.63, -187500.02, -187500.02, -187500.02, 0.00, 0.00, 0.00
93, 121099.96, -187500.02, -187500.02, -187500.02, 141946.73, -187500.02, -187500.02, -187500.02, 0.00, 0.00, 0.00
94, 123125.95, -187500.02, -187500.02, -187500.02, 143979.78, -187500.02, -187500.02, -187500.02, 0.00, 0.00, 0.00
95, 127356.05, -187500.02, -187500.02, -187500.02, 148164.75, -187500.02, -187500.02, -187500.02, 0.00, 0.00, 0.00
96, 125797.42, -187500.02, -187500.02, -187500.02, 146593.59, -187500.02, -187500.02, -187500.02, 0.00, 0.00, 0.00
97, 121416.20, -187500.02, -187500.02, -187500.02, 142251.38, -187500.02, -187500.02, -187500.02, 0.00, 0.00, 0.00
98, 122353.60, -187500.02, -187500.02, -187500.02, 143209.39, -187500.02, -187500.02, -187500.02, 0.00, 0.00, 0.00
99, 126900.08, -187500.02, -187500.02, -187500.02, 147719.67, -187500.02, -187500.02, -187500.02, 0.00, 0.00, 0.00
100, 126587.60, -187500.02, -187500.02, -187500.02, 147376.73, -187500.02, -187500.02, -187500.02, 0.00, 0.00, 0.00
101, 122000.63, -187500.02, -187500.02, -187500.02, 142823.55, -187500.02, -187500.02, -187500.02, 0.00, 0.00, 0.00
102, 121757.99, -187500.02, -187500.02, -187500.02, 142611.91, -187500.02, -187500.02, -187500.02, 0.00, 0.00, 0.00
103, 126242.52, -187500.02, -187500.02, -187500.02, 147066.88, -187500.02, -187500.02, -187500.02, 0.00, 0.00, 0.00
104, 127155.13, -187500.02, -187500.02, -187500.02, 147942.61, -187500.02, -187500.02, -187500.02, 0.00, 0.00, 0.00
105, 122671.87, -187500.02, -187500.02, -187500.02, 143487.78, -187500.02, -187500.02, -187500.02, 0.00, 0.00, 0.00
106, 121208.77, -187500.02, -187500.02, -187500.02, 142063.70, -187500.02, -187500.02, -187500.02, 0.00, 0.00, 0.00
107, 125359.33, -187500.02, -187500.02, -187500.02, 146196.63, -187500.02, -187500.02, -187500.02, 0.00, 0.00, 0.00
108, 127416.54, -187500.02, -187500.02, -187500.02, 148220.31, -187500.02, -187500.02, -187500.02, 0.00, 0.00, 0.00
109, 123394.79, -187500.02, -187500.02, -187500.02, 144211.80, -187500.02, -187500.02, -187500.02, 0.00, 0.00, 0.00
110, 120895.58, -187500.02, -187500.02, -187500.02, 141752.72, -187500.02, -187500.02, -187500.02, 0.00, 0.00, 0.00
111, 124443.38, -187500.02, -187500.02, -187500.02, 145294.25, -187500.02, -187500.02, -187500.02, 0.00, 0.00, 0.00
112, 127531.52, -187500.02, -187500.02, -187500.02, 148338.44, -187500.02, -187500.02, -187500.02, 0.00, 0.00, 0.00
113, 124264.01, -187500.02, -187500.02, -187500.02, 145065.45, -187500.02, -187500.02, -187500.02, 0.00, 0.00, 0.00
114, 120779.91, -187500.02, -187500.02, -187500.02, 141625.92, -187500.02, -187500.02, -187500.02, 0.00, 0.00, 0.00
115, 123515.91, -187500.02, -187500.02, -187500.02, 144365.89, -187500.02, -187500.02, -187500.02, 0.00, 0.00, 0.00
116, 127338.94, -187500.02, -187500.02, -187500.02, 148148.98, -187500.02, -187500.02, -187500.02, 0.00, 0.00, 0.00
117, 125026.65, -187500.02, -187500.02, -187500.02, 145834.00, -187500.02, -187500.02, -187500.02, 0.00, 0.00, 0.00
118, 120884.35, -187500.02, -187500.02, -187500.02, 141736.27, -187500.02, -187500.02, -187500.02, 0.00, 0.00, 0.00
119, 122579.22, -187500.02, -187500.02, -187500.02, 143440.13, -187500.02, -187500.02, -187500.02, 0.00, 0.00, 0.00
120, 126910.36, -187500.02, -187500.02, -187500.02, 147727.91, -187500.02, -187500.02, -187500.02, 0.00, 0.00, 0.00
121, 125777.60, -187500.02, -187500.02, -187500.02, 146567.98, -187500.02, -187500.02, -187500.02, 0.00, 0.00, 0.00
122, 121341.60, -187500.02, -187500.02, -187500.02, 142171.31, -187500.02, -187500.02, -187500.02, 0.00, 0.00, 0.00
123, 121868.03, -187500.02, -187500.02, -187500.02, 142722.77, -187500.02, -187500.02, -187500.02, 0.00, 0.00, 0.00
124, 126395.60, -187500.02, -187500.02, -187500.02, 147224.31, -187500.02, -187500.02, -187500.02, 0.00, 0.00, 0.00
125, 126505.33, -187500.02, -187500.02, -187500.02, 147311.30, -187500.02, -187500.02, -187500.02, 0.00, 0.00, 0.00
126, 121939.22, -187500.02, -187500.02, -187500.02, 142777.84, -187500.02, -187500.02, -187500.02, 0.00, 0.00, 0.00
127, 121289.99, -187500.02, -187500.02, -187500.02, 142163.77, -187500.02, -187500.02, -187500.02, 0.00, 0.00, 0.00
128, 125710.41, -187500.02, -187500.02, -187500.02, 146555.89, -187500.02, -187500.02, -187500.02, 0.00, 0.00, 0.00
129, 127024.29, -187500.02, -187500.02, -187500.02, 147838.52, -187500.02, -187500.02, -187500.02, 0.00, 0.00, 0.00
130, 122709.58, -187500.02, -187500.02, -187500.02, 143552.64, -187500.02, -187500.02, -187500.02, 0.00, 0.00, 0.00
131, 120920.19, -187500.02, -187500.02, -187500.02, 141803.80, -187500.02, -187500.02, -187500.02, 0.00, 0.00, 0.00
132, 124910.24, -187500.02, -187500.02, -187500.02, 145770.77, -187500.02, -187500.02, -187500.02, 0.00, 0.00, 0.00
133, 127364.39, -187500.02, -187500.02, -187500.02, 148183.77, -187500.02, -187500.02, -187500.02, 0.00, 0.00, 0.00
134, 123603.53, -187500.02, -187500.02, -187500.02, 144438.16, -187500.02, -187500.02, -187500.02, 0.00, 0.00, 0.00
135, 120796.69, -187500.02, -187500.02, -187500.02, 141670.17, -187500.02, -187500.02, -187500.02, 0.00, 0.00, 0.00
136, 124099.09, -187500.02, -187500.02, -187500.02, 144965.11, -187500.02, -187500.02, -187500.02, 0.00, 0.00, 0.00
137, 127444.14, -187500.02, -187500.02, -187500.02, 148268.97, -187500.02, -187500.02, -187500.02, 0.00, 0.00, 0.00
138, 124491.14, -187500.02, -187500.02, -187500.02, 145312.94, -187500.02, -187500.02, -187500.02, 0.00, 0.00, 0.00
139, 120842.84, -187500.02, -187500.02, -187500.02, 141706.19, -187500.02, -187500.02, -187500.02, 0.00, 0.00, 0.00
140, 123213.61, -187500.02, -187500.02, -187500.02, 144086.11, -187500.02, -187500.02, -187500.02, 0.00, 0.00, 0.00
141, 127233.30, -187500.02, -187500.02, -187500.02, 148064.72, -187500.02, -187500.02, -187500.02, 0.00, 0.00, 0.00
142, 125268.38, -187500.02, -187500.02, -187500.02, 146090.13, -187500.02, -187500.02, -187500.02, 0.00, 0.00, 0.00
143, 121008.02, -187500.02, -187500.02, -187500.02, 141873.89, -187500.02, -187500.02, -187500.02, 0.00, 0.00, 0.00
144, 122301.84, -187500.02, -187500.02, -187500.02, 143184.20, -187500.02, -187500.02, -187500.02, 0.00, 0.00, 0.00
145, 126752.13, -187500.02, -187500.02, -187500.02, 147598.28, -187500.02, -187500.02, -187500.02, 0.00, 0.00, 0.00
146, 126019.16, -187500.02, -187500.02, -187500.02, 146843.94, -187500.02, -187500.02, -187500.02, 0.00, 0.00, 0.00
147, 121432.06, -187500.02, -187500.02, -187500.02, 142297.44, -187500.02, -187500.02, -187500.02, 0.00, 0.00, 0.00
148, 121611.37, -187500.02, -187500.02, -187500.02, 142507.44, -187500.02, -187500.02, -187500.02, 0.00, 0.00, 0.00
149, 126194.68, -187500.02, -187500.02, -187500.02, 147052.48, -187500.02, -187500.02, -187500.02, 0.00, 0.00, 0.00
150, 126690.48, -187500.02, -187500.02, -187500.02, 147514.94, -187500.02, -187500.02, -187500.02, 0.00, 0.00, 0.00
151, 122127.98, -187500.02, -187500.02, -187500.02, 142980.95, -187500.02, -187500.02, -187500.02, 0.00, 0.00, 0.00
152, 121119.45, -187500.02, -187500.02, -187500.02, 142011.77, -187500.02, -187500.02, -187500.02, 0.00, 0.00, 0.00
153, 125455.06, -187500.02, -187500.02, -187500.02, 146331.14, -187500.02, -187500.02, -187500.02, 0.00, 0.00, 0.00
154, 127147.94, -187500.02, -187500.02, -187500.02, 147984.13, -187500.02, -187500.02, -187500.02, 0.00, 0.00, 0.00
155, 122952.54, -187500.02, -187500.02, -187500.02, 143810.34, -187500.02, -187500.02, -187500.02, 0.00, 0.00, 0.00
156, 120825.46, -187500.02, -187500.02, -187500.02, 141721.66, -187500.02, -187500.02, -187500.02, 0.00, 0.00, 0.00
157, 124596.69, -187500.02, -187500.02, -187500.02, 145479.55, -187500.02, -187500.02, -187500.02, 0.00, 0.00, 0.00
158, 127352.37, -187500.02, -187500.02, -187500.02, 148190.08, -187500.02, -187500.02, -187500.02, 0.00, 0.00, 0.00
159, 123825.93, -187500.02, -187500.02, -187500.02, 144672.80, -187500.02, -187500.02, -187500.02, 0.00, 0.00, 0.00
160, 120712.02, -187500.02, -187500.02, -187500.02, 141607.73, -187500.02, -187500.02, -187500.02, 0.00, 0.00, 0.00
161, 123702.91, -187500.02, -187500.02, -187500.02, 144593.20, -187500.02, -187500.02, -187500.02, 0.00, 0.00, 0.00
162, 127304.52, -187500.02, -187500.02, -187500.02, 148153.45, -187500.02, -187500.02, -187500.02, 0.00, 0.00, 0.00
163, 124677.89, -187500.02, -187500.02, -187500.02, 145525.16, -187500.02, -187500.02, -187500.02, 0.00, 0.00, 0.00
164, 120814.69, -187500.02, -187500.02, -187500.02, 141702.02, -187500.02, -187500.02, -187500.02, 0.00, 0.00, 0.00
165, 122813.96, -187500.02, -187500.02, -187500.02, 143708.48, -187500.02, -187500.02, -187500.02, 0.00, 0.00, 0.00
166, 127007.23, -187500.02, -187500.02, -187500.02, 147857.14, -187500.02, -187500.02, -187500.02, 0.00, 0.00, 0.00
167, 125473.52, -187500.02, -187500.02, -187500.02, 146310.52, -187500.02, -187500.02, -187500.02, 0.00, 0.00, 0.00
168, 121115.56, -187500.02, -187500.02, -187500.02, 141996.36, -187500.02, -187500.02, -187500.02, 0.00, 0.00, 0.00
169, 122005.05, -187500.02, -187500.02, -187500.02, 142907.73, -187500.02, -187500.02, -187500.02, 0.00, 0.00, 0.00
170, 126454.52, -187500.02, -187500.02, -187500.02, 147319.03, -187500.02, -187500.02, -187500.02, 0.00, 0.00, 0.00
171, 126133.51, -187500.02, -187500.02, -187500.02, 146968.22, -187500.02, -187500.02, -187500.02, 0.00, 0.00, 0.00
172, 121551.71, -187500.02, -187500.02, -187500.02, 142421.64, -187500.02, -187500.02, -187500.02, 0.00, 0.00, 0.00
173, 121301.08, -187500.02, -187500.02, -187500.02, 142196.97, -187500.02, -187500.02, -187500.02, 0.00, 0.00, 0.00
174, 125777.38, -187500.02, -187500.02, -187500.02, 146644.11, -187500.02, -187500.02, -187500.02, 0.00, 0.00, 0.00
175, 126682.91, -187500.02, -187500.02, -187500.02, 147517.44, -187500.02, -187500.02, -187500.02, 0.00, 0.00, 0.00
176, 122289.92, -187500.02, -187500.02, -187500.02, 143150.05, -187500.02, -187500.02, -187500.02, 0.00, 0.00, 0.00
177, 120890.70, -187500.02, -187500.02, -187500.02, 141784.13, -187500.02, -187500.02, -187500.02, 0.00, 0.00, 0.00
178, 125067.86, -187500.02, -187500.02, -187500.02, 145947.41, -187500.02, -187500.02, -187500.02, 0.00, 0.00, 0.00
179, 127149.26, -187500.02, -187500.02, -187500.02, 147993.94, -187500.02, -187500.02, -187500.02, 0.00, 0.00, 0.00
180, 123169.77, -187500.02, -187500.02, -187500.02, 144029.09, -187500.02, -187500.02, -187500.02, 0.00, 0.00, 0.00
181, 120685.45, -187500.02, -187500.02, -187500.02, 141588.14, -187500.02, -187500.02, -187500.02, 0.00, 0.00, 0.00
182, 124271.91, -187500.02, -187500.02, -187500.02, 145169.08, -187500.02, -187500.02, -187500.02, 0.00, 0.00, 0.00
183, 127355.95, -187500.02, -187500.02, -187500.02, 148205.63, -187500.02, -187500.02, -187500.02, 0.00, 0.00, 0.00
184, 124090.29, -187500.02, -187500.02, -187500.02, 144941.06, -187500.02, -187500.02, -187500.02, 0.00, 0.00, 0.00
185, 120709.34, -187500.02, -187500.02, -187500.02, 141602.30, -187500.02, -187500.02, -187500.02, 0.00, 0.00, 0.00
186, 123469.34, -187500.02, -187500.02, -187500.02, 144372.70, -187500.02, -187500.02, -187500.02, 0.00, 0.00, 0.00
187, 127300.09, -187500.02, -187500.02, -187500.02, 148165.91, -187500.02, -187500.02, -187500.02, 0.00, 0.00, 0.00
188, 125013.10, -187500.02, -187500.02, -187500.02, 145867.25, -187500.02, -187500.02, -187500.02, 0.00, 0.00, 0.00
189, 120942.67, -187500.02, -187500.02, -187500.02, 141840.39, -187500.02, -187500.02, -187500.02, 0.00, 0.00, 0.00
190, 122608.16, -187500.02, -187500.02, -187500.02, 143516.75, -187500.02, -187500.02, -187500.02, 0.00, 0.00, 0.00
191, 126951.87, -187500.02, -187500.02, -187500.02, 147817.48, -187500.02, -187500.02, -187500.02, 0.00, 0.00, 0.00
192, 125816.04, -187500.02, -187500.02, -187500.02, 146662.27, -187500.02, -187500.02, -187500.02, 0.00, 0.00, 0.00
193, 121365.45, -187500.02, -187500.02, -187500.02, 142246.97, -187500.02, -187500.02, -187500.02, 0.00, 0.00, 0.00
194, 121949.73, -187500.02, -187500.02, -187500.02, 142852.08, -187500.02, -187500.02, -187500.02, 0.00, 0.00, 0.00
195, 126468.29, -187500.02, -187500.02, -187500.02, 147342.03, -187500.02, -187500.02, -187500.02, 0.00, 0.00, 0.00
196, 126533.02, -187500.02, -187500.02, -187500.02, 147378.59, -187500.02, -187500.02, -187500.02, 0.00, 0.00, 0.00
197, 122017.61, -187500.02, -187500.02, -187500.02, 142899.14, -187500.02, -187500.02, -187500.02, 0.00, 0.00, 0.00
198, 121347.57, -187500.02, -187500.02, -187500.02, 142265.63, -187500.02, -187500.02, -187500.02, 0.00, 0.00, 0.00
199, 125700.82, -187500.02, -187500.02, -187500.02, 146594.38, -187500.02, -187500.02, -187500.02, 0.00, 0.00, 0.00
200, 126991.74, -187500.02, -187500.02, -187500.02, 147847.47, -187500.02, -187500.02, -187500.02, 0.00, 0.00, 0.00
201, 122651.75, -187500.02, -187500.02, -187500.02, 143528.97, -187500.02, -187500.02, -187500.02, 0.00, 0.00, 0.00
202, 120845.04, -187500.02, -187500.02, -187500.02, 141760.06, -187500.02, -187500.02, -187500.02, 0.00, 0.00, 0.00
203, 124815.00, -187500.02, -187500.02, -187500.02, 145709.81, -187500.02, -187500.02, -187500.02, 0.00, 0.00, 0.00
204, 127223.58, -187500.02, -187500.02, -187500.02, 148070.28, -187500.02, -187500.02, -187500.02, 0.00, 0.00, 0.00
205, 123435.05, -187500.02, -187500.02, -187500.02, 144294.67, -187500.02, -187500.02, -187500.02, 0.00, 0.00, 0.00
206, 120616.49, -187500.02, -187500.02, -187500.02, 141525.45, -187500.02, -187500.02, -187500.02, 0.00, 0.00, 0.00
207, 123930.72, -187500.02, -187500.02, -187500.02, 144848.34, -187500.02, -187500.02, -187500.02, 0.00, 0.00, 0.00
208, 127285.27, -187500.02, -187500.02, -187500.02, 148161.64, -187500.02, -187500.02, -187500.02, 0.00, 0.00, 0.00
209, 124284.88, -187500.02, -187500.02, -187500.02, 145158.92, -187500.02, -187500.02, -187500.02, 0.00, 0.00, 0.00
210, 120626.86, -187500.02, -187500.02, -187500.02, 141550.11, -187500.02, -187500.02, -187500.02, 0.00, 0.00, 0.00
211, 123058.51, -187500.02, -187500.02, -187500.02, 143986.05, -187500.02, -187500.02, -187500.02, 0.00, 0.00, 0.00
212, 127094.43, -187500.02, -187500.02, -187500.02, 147978.44, -187500.02, -187500.02, -187500.02, 0.00, 0.00, 0.00
213, 125159.48, -187500.02, -187500.02, -187500.02, 146031.27, -187500.02, -187500.02, -187500.02, 0.00, 0.00, 0.00
214, 120899.60, -187500.02, -187500.02, -187500.02, 141806.03, -187500.02, -187500.02, -187500.02, 0.00, 0.00, 0.00
215, 122259.37, -187500.02, -187500.02, -187500.02, 143179.30, -187500.02, -187500.02, -187500.02, 0.00, 0.00, 0.00
216, 126692.61, -187500.02, -187500.02, -187500.02, 147579.02, -187500.02, -187500.02, -187500.02, 0.00, 0.00, 0.00
217, 125932.16, -187500.02, -187500.02, -187500.02, 146793.38, -187500.02, -187500.02, -187500.02, 0.00, 0.00, 0.00
218, 121391.96, -187500.02, -187500.02, -187500.02, 142286.31, -187500.02, -187500.02, -187500.02, 0.00, 0.00, 0.00
219, 121529.83, -187500.02, -187500.02, -187500.02, 142450.92, -187500.02, -187500.02, -187500.02, 0.00, 0.00, 0.00
220, 126038.94, -187500.02, -187500.02, -187500.02, 146950.27, -187500.02, -187500.02, -187500.02, 0.00, 0.00, 0.00
221, 126525.87, -187500.02, -187500.02, -187500.02, 147414.16, -187500.02, -187500.02, -187500.02, 0.00, 0.00, 0.00
222, 121999.69, -187500.02, -187500.02, -187500.02, 142915.66, -187500.02, -187500.02, -187500.02, 0.00, 0.00, 0.00
223, 120956.62, -187500.02, -187500.02, -187500.02, 141913.64, -187500.02, -187500.02, -187500.02, 0.00, 0.00, 0.00
224, 125254.26, -187500.02, -187500.02, -187500.02, 146197.69, -187500.02, -187500.02, -187500.02, 0.00, 0.00, 0.00
225, 126945.12, -187500.02, -187500.02, -187500.02, 147863.63, -187500.02, -187500.02, -187500.02, 0.00, 0.00, 0.00
226, 122761.09, -187500.02, -187500.02, -187500.02, 143713.28, -187500.02, -187500.02, -187500.02, 0.00, 0.00, 0.00
227, 120593.60, -187500.02, -187500.02, -187500.02, 141593.41, -187500.02, -187500.02, -187500.02, 0.00, 0.00, 0.00
228, 124322.81, -187500.02, -187500.02, -187500.02, 145324.27, -187500.02, -187500.02, -187500.02, 0.00, 0.00, 0.00
229, 127027.51, -187500.02, -187500.02, -187500.02, 147998.00, -187500.02, -187500.02, -187500.02, 0.00, 0.00, 0.00
230, 123460.70, -187500.02, -187500.02, -187500.02, 144445.69, -187500.02, -187500.02, -187500.02, 0.00, 0.00, 0.00
231, 120327.77, -187500.02, -187500.02, -187500.02, 141357.34, -187500.02, -187500.02, -187500.02, 0.00, 0.00, 0.00
232, 123349.35, -187500.02, -187500.02, -187500.02, 144378.88, -187500.02, -187500.02, -187500.02, 0.00, 0.00, 0.00
233, 126931.69, -187500.02, -187500.02, -187500.02, 147914.08, -187500.02, -187500.02, -187500.02, 0.00, 0.00, 0.00
234, 124284.55, -187500.02, -187500.02, -187500.02, 145259.16, -187500.02, -187500.02, -187500.02, 0.00, 0.00, 0.00
235, 120427.06, -187500.02, -187500.02, -187500.02, 141439.02, -187500.02, -187500.02, -187500.02, 0.00, 0.00, 0.00
236, 122464.58, -187500.02, -187500.02, -187500.02, 143490.44, -187500.02, -187500.02, -187500.02, 0.00, 0.00, 0.00
237, 126640.20, -187500.02, -187500.02, -187500.02, 147631.91, -187500.02, -187500.02, -187500.02, 0.00, 0.00, 0.00
238, 125093.39, -187500.02, -187500.02, -187500.02, 146073.31, -187500.02, -187500.02, -187500.02, 0.00, 0.00, 0.00
239, 120706.13, -187500.02, -187500.02, -187500.02, 141730.39, -187500.02, -187500.02, -187500.02, 0.00, 0.00, 0.00
240, 121644.78, -187500.02, -187500.02, -187500.02, 142692.44, -187500.02, -187500.02, -187500.02, 0.00, 0.00, 0.00
241, 126159.21, -187500.02, -187500.02, -187500.02, 147168.16, -187500.02, -187500.02, -187500.02, 0.00, 0.00, 0.00
242, 125823.55, -187500.02, -187500.02, -187500.02, 146800.91, -187500.02, -187500.02, -187500.02, 0.00, 0.00, 0.00
243, 121253.27, -187500.02, -187500.02, -187500.02, 142264.56, -187500.02, -187500.02, -187500.02, 0.00, 0.00, 0.00
244, 121013.84, -187500.02, -187500.02, -187500.02, 142053.02, -187500.02, -187500.02, -187500.02, 0.00, 0.00, 0.00
245, 125497.51, -187500.02, -187500.02, -187500.02, 146508.86, -187500.02, -187500.02, -187500.02, 0.00, 0.00, 0.00
246, 126370.99, -187500.02, -187500.02, -187500.02, 147348.42, -187500.02, -187500.02, -187500.02, 0.00, 0.00, 0.00
247, 121928.16, -187500.02, -187500.02, -187500.02, 142934.28, -187500.02, -187500.02, -187500.02, 0.00, 0.00, 0.00
248, 120501.58, -187500.02, -187500.02, -187500.02, 141539.20, -187500.02, -187500.02, -187500.02, 0.00, 0.00, 0.00
249, 124673.58, -187500.02, -187500.02, -187500.02, 145691.48, -187500.02, -187500.02, -187500.02, 0.00, 0.00, 0.00
250, 126709.11, -187500.02, -187500.02, -187500.02, 147686.94, -187500.02, -187500.02, -187500.02, 0.00, 0.00, 0.00
251, 122711.99, -187500.02, -187500.02, -187500.02, 143699.97, -187500.02, -187500.02, -187500.02, 0.00, 0.00, 0.00
252, 120242.19, -187500.02, -187500.02, -187500.02, 141271.02, -187500.02, -187500.02, -187500.02, 0.00, 0.00, 0.00
253, 123866.68, -187500.02, -187500.02, -187500.02, 144890.08, -187500.02, -187500.02, -187500.02, 0.00, 0.00, 0.00
254, 126882.02, -187500.02, -187500.02, -187500.02, 147868.70, -187500.02, -187500.02, -187500.02, 0.00, 0.00, 0.00
255, 123586.16, -187500.02, -187500.02, -187500.02, 144576.52, -187500.02, -187500.02, -187500.02, 0.00, 0.00, 0.00
0, 120204.10, -187500.02, -187500.02, -187500.02, 141234.88, -187500.02, -187500.02, -187500.02, 0.00, 0.00, 0.00
1, 122846.86, -187500.02, -187500.02, -187500.02, 143881.23, -187500.02, -187500.02, -187500.02, 0.00, 0.00, 0.00
2, 126618.98, -187500.02, -187500.02, -187500.02, 147609.89, -187500.02, -187500.02, -187500.02, 0.00, 0.00, 0.00
3, 124280.70, -187500.02, -187500.02, -187500.02, 145262.53, -187500.02, -187500.02, -187500.02, 0.00, 0.00, 0.00
4, 120210.65, -187500.02, -187500.02, -187500.02, 141237.50, -187500.02, -187500.02, -187500.02, 0.00, 0.00, 0.00
5, 121863.63, -187500.02, -187500.02, -187500.02, 142902.36, -187500.02, -187500.02, -187500.02, 0.00, 0.00, 0.00
6, 126171.41, -187500.02, -187500.02, -187500.02, 147182.64, -187500.02, -187500.02, -187500.02, 0.00, 0.00, 0.00
7, 125015.59, -187500.02, -187500.02, -187500.02, 146009.77, -187500.02, -187500.02, -187500.02, 0.00, 0.00, 0.00
8, 120573.33, -187500.02, -187500.02, -187500.02, 141606.16, -187500.02, -187500.02, -187500.02, 0.00, 0.00, 0.00
9, 121111.78, -187500.02, -187500.02, -187500.02, 142165.58, -187500.02, -187500.02, -187500.02, 0.00, 0.00, 0.00
10, 125604.15, -187500.02, -187500.02, -187500.02, 146618.52, -187500.02, -187500.02, -187500.02, 0.00, 0.00, 0.00
11, 125666.95, -187500.02, -187500.02, -187500.02, 146649.28, -187500.02, -187500.02, -187500.02, 0.00, 0.00, 0.00
12, 121129.42, -187500.02, -187500.02, -187500.02, 142135.83, -187500.02, -187500.02, -187500.02, 0.00, 0.00, 0.00
13, 120476.97, -187500.02, -187500.02, -187500.02, 141524.98, -187500.02, -187500.02, -187500.02, 0.00, 0.00, 0.00
14, 124815.35, -187500.02, -187500.02, -187500.02, 145854.56, -187500.02, -187500.02, -187500.02, 0.00, 0.00, 0.00
15, 126092.29, -187500.02, -187500.02, -187500.02, 147086.56, -187500.02, -187500.02, -187500.02, 0.00, 0.00, 0.00
16, 121810.14, -187500.02, -187500.02, -187500.02, 142808.89, -187500.02, -187500.02, -187500.02, 0.00, 0.00, 0.00
17, 120012.30, -187500.02, -187500.02, -187500.02, 141051.59, -187500.02, -187500.02, -187500.02, 0.00, 0.00, 0.00
18, 123963.55, -187500.02, -187500.02, -187500.02, 144988.05, -187500.02, -187500.02, -187500.02, 0.00, 0.00, 0.00
19, 126310.95, -187500.02, -187500.02, -187500.02, 147289.97, -187500.02, -187500.02, -187500.02, 0.00, 0.00, 0.00
20, 122557.63, -187500.02, -187500.02, -187500.02, 143537.72, -187500.02, -187500.02, -187500.02, 0.00, 0.00, 0.00
21, 119774.75, -187500.02, -187500.02, -187500.02, 140796.11, -187500.02, -187500.02, -187500.02, 0.00, 0.00, 0.00
22, 123102.54, -187500.02, -187500.02, -187500.02, 144134.19, -187500.02, -187500.02, -187500.02, 0.00, 0.00, 0.00
23, 126416.99, -187500.02, -187500.02, -187500.02, 147400.45, -187500.02, -187500.02, -187500.02, 0.00, 0.00, 0.00
24, 123423.00, -187500.02, -187500.02, -187500.02, 144405.73, -187500.02, -187500.02, -187500.02, 0.00, 0.00, 0.00
25, 119744.41, -187500.02, -187500.02, -187500.02, 140780.52, -187500.02, -187500.02, -187500.02, 0.00, 0.00, 0.00
26, 122201.59, -187500.02, -187500.02, -187500.02, 143258.89, -187500.02, -187500.02, -187500.02, 0.00, 0.00, 0.00
27, 126221.75, -187500.02, -187500.02, -187500.02, 147236.72, -187500.02, -187500.02, -187500.02, 0.00, 0.00, 0.00
28, 124280.52, -187500.02, -187500.02, -187500.02, 145269.41, -187500.02, -187500.02, -187500.02, 0.00, 0.00, 0.00
29, 120040.40, -187500.02, -187500.02, -187500.02, 141061.81, -187500.02, -187500.02, -187500.02, 0.00, 0.00, 0.00
30, 121392.23, -187500.02, -187500.02, -187500.02, 142420.08, -187500.02, -187500.02, -187500.02, 0.00, 0.00, 0.00
31, 125746.04, -187500.02, -187500.02, -187500.02, 146775.30, -187500.02, -187500.02, -187500.02, 0.00, 0.00, 0.00
32, 124950.77, -187500.02, -187500.02, -187500.02, 145960.59, -187500.02, -187500.02, -187500.02, 0.00, 0.00, 0.00
33, 120407.59, -187500.02, -187500.02, -187500.02, 141430.84, -187500.02, -187500.02, -187500.02, 0.00, 0.00, 0.00
34, 120522.03, -187500.02, -187500.02, -187500.02, 141591.70, -187500.02, -187500.02, -187500.02, 0.00, 0.00, 0.00
35, 125033.27, -187500.02, -187500.02, -187500.02, 146077.61, -187500.02, -187500.02, -187500.02, 0.00, 0.00, 0.00
36, 125480.05, -187500.02, -187500.02, -187500.02, 146495.23, -187500.02, -187500.02, -187500.02, 0.00, 0.00, 0.00
37, 120967.86, -187500.02, -187500.02, -187500.02, 142012.19, -187500.02, -187500.02, -187500.02, 0.00, 0.00, 0.00
38, 119956.69, -187500.02, -187500.02, -187500.02, 141031.80, -187500.02, -187500.02, -187500.02, 0.00, 0.00, 0.00
39, 124259.55, -187500.02, -187500.02, -187500.02, 145305.64, -187500.02, -187500.02, -187500.02, 0.00, 0.00, 0.00
40, 125896.82, -187500.02, -187500.02, -187500.02, 146898.28, -187500.02, -187500.02, -187500.02, 0.00, 0.00, 0.00
41, 121731.64, -187500.02, -187500.02, -187500.02, 142751.22, -187500.02, -187500.02, -187500.02, 0.00, 0.00, 0.00
42, 119622.29, -187500.02, -187500.02, -187500.02, 140680.05, -187500.02, -187500.02, -187500.02, 0.00, 0.00, 0.00
43, 123383.23, -187500.02, -187500.02, -187500.02, 144426.63, -187500.02, -187500.02, -187500.02, 0.00, 0.00, 0.00
44, 126092.94, -187500.02, -187500.02, -187500.02, 147102.53, -187500.02, -187500.02, -187500.02, 0.00, 0.00, 0.00
45, 122555.77, -187500.02, -187500.02, -187500.02, 143575.78, -187500.02, -187500.02, -187500.02, 0.00, 0.00, 0.00
46, 119457.42, -187500.02, -187500.02, -187500.02, 140520.06, -187500.02, -187500.02, -187500.02, 0.00, 0.00, 0.00
47, 122468.06, -187500.02, -187500.02, -187500.02, 143530.88, -187500.02, -187500.02, -187500.02, 0.00, 0.00, 0.00
48, 126047.34, -187500.02, -187500.02, -187500.02, 147065.47, -187500.02, -187500.02, -187500.02, 0.00, 0.00, 0.00
49, 123371.55, -187500.02, -187500.02, -187500.02, 144385.16, -187500.02, -187500.02, -187500.02, 0.00, 0.00, 0.00
50, 119498.63, -187500.02, -187500.02, -187500.02, 140549.17, -187500.02, -187500.02, -187500.02, 0.00, 0.00, 0.00
51, 121531.55, -187500.02, -187500.02, -187500.02, 142589.22, -187500.02, -187500.02, -187500.02, 0.00, 0.00, 0.00
52, 125709.96, -187500.02, -187500.02, -187500.02, 146731.63, -187500.02, -187500.02, -187500.02, 0.00, 0.00, 0.00
53, 124148.40, -187500.02, -187500.02, -187500.02, 145157.56, -187500.02, -187500.02, -187500.02, 0.00, 0.00, 0.00
54, 119797.79, -187500.02, -187500.02, -187500.02, 140852.78, -187500.02, -187500.02, -187500.02, 0.00, 0.00, 0.00
55, 120720.72, -187500.02, -187500.02, -187500.02, 141804.00, -187500.02, -187500.02, -187500.02, 0.00, 0.00, 0.00
56, 125196.66, -187500.02, -187500.02, -187500.02, 146244.63, -187500.02, -187500.02, -187500.02, 0.00, 0.00, 0.00
57, 124843.90, -187500.02, -187500.02, -187500.02, 145869.56, -187500.02, -187500.02, -187500.02, 0.00, 0.00, 0.00
58, 120246.75, -187500.02, -187500.02, -187500.02, 141301.89, -187500.02, -187500.02, -187500.02, 0.00, 0.00, 0.00
59, 119989.10, -187500.02, -187500.02, -187500.02, 141065.56, -187500.02, -187500.02, -187500.02, 0.00, 0.00, 0.00
60, 124445.91, -187500.02, -187500.02, -187500.02, 145501.33, -187500.02, -187500.02, -187500.02, 0.00, 0.00, 0.00
61, 125306.09, -187500.02, -187500.02, -187500.02, 146327.67, -187500.02, -187500.02, -187500.02, 0.00, 0.00, 0.00
62, 120833.70, -187500.02, -187500.02, -187500.02, 141882.97, -187500.02, -187500.02, -187500.02, 0.00, 0.00, 0.00
63, 119408.89, -187500.02, -187500.02, -187500.02, 140502.23, -187500.02, -187500.02, -187500.02, 0.00, 0.00, 0.00
64, 123516.27, -187500.02, -187500.02, -187500.02, 144587.69, -187500.02, -187500.02, -187500.02, 0.00, 0.00, 0.00
65, 125556.30, -187500.02, -187500.02, -187500.02, 146583.97, -187500.02, -187500.02, -187500.02, 0.00, 0.00, 0.00
66, 121556.23, -187500.02, -187500.02, -187500.02, 142598.00, -187500.02, -187500.02, -187500.02, 0.00, 0.00, 0.00
67, 119102.25, -187500.02, -187500.02, -187500.02, 140177.02, -187500.02, -187500.02, -187500.02, 0.00, 0.00, 0.00
68, 122637.55, -187500.02, -187500.02, -187500.02, 143697.06, -187500.02, -187500.02, -187500.02, 0.00, 0.00, 0.00
69, 125662.48, -187500.02, -187500.02, -187500.02, 146679.20, -187500.02, -187500.02, -187500.02, 0.00, 0.00, 0.00
70, 122404.36, -187500.02, -187500.02, -187500.02, 143432.34, -187500.02, -187500.02, -187500.02, 0.00, 0.00, 0.00
71, 119027.13, -187500.02, -187500.02, -187500.02, 140098.69, -187500.02, -187500.02, -187500.02, 0.00, 0.00, 0.00
72, 121729.07, -187500.02, -187500.02, -187500.02, 142805.92, -187500.02, -187500.02, -187500.02, 0.00, 0.00, 0.00
73, 125545.19, -187500.02, -187500.02, -187500.02, 146576.50, -187500.02, -187500.02, -187500.02, 0.00, 0.00, 0.00
74, 123261.22, -187500.02, -187500.02, -187500.02, 144268.34, -187500.02, -187500.02, -187500.02, 0.00, 0.00, 0.00
75, 119216.47, -187500.02, -187500.02, -187500.02, 140273.69, -187500.02, -187500.02, -187500.02, 0.00, 0.00, 0.00
76, 120868.57, -187500.02, -187500.02, -187500.02, 141950.27, -187500.02, -187500.02, -187500.02, 0.00, 0.00, 0.00
77, 125189.39, -187500.02, -187500.02, -187500.02, 146228.19, -187500.02, -187500.02, -187500.02, 0.00, 0.00, 0.00
78, 124044.51, -187500.02, -187500.02, -187500.02, 145059.53, -187500.02, -187500.02, -187500.02, 0.00, 0.00, 0.00
79, 119592.52, -187500.02, -187500.02, -187500.02, 140649.67, -187500.02, -187500.02, -187500.02, 0.00, 0.00, 0.00
80, 120152.55, -187500.02, -187500.02, -187500.02, 141229.89, -187500.02, -187500.02, -187500.02, 0.00, 0.00, 0.00
81, 124663.19, -187500.02, -187500.02, -187500.02, 145701.61, -187500.02, -187500.02, -187500.02, 0.00, 0.00, 0.00
82, 124729.84, -187500.02, -187500.02, -187500.02, 145742.25, -187500.02, -187500.02, -187500.02, 0.00, 0.00, 0.00
83, 120138.23, -187500.02, -187500.02, -187500.02, 141179.88, -187500.02, -187500.02, -187500.02, 0.00, 0.00, 0.00
84, 119492.34, -187500.02, -187500.02, -187500.02, 140561.48, -187500.02, -187500.02, -187500.02, 0.00, 0.00, 0.00
85, 123899.78, -187500.02, -187500.02, -187500.02, 144955.63, -187500.02, -187500.02, -187500.02, 0.00, 0.00, 0.00
86, 125162.12, -187500.02, -187500.02, -187500.02, 146183.73, -187500.02, -187500.02, -187500.02, 0.00, 0.00, 0.00
87, 120826.46, -187500.02, -187500.02, -187500.02, 141870.97, -187500.02, -187500.02, -187500.02, 0.00, 0.00, 0.00
88, 119052.88, -187500.02, -187500.02, -187500.02, 140131.89, -187500.02, -187500.02, -187500.02, 0.00, 0.00, 0.00
89, 123067.27, -187500.02, -187500.02, -187500.02, 144131.00, -187500.02, -187500.02, -187500.02, 0.00, 0.00, 0.00
90, 125435.26, -187500.02, -187500.02, -187500.02, 146461.97, -187500.02, -187500.02, -187500.02, 0.00, 0.00, 0.00
91, 121629.85, -187500.02, -187500.02, -187500.02, 142665.53, -187500.02, -187500.02, -187500.02, 0.00, 0.00, 0.00
92, 118809.38, -187500.02, -187500.02, -187500.02, 139882.23, -187500.02, -187500.02, -187500.02, 0.00, 0.00, 0.00
93, 122084.38, -187500.02, -187500.02, -187500.02, 143160.91, -187500.02, -187500.02, -187500.02, 0.00, 0.00, 0.00
94, 125382.55, -187500.02, -187500.02, -187500.02, 146423.50, -187500.02, -187500.02, -187500.02, 0.00, 0.00, 0.00
95, 122426.24, -187500.02, -187500.02, -187500.02, 143458.50, -187500.02, -187500.02, -187500.02, 0.00, 0.00, 0.00
96, 118817.31, -187500.02, -187500.02, -187500.02, 139885.33, -187500.02, -187500.02, -187500.02, 0.00, 0.00, 0.00
97, 121177.25, -187500.02, -187500.02, -187500.02, 142242.52, -187500.02, -187500.02, -187500.02, 0.00, 0.00, 0.00
98, 125171.82, -187500.02, -187500.02, -187500.02, 146205.70, -187500.02, -187500.02, -187500.02, 0.00, 0.00, 0.00
99, 123291.50, -187500.02, -187500.02, -187500.02, 144324.38, -187500.02, -187500.02, -187500.02, 0.00, 0.00, 0.00
100, 119105.38, -187500.02, -187500.02, -187500.02, 140185.31, -187500.02, -187500.02, -187500.02, 0.00, 0.00, 0.00
101, 120416.17, -187500.02, -187500.02, -187500.02, 141511.06, -187500.02, -187500.02, -187500.02, 0.00, 0.00, 0.00
102, 124831.11, -187500.02, -187500.02, -187500.02, 145878.55, -187500.02, -187500.02, -187500.02, 0.00, 0.00, 0.00
103, 124087.98, -187500.02, -187500.02, -187500.02, 145111.30, -187500.02, -187500.02, -187500.02, 0.00, 0.00, 0.00
104, 119557.09, -187500.02, -187500.02, -187500.02, 140623.92, -187500.02, -187500.02, -187500.02, 0.00, 0.00, 0.00
105, 119678.95, -187500.02, -187500.02, -187500.02, 140772.33, -187500.02, -187500.02, -187500.02, 0.00, 0.00, 0.00
106, 124192.81, -187500.02, -187500.02, -187500.02, 145258.11, -187500.02, -187500.02, -187500.02, 0.00, 0.00, 0.00
107, 124694.43, -187500.02, -187500.02, -187500.02, 145734.80, -187500.02, -187500.02, -187500.02, 0.00, 0.00, 0.00
108, 120192.84, -187500.02, -187500.02, -187500.02, 141257.52, -187500.02, -187500.02, -187500.02, 0.00, 0.00, 0.00
109, 119164.30, -187500.02, -187500.02, -187500.02, 140260.30, -187500.02, -187500.02, -187500.02, 0.00, 0.00, 0.00
110, 123466.36, -187500.02, -187500.02, -187500.02, 144542.33, -187500.02, -187500.02, -187500.02, 0.00, 0.00, 0.00
111, 125132.17, -187500.02, -187500.02, -187500.02, 146174.80, -187500.02, -187500.02, -187500.02, 0.00, 0.00, 0.00
112, 120958.88, -187500.02, -187500.02, -187500.02, 142013.92, -187500.02, -187500.02, -187500.02, 0.00, 0.00, 0.00
113, 118805.46, -187500.02, -187500.02, -187500.02, 139897.39, -187500.02, -187500.02, -187500.02, 0.00, 0.00, 0.00
114, 122616.48, -187500.02, -187500.02, -187500.02, 143706.89, -187500.02, -187500.02, -187500.02, 0.00, 0.00, 0.00
115, 125362.23, -187500.02, -187500.02, -187500.02, 146405.03, -187500.02, -187500.02, -187500.02, 0.00, 0.00, 0.00
116, 121832.27, -187500.02, -187500.02, -187500.02, 142877.36, -187500.02, -187500.02, -187500.02, 0.00, 0.00, 0.00
117, 118701.39, -187500.02, -187500.02, -187500.02, 139792.92, -187500.02, -187500.02, -187500.02, 0.00, 0.00, 0.00
118, 121695.48, -187500.02, -187500.02, -187500.02, 142791.03, -187500.02, -187500.02, -187500.02, 0.00, 0.00, 0.00
119, 125241.89, -187500.02, -187500.02, -187500.02, 146297.19, -187500.02, -187500.02, -187500.02, 0.00, 0.00, 0.00
120, 122584.70, -187500.02, -187500.02, -187500.02, 143636.70, -187500.02, -187500.02, -187500.02, 0.00, 0.00, 0.00
121, 118714.38, -187500.02, -187500.02, -187500.02, 139810.56, -187500.02, -187500.02, -187500.02, 0.00, 0.00, 0.00
122, 120783.97, -187500.02, -187500.02, -187500.02, 141871.80, -187500.02, -187500.02, -187500.02, 0.00, 0.00, 0.00
123, 124956.30, -187500.02, -187500.02, -187500.02, 146003.11, -187500.02, -187500.02, -187500.02, 0.00, 0.00, 0.00
124, 123399.30, -187500.02, -187500.02, -187500.02, 144437.42, -187500.02, -187500.02, -187500.02, 0.00, 0.00, 0.00
125, 119049.88, -187500.02, -187500.02, -187500.02, 140124.84, -187500.02, -187500.02, -187500.02, 0.00, 0.00, 0.00
126, 119988.20, -187500.02, -187500.02, -187500.02, 141086.39, -187500.02, -187500.02, -187500.02, 0.00, 0.00, 0.00
127, 124459.34, -187500.02, -187500.02, -187500.02, 145522.28, -187500.02, -187500.02, -187500.02, 0.00, 0.00, 0.00
128, 124148.73, -187500.02, -187500.02, -187500.02, 145184.16, -187500.02, -187500.02, -187500.02, 0.00, 0.00, 0.00
129, 119630.47, -187500.02, -187500.02, -187500.02, 140697.70, -187500.02, -187500.02, -187500.02, 0.00, 0.00, 0.00
130, 119325.37, -187500.02, -187500.02, -187500.02, 140432.78, -187500.02, -187500.02, -187500.02, 0.00, 0.00, 0.00
131, 123788.41, -187500.02, -187500.02, -187500.02, 144871.73, -187500.02, -187500.02, -187500.02, 0.00, 0.00, 0.00
132, 124694.03, -187500.02, -187500.02, -187500.02, 145728.98, -187500.02, -187500.02, -187500.02, 0.00, 0.00, 0.00
133, 120261.01, -187500.02, -187500.02, -187500.02, 141325.73, -187500.02, -187500.02, -187500.02, 0.00, 0.00, 0.00
134, 118871.29, -187500.02, -187500.02, -187500.02, 139980.64, -187500.02, -187500.02, -187500.02, 0.00, 0.00, 0.00
135, 122990.29, -187500.02, -187500.02, -187500.02, 144077.86, -187500.02, -187500.02, -187500.02, 0.00, 0.00, 0.00
136, 125026.00, -187500.02, -187500.02, -187500.02, 146062.34, -187500.02, -187500.02, -187500.02, 0.00, 0.00, 0.00
137, 121040.30, -187500.02, -187500.02, -187500.02, 142078.88, -187500.02, -187500.02, -187500.02, 0.00, 0.00, 0.00
138, 118590.06, -187500.02, -187500.02, -187500.02, 139668.36, -187500.02, -187500.02, -187500.02, 0.00, 0.00, 0.00
139, 122127.09, -187500.02, -187500.02, -187500.02, 143187.27, -187500.02, -187500.02, -187500.02, 0.00, 0.00, 0.00
140, 125136.21, -187500.02, -187500.02, -187500.02, 146177.50, -187500.02, -187500.02, -187500.02, 0.00, 0.00, 0.00
141, 121883.37, -187500.02, -187500.02, -187500.02, 142941.92, -187500.02, -187500.02, -187500.02, 0.00, 0.00, 0.00
142, 118504.99, -187500.02, -187500.02, -187500.02, 139606.91, -187500.02, -187500.02, -187500.02, 0.00, 0.00, 0.00
143, 121243.01, -187500.02, -187500.02, -187500.02, 142353.52, -187500.02, -187500.02, -187500.02, 0.00, 0.00, 0.00
144, 125050.95, -187500.02, -187500.02, -187500.02, 146103.00, -187500.02, -187500.02, -187500.02, 0.00, 0.00, 0.00
145, 122772.59, -187500.02, -187500.02, -187500.02, 143787.66, -187500.02, -187500.02, -187500.02, 0.00, 0.00, 0.00
146, 118679.00, -187500.02, -187500.02, -187500.02, 139771.78, -187500.02, -187500.02, -187500.02, 0.00, 0.00, 0.00
147, 120375.02, -187500.02, -187500.02, -187500.02, 141496.02, -187500.02, -187500.02, -187500.02, 0.00, 0.00, 0.00
148, 124667.92, -187500.02, -187500.02, -187500.02, 145751.73, -187500.02, -187500.02, -187500.02, 0.00, 0.00, 0.00
149, 123446.52, -187500.02, -187500.02, -187500.02, 144511.63, -187500.02, -187500.02, -187500.02, 0.00, 0.00, 0.00
150, 118945.54, -187500.02, -187500.02, -187500.02, 140033.94, -187500.02, -187500.02, -187500.02, 0.00, 0.00, 0.00
151, 119492.22, -187500.02, -187500.02, -187500.02, 140620.50, -187500.02, -187500.02, -187500.02, 0.00, 0.00, 0.00
152, 124010.47, -187500.02, -187500.02, -187500.02, 145103.70, -187500.02, -187500.02, -187500.02, 0.00, 0.00, 0.00
153, 124071.38, -187500.02, -187500.02, -187500.02, 145121.73, -187500.02, -187500.02, -187500.02, 0.00, 0.00, 0.00
154, 119549.59, -187500.02, -187500.02, -187500.02, 140645.63, -187500.02, -187500.02, -187500.02, 0.00, 0.00, 0.00
155, 118925.65, -187500.02, -187500.02, -187500.02, 140049.80, -187500.02, -187500.02, -187500.02, 0.00, 0.00, 0.00
156, 123296.78, -187500.02, -187500.02, -187500.02, 144398.66, -187500.02, -187500.02, -187500.02, 0.00, 0.00, 0.00
157, 124568.91, -187500.02, -187500.02, -187500.02, 145630.34, -187500.02, -187500.02, -187500.02, 0.00, 0.00, 0.00
158, 120254.70, -187500.02, -187500.02, -187500.02, 141338.66, -187500.02, -187500.02, -187500.02, 0.00, 0.00, 0.00
159, 118505.62, -187500.02, -187500.02, -187500.02, 139621.70, -187500.02, -187500.02, -187500.02, 0.00, 0.00, 0.00
160, 122465.56, -187500.02, -187500.02, -187500.02, 143566.44, -187500.02, -187500.02, -187500.02, 0.00, 0.00, 0.00
161, 124872.13, -187500.02, -187500.02, -187500.02, 145938.56, -187500.02, -187500.02, -187500.02, 0.00, 0.00, 0.00
162, 121132.13, -187500.02, -187500.02, -187500.02, 142212.64, -187500.02, -187500.02, -187500.02, 0.00, 0.00, 0.00
163, 118317.28, -187500.02, -187500.02, -187500.02, 139430.33, -187500.02, -187500.02, -187500.02, 0.00, 0.00, 0.00
164, 121594.34, -187500.02, -187500.02, -187500.02, 142688.45, -187500.02, -187500.02, -187500.02, 0.00, 0.00, 0.00
165, 124913.55, -187500.02, -187500.02, -187500.02, 145970.59, -187500.02, -187500.02, -187500.02, 0.00, 0.00, 0.00
166, 121953.53, -187500.02, -187500.02, -187500.02, 143030.48, -187500.02, -187500.02, -187500.02, 0.00, 0.00, 0.00
167, 118349.71, -187500.02, -187500.02, -187500.02, 139472.16, -187500.02, -187500.02, -187500.02, 0.00, 0.00, 0.00
168, 120695.37, -187500.02, -187500.02, -187500.02, 141815.67, -187500.02, -187500.02, -187500.02, 0.00, 0.00, 0.00
169, 124655.67, -187500.02, -187500.02, -187500.02, 145736.98, -187500.02, -187500.02, -187500.02, 0.00, 0.00, 0.00
170, 122726.30, -187500.02, -187500.02, -187500.02, 143799.73, -187500.02, -187500.02, -187500.02, 0.00, 0.00, 0.00
171, 118521.53, -187500.02, -187500.02, -187500.02, 139628.80, -187500.02, -187500.02, -187500.02, 0.00, 0.00, 0.00
172, 119831.38, -187500.02, -187500.02, -187500.02, 140947.38, -187500.02, -187500.02, -187500.02, 0.00, 0.00, 0.00
173, 124235.91, -187500.02, -187500.02, -187500.02, 145323.23, -187500.02, -187500.02, -187500.02, 0.00, 0.00, 0.00
174, 123494.57, -187500.02, -187500.02, -187500.02, 144558.19, -187500.02, -187500.02, -187500.02, 0.00, 0.00, 0.00
175, 118915.37, -187500.02, -187500.02, -187500.02, 140018.39, -187500.02, -187500.02, -187500.02, 0.00, 0.00, 0.00
176, 119013.89, -187500.02, -187500.02, -187500.02, 140145.33, -187500.02, -187500.02, -187500.02, 0.00, 0.00, 0.00
177, 123489.95, -187500.02, -187500.02, -187500.02, 144581.73, -187500.02, -187500.02, -187500.02, 0.00, 0.00, 0.00
178, 123933.11, -187500.02, -187500.02, -187500.02, 145005.08, -187500.02, -187500.02, -187500.02, 0.00, 0.00, 0.00
179, 119407.46, -187500.02, -187500.02, -187500.02, 140498.55, -187500.02, -187500.02, -187500.02, 0.00, 0.00, 0.00
180, 118358.61, -187500.02, -187500.02, -187500.02, 139482.19, -187500.02, -187500.02, -187500.02, 0.00, 0.00, 0.00
181, 122625.09, -187500.02, -187500.02, -187500.02, 143717.27, -187500.02, -187500.02, -187500.02, 0.00, 0.00, 0.00
182, 124269.34, -187500.02, -187500.02, -187500.02, 145338.19, -187500.02, -187500.02, -187500.02, 0.00, 0.00, 0.00
183, 120085.84, -187500.02, -187500.02, -187500.02, 141184.63, -187500.02, -187500.02, -187500.02, 0.00, 0.00, 0.00
184, 117941.50, -187500.02, -187500.02, -187500.02, 139069.80, -187500.02, -187500.02, -187500.02, 0.00, 0.00, 0.00
185, 121687.43, -187500.02, -187500.02, -187500.02, 142793.56, -187500.02, -187500.02, -187500.02, 0.00, 0.00, 0.00
186, 124403.19, -187500.02, -187500.02, -187500.02, 145479.28, -187500.02, -187500.02, -187500.02, 0.00, 0.00, 0.00
187, 120864.57, -187500.02, -187500.02, -187500.02, 141957.84, -187500.02, -187500.02, -187500.02, 0.00, 0.00, 0.00
188, 117752.20, -187500.02, -187500.02, -187500.02, 138888.27, -187500.02, -187500.02, -187500.02, 0.00, 0.00, 0.00
189, 120728.74, -187500.02, -187500.02, -187500.02, 141853.31, -187500.02, -187500.02, -187500.02, 0.00, 0.00, 0.00
190, 124307.86, -187500.02, -187500.02, -187500.02, 145388.30, -187500.02, -187500.02, -187500.02, 0.00, 0.00, 0.00
191, 121703.88, -187500.02, -187500.02, -187500.02, 142792.45, -187500.02, -187500.02, -187500.02, 0.00, 0.00, 0.00
192, 117849.63, -187500.02, -187500.02, -187500.02, 138979.41, -187500.02, -187500.02, -187500.02, 0.00, 0.00, 0.00
193, 119863.33, -187500.02, -187500.02, -187500.02, 140989.48, -187500.02, -187500.02, -187500.02, 0.00, 0.00, 0.00
194, 123992.52, -187500.02, -187500.02, -187500.02, 145078.63, -187500.02, -187500.02, -187500.02, 0.00, 0.00, 0.00
195, 122486.28, -187500.02, -187500.02, -187500.02, 143570.14, -187500.02, -187500.02, -187500.02, 0.00, 0.00, 0.00
196, 118182.59, -187500.02, -187500.02, -187500.02, 139303.00, -187500.02, -187500.02, -187500.02, 0.00, 0.00, 0.00
197, 119063.52, -187500.02, -187500.02, -187500.02, 140206.19, -187500.02, -187500.02, -187500.02, 0.00, 0.00, 0.00
198, 123511.02, -187500.02, -187500.02, -187500.02, 144617.69, -187500.02, -187500.02, -187500.02, 0.00, 0.00, 0.00
199, 123194.74, -187500.02, -187500.02, -187500.02, 144270.83, -187500.02, -187500.02, -187500.02, 0.00, 0.00, 0.00
200, 118678.44, -187500.02, -187500.02, -187500.02, 139797.84, -187500.02, -187500.02, -187500.02, 0.00, 0.00, 0.00
201, 118428.68, -187500.02, -187500.02, -187500.02, 139589.50, -187500.02, -187500.02, -187500.02, 0.00, 0.00, 0.00
202, 122859.16, -187500.02, -187500.02, -187500.02, 143975.50, -187500.02, -187500.02, -187500.02, 0.00, 0.00, 0.00
203, 123757.91, -187500.02, -187500.02, -187500.02, 144830.88, -187500.02, -187500.02, -187500.02, 0.00, 0.00, 0.00
204, 119360.19, -187500.02, -187500.02, -187500.02, 140475.70, -187500.02, -187500.02, -187500.02, 0.00, 0.00, 0.00
205, 117909.96, -187500.02, -187500.02, -187500.02, 139060.77, -187500.02, -187500.02, -187500.02, 0.00, 0.00, 0.00
206, 122013.32, -187500.02, -187500.02, -187500.02, 143136.28, -187500.02, -187500.02, -187500.02, 0.00, 0.00, 0.00
207, 124067.48, -187500.02, -187500.02, -187500.02, 145158.34, -187500.02, -187500.02, -187500.02, 0.00, 0.00, 0.00
208, 120071.73, -187500.02, -187500.02, -187500.02, 141185.81, -187500.02, -187500.02, -187500.02, 0.00, 0.00, 0.00
209, 117528.66, -187500.02, -187500.02, -187500.02, 138674.08, -187500.02, -187500.02, -187500.02, 0.00, 0.00, 0.00
210, 121044.21, -187500.02, -187500.02, -187500.02, 142171.63, -187500.02, -187500.02, -187500.02, 0.00, 0.00, 0.00
211, 124047.38, -187500.02, -187500.02, -187500.02, 145137.56, -187500.02, -187500.02, -187500.02, 0.00, 0.00, 0.00
212, 120784.98, -187500.02, -187500.02, -187500.02, 141883.23, -187500.02, -187500.02, -187500.02, 0.00, 0.00, 0.00
213, 117355.82, -187500.02, -187500.02, -187500.02, 138493.14, -187500.02, -187500.02, -187500.02, 0.00, 0.00, 0.00
214, 120043.34, -187500.02, -187500.02, -187500.02, 141165.39, -187500.02, -187500.02, -187500.02, 0.00, 0.00, 0.00
215, 123822.98, -187500.02, -187500.02, -187500.02, 144921.02, -187500.02, -187500.02, -187500.02, 0.00, 0.00, 0.00
216, 121557.88, -187500.02, -187500.02, -187500.02, 142666.13, -187500.02, -187500.02, -187500.02, 0.00, 0.00, 0.00
217, 117529.20, -187500.02, -187500.02, -187500.02, 138680.48, -187500.02, -187500.02, -187500.02, 0.00, 0.00, 0.00
218, 119149.84, -187500.02, -187500.02, -187500.02, 140305.30, -187500.02, -187500.02, -187500.02, 0.00, 0.00, 0.00
219, 123435.56, -187500.02, -187500.02, -187500.02, 144552.92, -187500.02, -187500.02, -187500.02, 0.00, 0.00, 0.00
220, 122308.05, -187500.02, -187500.02, -187500.02, 143409.86, -187500.02, -187500.02, -187500.02, 0.00, 0.00, 0.00
221, 117853.66, -187500.02, -187500.02, -187500.02, 138993.83, -187500.02, -187500.02, -187500.02, 0.00, 0.00, 0.00
222, 118386.86, -187500.02, -187500.02, -187500.02, 139549.89, -187500.02, -187500.02, -187500.02, 0.00, 0.00, 0.00
223, 122853.19, -187500.02, -187500.02, -187500.02, 143984.66, -187500.02, -187500.02, -187500.02, 0.00, 0.00, 0.00
224, 122950.30, -187500.02, -187500.02, -187500.02, 144065.86, -187500.02, -187500.02, -187500.02, 0.00, 0.00, 0.00
225, 118461.38, -187500.02, -187500.02, -187500.02, 139621.58, -187500.02, -187500.02, -187500.02, 0.00, 0.00, 0.00
226, 117765.05, -187500.02, -187500.02, -187500.02, 138942.28, -187500.02, -187500.02, -187500.02, 0.00, 0.00, 0.00
227, 122074.74, -187500.02, -187500.02, -187500.02, 143237.34, -187500.02, -187500.02, -187500.02, 0.00, 0.00, 0.00
228, 123374.12, -187500.02, -187500.02, -187500.02, 144516.92, -187500.02, -187500.02, -187500.02, 0.00, 0.00, 0.00
229, 119112.46, -187500.02, -187500.02, -187500.02, 140271.03, -187500.02, -187500.02, -187500.02, 0.00, 0.00, 0.00
230, 117287.27, -187500.02, -187500.02, -187500.02, 138481.88, -187500.02, -187500.02, -187500.02, 0.00, 0.00, 0.00
231, 121188.61, -187500.02, -187500.02, -187500.02, 142356.59, -187500.02, -187500.02, -187500.02, 0.00, 0.00, 0.00
232, 123592.47, -187500.02, -187500.02, -187500.02, 144731.50, -187500.02, -187500.02, -187500.02, 0.00, 0.00, 0.00
233, 119861.34, -187500.02, -187500.02, -187500.02, 141026.06, -187500.02, -187500.02, -187500.02, 0.00, 0.00, 0.00
234, 117059.05, -187500.02, -187500.02, -187500.02, 138269.86, -187500.02, -187500.02, -187500.02, 0.00, 0.00, 0.00
235, 120291.30, -187500.02, -187500.02, -187500.02, 141493.33, -187500.02, -187500.02, -187500.02, 0.00, 0.00, 0.00
236, 123635.85, -187500.02, -187500.02, -187500.02, 144792.53, -187500.02, -187500.02, -187500.02, 0.00, 0.00, 0.00
237, 120740.97, -187500.02, -187500.02, -187500.02, 141903.38, -187500.02, -187500.02, -187500.02, 0.00, 0.00, 0.00
238, 117100.54, -187500.02, -187500.02, -187500.02, 138299.31, -187500.02, -187500.02, -187500.02, 0.00, 0.00, 0.00
239, 119496.29, -187500.02, -187500.02, -187500.02, 140701.08, -187500.02, -187500.02, -187500.02, 0.00, 0.00, 0.00
240, 123516.16, -187500.02, -187500.02, -187500.02, 144683.69, -187500.02, -187500.02, -187500.02, 0.00, 0.00, 0.00
241, 121634.57, -187500.02, -187500.02, -187500.02, 142808.17, -187500.02, -187500.02, -187500.02, 0.00, 0.00, 0.00
242, 117383.18, -187500.02, -187500.02, -187500.02, 138597.44, -187500.02, -187500.02, -187500.02, 0.00, 0.00, 0.00
243, 118652.22, -187500.02, -187500.02, -187500.02, 139871.53, -187500.02, -187500.02, -187500.02, 0.00, 0.00, 0.00
244, 123025.36, -187500.02, -187500.02, -187500.02, 144191.64, -187500.02, -187500.02, -187500.02, 0.00, 0.00, 0.00
245, 122323.18, -187500.02, -187500.02, -187500.02, 143468.36, -187500.02, -187500.02, -187500.02, 0.00, 0.00, 0.00
246, 117852.81, -187500.02, -187500.02, -187500.02, 139027.83, -187500.02, -187500.02, -187500.02, 0.00, 0.00, 0.00
247, 117956.14, -187500.02, -187500.02, -187500.02, 139152.77, -187500.02, -187500.02, -187500.02, 0.00, 0.00, 0.00
248, 122388.91, -187500.02, -187500.02, -187500.02, 143574.55, -187500.02, -187500.02, -187500.02, 0.00, 0.00, 0.00
249, 122869.91, -187500.02, -187500.02, -187500.02, 144040.14, -187500.02, -187500.02, -187500.02, 0.00, 0.00, 0.00
250, 118413.13, -187500.02, -187500.02, -187500.02, 139606.05, -187500.02, -187500.02, -187500.02, 0.00, 0.00, 0.00
251, 117374.91, -187500.02, -187500.02, -187500.02, 138597.13, -187500.02, -187500.02, -187500.02, 0.00, 0.00, 0.00
252, 121619.73, -187500.02, -187500.02, -187500.02, 142819.23, -187500.02, -187500.02, -187500.02, 0.00, 0.00, 0.00
253, 123312.63, -187500.02, -187500.02, -187500.02, 144478.55, -187500.02, -187500.02, -187500.02, 0.00, 0.00, 0.00
254, 119181.35, -187500.02, -187500.02, -187500.02, 140369.52, -187500.02, -187500.02, -187500.02, 0.00, 0.00, 0.00
255, 117034.06, -187500.02, -187500.02, -187500.02, 138266.02, -187500.02, -187500.02, -187500.02, 0.00, 0.00, 0.00
0, 120751.09, -187500.02, -187500.02, -187500.02, 141965.14, -187500.02, -187500.02, -187500.02, 0.00, 0.00, 0.00
1, 123524.48, -187500.02, -187500.02, -187500.02, 144696.69, -187500.02, -187500.02, -187500.02, 0.00, 0.00, 0.00
2, 120055.20, -187500.02, -187500.02, -187500.02, 141239.31, -187500.02, -187500.02, -187500.02, 0.00, 0.00, 0.00
3, 116939.72, -187500.02, -187500.02, -187500.02, 138162.78, -187500.02, -187500.02, -187500.02, 0.00, 0.00, 0.00
4, 119879.04, -187500.02, -187500.02, -187500.02, 141090.83, -187500.02, -187500.02, -187500.02, 0.00, 0.00, 0.00
5, 123447.52, -187500.02, -187500.02, -187500.02, 144617.14, -187500.02, -187500.02, -187500.02, 0.00, 0.00, 0.00
6, 120859.79, -187500.02, -187500.02, -187500.02, 142036.56, -187500.02, -187500.02, -187500.02, 0.00, 0.00, 0.00
7, 117023.38, -187500.02, -187500.02, -187500.02, 138246.88, -187500.02, -187500.02, -187500.02, 0.00, 0.00, 0.00
8, 118956.72, -187500.02, -187500.02, -187500.02, 140189.17, -187500.02, -187500.02, -187500.02, 0.00, 0.00, 0.00
9, 123105.09, -187500.02, -187500.02, -187500.02, 144304.06, -187500.02, -187500.02, -187500.02, 0.00, 0.00, 0.00
10, 121607.84, -187500.02, -187500.02, -187500.02, 142793.13, -187500.02, -187500.02, -187500.02, 0.00, 0.00, 0.00
11, 117289.08, -187500.02, -187500.02, -187500.02, 138511.66, -187500.02, -187500.02, -187500.02, 0.00, 0.00, 0.00
