%OpenBCI Raw EEG Data
%
%Sample Rate = 250.0 Hz
%First Column = SampleIndex
%Other Columns = EEG data in microvolts followed by Accel Data (in G) interleaved with Aux Data
0, 144428.23, 143091.80, -187500.02, -187500.02, 148755.84, -187500.02, -187500.02, -187500.02, 0.00, 0.00, 0.00
1, 145395.77, 144299.19, -187500.02, -187500.02, 150014.58, -187500.02, -187500.02, -187500.02, 0.00, 0.00, 0.00
2, 144975.28, 143392.50, -187500.02, -187500.02, 149280.39, -187500.02, -187500.02, -187500.02, 0.00, 0.00, 0.00
3, 144125.58, 142251.39, -187500.02, -187500.02, 148101.48, -187500.02, -187500.02, -187500.02, 0.00, 0.00, 0.00
4, 144637.66, 143228.05, -187500.02, -187500.02, 148902.59, -187500.02, -187500.02, -187500.02, 0.00, 0.00, 0.00
5, 145806.97, 144774.34, -187500.02, -187500.02, 150454.38, -187500.02, -187500.02, -187500.02, 0.00, 0.00, 0.00
6, 145641.19, 144183.47, -187500.02, -187500.02, 150046.77, -187500.02, -187500.02, -187500.02, 0.00, 0.00, 0.00
7, 144682.03, 142811.69, -187500.02, -187500.02, 148683.64, -187500.02, -187500.02, -187500.02, 0.00, 0.00, 0.00
8, 144954.41, 143452.50, -187500.02, -187500.02, 149148.22, -187500.02, -187500.02, -187500.02, 0.00, 0.00, 0.00
9, 146133.80, 145087.69, -187500.02, -187500.02, 150747.41, -187500.02, -187500.02, -187500.02, 0.00, 0.00, 0.00
10, 146125.63, 144759.69, -187500.02, -187500.02, 150595.86, -187500.02, -187500.02, -187500.02, 0.00, 0.00, 0.00
11, 145052.48, 143173.17, -187500.02, -187500.02, 149071.22, -187500.02, -187500.02, -187500.02, 0.00, 0.00, 0.00
12, 144872.14, 143210.77, -187500.02, -187500.02, 148948.83, -187500.02, -187500.02, -187500.02, 0.00, 0.00, 0.00
13, 145932.02, 144808.67, -187500.02, -187500.02, 150462.08, -187500.02, -187500.02, -187500.02, 0.00, 0.00, 0.00
14, 146228.27, 144939.75, -187500.02, -187500.02, 150746.11, -187500.02, -187500.02, -187500.02, 0.00, 0.00, 0.00
15, 145192.92, 143341.38, -187500.02, -187500.02, 149254.23, -187500.02, -187500.02, -187500.02, 0.00, 0.00, 0.00
16, 144777.23, 143015.33, -187500.02, -187500.02, 148788.78, -187500.02, -187500.02, -187500.02, 0.00, 0.00, 0.00
17, 145745.19, 144549.02, -187500.02, -187500.02, 150202.36, -187500.02, -187500.02, -187500.02, 0.00, 0.00, 0.00
18, 146341.67, 145148.95, -187500.02, -187500.02, 150920.78, -187500.02, -187500.02, -187500.02, 0.00, 0.00, 0.00
19, 145442.22, 143653.27, -187500.02, -187500.02, 149575.16, -187500.02, -187500.02, -187500.02, 0.00, 0.00, 0.00
20, 144716.95, 142860.91, -187500.02, -187500.02, 148679.19, -187500.02, -187500.02, -187500.02, 0.00, 0.00, 0.00
21, 145513.67, 144224.64, -187500.02, -187500.02, 149891.53, -187500.02, -187500.02, -187500.02, 0.00, 0.00, 0.00
22, 146335.55, 145202.06, -187500.02, -187500.02, 150949.06, -187500.02, -187500.02, -187500.02, 0.00, 0.00, 0.00
23, 145675.41, 143997.38, -187500.02, -187500.02, 149913.75, -187500.02, -187500.02, -187500.02, 0.00, 0.00, 0.00
24, 144807.00, 142909.53, -187500.02, -187500.02, 148763.86, -187500.02, -187500.02, -187500.02, 0.00, 0.00, 0.00
25, 145363.64, 143973.27, -187500.02, -187500.02, 149657.75, -187500.02, -187500.02, -187500.02, 0.00, 0.00, 0.00
26, 146317.06, 145211.13, -187500.02, -187500.02, 150932.08, -187500.02, -187500.02, -187500.02, 0.00, 0.00, 0.00
27, 145895.63, 144327.47, -187500.02, -187500.02, 150226.42, -187500.02, -187500.02, -187500.02, 0.00, 0.00, 0.00
28, 144888.16, 142962.94, -187500.02, -187500.02, 148847.50, -187500.02, -187500.02, -187500.02, 0.00, 0.00, 0.00
29, 145247.63, 143764.53, -187500.02, -187500.02, 149467.97, -187500.02, -187500.02, -187500.02, 0.00, 0.00, 0.00
30, 146435.44, 145379.61, -187500.02, -187500.02, 151070.20, -187500.02, -187500.02, -187500.02, 0.00, 0.00, 0.00
31, 146395.00, 144976.36, -187500.02, -187500.02, 150846.36, -187500.02, -187500.02, -187500.02, 0.00, 0.00, 0.00
32, 145398.50, 143514.59, -187500.02, -187500.02, 149416.56, -187500.02, -187500.02, -187500.02, 0.00, 0.00, 0.00
33, 145520.89, 143956.77, -187500.02, -187500.02, 149684.13, -187500.02, -187500.02, -187500.02, 0.00, 0.00, 0.00
34, 146749.17, 145702.28, -187500.02, -187500.02, 151367.17, -187500.02, -187500.02, -187500.02, 0.00, 0.00, 0.00
35, 146996.31, 145697.92, -187500.02, -187500.02, 151529.64, -187500.02, -187500.02, -187500.02, 0.00, 0.00, 0.00
36, 146011.33, 144179.00, -187500.02, -187500.02, 150087.44, -187500.02, -187500.02, -187500.02, 0.00, 0.00, 0.00
37, 145909.77, 144261.39, -187500.02, -187500.02, 150014.06, -187500.02, -187500.02, -187500.02, 0.00, 0.00, 0.00
38, 146984.55, 145866.16, -187500.02, -187500.02, 151523.63, -187500.02, -187500.02, -187500.02, 0.00, 0.00, 0.00
39, 147403.67, 146178.23, -187500.02, -187500.02, 151977.47, -187500.02, -187500.02, -187500.02, 0.00, 0.00, 0.00
40, 146424.84, 144617.97, -187500.02, -187500.02, 150541.31, -187500.02, -187500.02, -187500.02, 0.00, 0.00, 0.00
41, 145881.84, 144091.61, -187500.02, -187500.02, 149889.14, -187500.02, -187500.02, -187500.02, 0.00, 0.00, 0.00
42, 146785.38, 145562.47, -187500.02, -187500.02, 151222.53, -187500.02, -187500.02, -187500.02, 0.00, 0.00, 0.00
43, 147403.48, 146212.05, -187500.02, -187500.02, 151982.09, -187500.02, -187500.02, -187500.02, 0.00, 0.00, 0.00
44, 146532.95, 144769.38, -187500.02, -187500.02, 150692.84, -187500.02, -187500.02, -187500.02, 0.00, 0.00, 0.00
45, 145793.58, 143920.19, -187500.02, -187500.02, 149750.56, -187500.02, -187500.02, -187500.02, 0.00, 0.00, 0.00
46, 146473.69, 145124.95, -187500.02, -187500.02, 150797.83, -187500.02, -187500.02, -187500.02, 0.00, 0.00, 0.00
47, 147317.27, 146178.42, -187500.02, -187500.02, 151912.31, -187500.02, -187500.02, -187500.02, 0.00, 0.00, 0.00
48, 146745.41, 145097.59, -187500.02, -187500.02, 151005.27, -187500.02, -187500.02, -187500.02, 0.00, 0.00, 0.00
49, 145833.19, 143920.47, -187500.02, -187500.02, 149783.66, -187500.02, -187500.02, -187500.02, 0.00, 0.00, 0.00
50, 146285.08, 144842.39, -187500.02, -187500.02, 150533.97, -187500.02, -187500.02, -187500.02, 0.00, 0.00, 0.00
51, 147290.41, 146185.98, -187500.02, -187500.02, 151895.05, -187500.02, -187500.02, -187500.02, 0.00, 0.00, 0.00
52, 146947.58, 145407.69, -187500.02, -187500.02, 151299.13, -187500.02, -187500.02, -187500.02, 0.00, 0.00, 0.00
53, 145896.89, 143957.92, -187500.02, -187500.02, 149853.31, -187500.02, -187500.02, -187500.02, 0.00, 0.00, 0.00
54, 146045.67, 144475.25, -187500.02, -187500.02, 150193.81, -187500.02, -187500.02, -187500.02, 0.00, 0.00, 0.00
55, 147182.28, 146088.67, -187500.02, -187500.02, 151770.75, -187500.02, -187500.02, -187500.02, 0.00, 0.00, 0.00
56, 147175.69, 145754.83, -187500.02, -187500.02, 151614.94, -187500.02, -187500.02, -187500.02, 0.00, 0.00, 0.00
57, 146060.80, 144139.67, -187500.02, -187500.02, 150052.64, -187500.02, -187500.02, -187500.02, 0.00, 0.00, 0.00
58, 145999.67, 144342.55, -187500.02, -187500.02, 150087.53, -187500.02, -187500.02, -187500.02, 0.00, 0.00, 0.00
59, 147076.47, 145946.11, -187500.02, -187500.02, 151615.55, -187500.02, -187500.02, -187500.02, 0.00, 0.00, 0.00
60, 147372.78, 146063.02, -187500.02, -187500.02, 151888.08, -187500.02, -187500.02, -187500.02, 0.00, 0.00, 0.00
61, 146284.92, 144390.97, -187500.02, -187500.02, 150320.69, -187500.02, -187500.02, -187500.02, 0.00, 0.00, 0.00
62, 145933.33, 144168.95, -187500.02, -187500.02, 149950.05, -187500.02, -187500.02, -187500.02, 0.00, 0.00, 0.00
63, 147037.58, 145867.39, -187500.02, -187500.02, 151528.03, -187500.02, -187500.02, -187500.02, 0.00, 0.00, 0.00
64, 147721.98, 146527.28, -187500.02, -187500.02, 152313.03, -187500.02, -187500.02, -187500.02, 0.00, 0.00, 0.00
65, 146900.47, 145126.47, -187500.02, -187500.02, 151048.66, -187500.02, -187500.02, -187500.02, 0.00, 0.00, 0.00
66, 146374.14, 144567.34, -187500.02, -187500.02, 150375.95, -187500.02, -187500.02, -187500.02, 0.00, 0.00, 0.00
67, 147302.30, 146066.48, -187500.02, -187500.02, 151726.50, -187500.02, -187500.02, -187500.02, 0.00, 0.00, 0.00
68, 148151.81, 147038.67, -187500.02, -187500.02, 152787.94, -187500.02, -187500.02, -187500.02, 0.00, 0.00, 0.00
69, 147571.08, 145922.02, -187500.02, -187500.02, 151834.45, -187500.02, -187500.02, -187500.02, 0.00, 0.00, 0.00
70, 146832.00, 144989.48, -187500.02, -187500.02, 150833.61, -187500.02, -187500.02, -187500.02, 0.00, 0.00, 0.00
71, 147540.31, 146216.41, -187500.02, -187500.02, 151894.42, -187500.02, -187500.02, -187500.02, 0.00, 0.00, 0.00
72, 148489.47, 147406.94, -187500.02, -187500.02, 153133.77, -187500.02, -187500.02, -187500.02, 0.00, 0.00, 0.00
73, 148025.05, 146453.05, -187500.02, -187500.02, 152362.34, -187500.02, -187500.02, -187500.02, 0.00, 0.00, 0.00
74, 146995.77, 145083.17, -187500.02, -187500.02, 150970.92, -187500.02, -187500.02, -187500.02, 0.00, 0.00, 0.00
75, 147349.59, 145888.28, -187500.02, -187500.02, 151600.08, -187500.02, -187500.02, -187500.02, 0.00, 0.00, 0.00
76, 148375.20, 147287.33, -187500.02, -187500.02, 153001.55, -187500.02, -187500.02, -187500.02, 0.00, 0.00, 0.00
77, 148154.70, 146685.47, -187500.02, -187500.02, 152579.48, -187500.02, -187500.02, -187500.02, 0.00, 0.00, 0.00
78, 147137.53, 145244.47, -187500.02, -187500.02, 151158.83, -187500.02, -187500.02, -187500.02, 0.00, 0.00, 0.00
79, 147204.94, 145622.23, -187500.02, -187500.02, 151364.44, -187500.02, -187500.02, -187500.02, 0.00, 0.00, 0.00
80, 148251.20, 147142.52, -187500.02, -187500.02, 152839.39, -187500.02, -187500.02, -187500.02, 0.00, 0.00, 0.00
81, 148331.00, 146964.03, -187500.02, -187500.02, 152832.64, -187500.02, -187500.02, -187500.02, 0.00, 0.00, 0.00
82, 147220.75, 145314.91, -187500.02, -187500.02, 151257.48, -187500.02, -187500.02, -187500.02, 0.00, 0.00, 0.00
83, 147008.94, 145319.09, -187500.02, -187500.02, 151099.53, -187500.02, -187500.02, -187500.02, 0.00, 0.00, 0.00
84, 148114.64, 146982.81, -187500.02, -187500.02, 152671.89, -187500.02, -187500.02, -187500.02, 0.00, 0.00, 0.00
85, 148453.75, 147175.59, -187500.02, -187500.02, 153015.55, -187500.02, -187500.02, -187500.02, 0.00, 0.00, 0.00
86, 147408.70, 145552.97, -187500.02, -187500.02, 151507.67, -187500.02, -187500.02, -187500.02, 0.00, 0.00, 0.00
87, 146920.16, 145124.70, -187500.02, -187500.02, 150946.98, -187500.02, -187500.02, -187500.02, 0.00, 0.00, 0.00
88, 147847.00, 146625.11, -187500.02, -187500.02, 152316.77, -187500.02, -187500.02, -187500.02, 0.00, 0.00, 0.00
89, 148489.36, 147297.16, -187500.02, -187500.02, 153102.52, -187500.02, -187500.02, -187500.02, 0.00, 0.00, 0.00
90, 147587.42, 145806.48, -187500.02, -187500.02, 151765.17, -187500.02, -187500.02, -187500.02, 0.00, 0.00, 0.00
91, 146920.16, 145072.52, -187500.02, -187500.02, 150926.22, -187500.02, -187500.02, -187500.02, 0.00, 0.00, 0.00
92, 147775.89, 146488.50, -187500.02, -187500.02, 152183.72, -187500.02, -187500.02, -187500.02, 0.00, 0.00, 0.00
93, 148724.28, 147623.03, -187500.02, -187500.02, 153387.67, -187500.02, -187500.02, -187500.02, 0.00, 0.00, 0.00
94, 148193.94, 146559.67, -187500.02, -187500.02, 152495.42, -187500.02, -187500.02, -187500.02, 0.00, 0.00, 0.00
95, 147379.17, 145509.73, -187500.02, -187500.02, 151390.02, -187500.02, -187500.02, -187500.02, 0.00, 0.00, 0.00
96, 148027.28, 146666.42, -187500.02, -187500.02, 152371.55, -187500.02, -187500.02, -187500.02, 0.00, 0.00, 0.00
97, 149173.55, 148140.23, -187500.02, -187500.02, 153865.52, -187500.02, -187500.02, -187500.02, 0.00, 0.00, 0.00
98, 148925.28, 147431.91, -187500.02, -187500.02, 153340.00, -187500.02, -187500.02, -187500.02, 0.00, 0.00, 0.00
99, 147928.98, 146046.14, -187500.02, -187500.02, 151955.22, -187500.02, -187500.02, -187500.02, 0.00, 0.00, 0.00
100, 148255.19, 146787.20, -187500.02, -187500.02, 152516.77, -187500.02, -187500.02, -187500.02, 0.00, 0.00, 0.00
101, 149439.38, 148409.66, -187500.02, -187500.02, 154117.84, -187500.02, -187500.02, -187500.02, 0.00, 0.00, 0.00
102, 149381.48, 147988.80, -187500.02, -187500.02, 153877.42, -187500.02, -187500.02, -187500.02, 0.00, 0.00, 0.00
103, 148230.27, 146323.92, -187500.02, -187500.02, 152261.42, -187500.02, -187500.02, -187500.02, 0.00, 0.00, 0.00
104, 148150.23, 146528.78, -187500.02, -187500.02, 152292.28, -187500.02, -187500.02, -187500.02, 0.00, 0.00, 0.00
105, 149238.86, 148135.94, -187500.02, -187500.02, 153831.70, -187500.02, -187500.02, -187500.02, 0.00, 0.00, 0.00
106, 149420.06, 148102.20, -187500.02, -187500.02, 153960.33, -187500.02, -187500.02, -187500.02, 0.00, 0.00, 0.00
107, 148331.83, 146456.31, -187500.02, -187500.02, 152406.50, -187500.02, -187500.02, -187500.02, 0.00, 0.00, 0.00
108, 147978.78, 146245.06, -187500.02, -187500.02, 152045.03, -187500.02, -187500.02, -187500.02, 0.00, 0.00, 0.00
109, 149004.22, 147842.69, -187500.02, -187500.02, 153532.94, -187500.02, -187500.02, -187500.02, 0.00, 0.00, 0.00
110, 149463.16, 148226.13, -187500.02, -187500.02, 154052.00, -187500.02, -187500.02, -187500.02, 0.00, 0.00, 0.00
111, 148468.33, 146640.64, -187500.02, -187500.02, 152599.17, -187500.02, -187500.02, -187500.02, 0.00, 0.00, 0.00
112, 147851.00, 146015.30, -187500.02, -187500.02, 151854.81, -187500.02, -187500.02, -187500.02, 0.00, 0.00, 0.00
113, 148717.53, 147455.50, -187500.02, -187500.02, 153152.11, -187500.02, -187500.02, -187500.02, 0.00, 0.00, 0.00
114, 149416.89, 148243.64, -187500.02, -187500.02, 154040.47, -187500.02, -187500.02, -187500.02, 0.00, 0.00, 0.00
115, 148700.34, 146980.38, -187500.02, -187500.02, 152933.56, -187500.02, -187500.02, -187500.02, 0.00, 0.00, 0.00
116, 147876.19, 145979.34, -187500.02, -187500.02, 151861.53, -187500.02, -187500.02, -187500.02, 0.00, 0.00, 0.00
117, 148537.00, 147182.56, -187500.02, -187500.02, 152898.13, -187500.02, -187500.02, -187500.02, 0.00, 0.00, 0.00
118, 149460.17, 148340.77, -187500.02, -187500.02, 154113.02, -187500.02, -187500.02, -187500.02, 0.00, 0.00, 0.00
119, 148890.17, 147254.25, -187500.02, -187500.02, 153206.92, -187500.02, -187500.02, -187500.02, 0.00, 0.00, 0.00
120, 147945.66, 146026.27, -187500.02, -187500.02, 151939.64, -187500.02, -187500.02, -187500.02, 0.00, 0.00, 0.00
121, 148361.89, 146896.22, -187500.02, -187500.02, 152636.28, -187500.02, -187500.02, -187500.02, 0.00, 0.00, 0.00
122, 149397.52, 148299.33, -187500.02, -187500.02, 154044.42, -187500.02, -187500.02, -187500.02, 0.00, 0.00, 0.00
123, 149122.97, 147602.09, -187500.02, -187500.02, 153528.92, -187500.02, -187500.02, -187500.02, 0.00, 0.00, 0.00
124, 148050.27, 146105.70, -187500.02, -187500.02, 152048.58, -187500.02, -187500.02, -187500.02, 0.00, 0.00, 0.00
125, 148248.47, 146671.36, -187500.02, -187500.02, 152437.33, -187500.02, -187500.02, -187500.02, 0.00, 0.00, 0.00
126, 149385.44, 148278.20, -187500.02, -187500.02, 154002.58, -187500.02, -187500.02, -187500.02, 0.00, 0.00, 0.00
127, 149539.48, 148171.34, -187500.02, -187500.02, 154061.94, -187500.02, -187500.02, -187500.02, 0.00, 0.00, 0.00
128, 148577.22, 146700.48, -187500.02, -187500.02, 152651.75, -187500.02, -187500.02, -187500.02, 0.00, 0.00, 0.00
129, 148530.59, 146892.78, -187500.02, -187500.02, 152676.78, -187500.02, -187500.02, -187500.02, 0.00, 0.00, 0.00
130, 149750.09, 148674.95, -187500.02, -187500.02, 154368.30, -187500.02, -187500.02, -187500.02, 0.00, 0.00, 0.00
131, 150208.70, 148980.78, -187500.02, -187500.02, 154826.70, -187500.02, -187500.02, -187500.02, 0.00, 0.00, 0.00
132, 149260.39, 147457.67, -187500.02, -187500.02, 153411.53, -187500.02, -187500.02, -187500.02, 0.00, 0.00, 0.00
133, 148955.38, 147247.23, -187500.02, -187500.02, 153056.66, -187500.02, -187500.02, -187500.02, 0.00, 0.00, 0.00
134, 149992.03, 148840.70, -187500.02, -187500.02, 154533.58, -187500.02, -187500.02, -187500.02, 0.00, 0.00, 0.00
135, 150596.17, 149427.36, -187500.02, -187500.02, 155242.22, -187500.02, -187500.02, -187500.02, 0.00, 0.00, 0.00
136, 149715.20, 147967.52, -187500.02, -187500.02, 153923.73, -187500.02, -187500.02, -187500.02, 0.00, 0.00, 0.00
137, 149081.17, 147265.92, -187500.02, -187500.02, 153124.52, -187500.02, -187500.02, -187500.02, 0.00, 0.00, 0.00
138, 149817.13, 148534.84, -187500.02, -187500.02, 154245.98, -187500.02, -187500.02, -187500.02, 0.00, 0.00, 0.00
139, 150615.09, 149488.59, -187500.02, -187500.02, 155275.13, -187500.02, -187500.02, -187500.02, 0.00, 0.00, 0.00
140, 149945.17, 148269.98, -187500.02, -187500.02, 154224.94, -187500.02, -187500.02, -187500.02, 0.00, 0.00, 0.00
141, 148996.80, 147080.47, -187500.02, -187500.02, 152978.31, -187500.02, -187500.02, -187500.02, 0.00, 0.00, 0.00
142, 149518.72, 148114.19, -187500.02, -187500.02, 153841.36, -187500.02, -187500.02, -187500.02, 0.00, 0.00, 0.00
143, 150462.86, 149343.27, -187500.02, -187500.02, 155106.89, -187500.02, -187500.02, -187500.02, 0.00, 0.00, 0.00
144, 150057.50, 148483.53, -187500.02, -187500.02, 154426.41, -187500.02, -187500.02, -187500.02, 0.00, 0.00, 0.00
145, 149064.50, 147138.73, -187500.02, -187500.02, 153066.34, -187500.02, -187500.02, -187500.02, 0.00, 0.00, 0.00
146, 149371.86, 147867.72, -187500.02, -187500.02, 153619.47, -187500.02, -187500.02, -187500.02, 0.00, 0.00, 0.00
147, 150420.33, 149318.52, -187500.02, -187500.02, 155059.70, -187500.02, -187500.02, -187500.02, 0.00, 0.00, 0.00
148, 150227.44, 148749.72, -187500.02, -187500.02, 154669.97, -187500.02, -187500.02, -187500.02, 0.00, 0.00, 0.00
149, 149128.22, 147191.23, -187500.02, -187500.02, 153146.97, -187500.02, -187500.02, -187500.02, 0.00, 0.00, 0.00
150, 149129.42, 147503.02, -187500.02, -187500.02, 153288.44, -187500.02, -187500.02, -187500.02, 0.00, 0.00, 0.00
151, 150252.33, 149134.17, -187500.02, -187500.02, 154859.66, -187500.02, -187500.02, -187500.02, 0.00, 0.00, 0.00
152, 150335.45, 148952.59, -187500.02, -187500.02, 154849.84, -187500.02, -187500.02, -187500.02, 0.00, 0.00, 0.00
153, 149244.02, 147334.95, -187500.02, -187500.02, 153312.27, -187500.02, -187500.02, -187500.02, 0.00, 0.00, 0.00
154, 149088.72, 147392.14, -187500.02, -187500.02, 153207.77, -187500.02, -187500.02, -187500.02, 0.00, 0.00, 0.00
155, 150225.67, 149084.63, -187500.02, -187500.02, 154798.77, -187500.02, -187500.02, -187500.02, 0.00, 0.00, 0.00
156, 150751.84, 149528.52, -187500.02, -187500.02, 155377.77, -187500.02, -187500.02, -187500.02, 0.00, 0.00, 0.00
157, 149878.05, 148082.52, -187500.02, -187500.02, 154058.48, -187500.02, -187500.02, -187500.02, 0.00, 0.00, 0.00
158, 149461.91, 147699.63, -187500.02, -187500.02, 153543.47, -187500.02, -187500.02, -187500.02, 0.00, 0.00, 0.00
159, 150440.27, 149233.78, -187500.02, -187500.02, 154946.33, -187500.02, -187500.02, -187500.02, 0.00, 0.00, 0.00
160, 151199.80, 150060.39, -187500.02, -187500.02, 155869.06, -187500.02, -187500.02, -187500.02, 0.00, 0.00, 0.00
161, 150535.39, 148839.56, -187500.02, -187500.02, 154799.39, -187500.02, -187500.02, -187500.02, 0.00, 0.00, 0.00
162, 149859.59, 148025.11, -187500.02, -187500.02, 153896.03, -187500.02, -187500.02, -187500.02, 0.00, 0.00, 0.00
163, 150617.00, 149323.48, -187500.02, -187500.02, 155036.91, -187500.02, -187500.02, -187500.02, 0.00, 0.00, 0.00
164, 151561.14, 150474.75, -187500.02, -187500.02, 156252.61, -187500.02, -187500.02, -187500.02, 0.00, 0.00, 0.00
165, 150980.06, 149366.31, -187500.02, -187500.02, 155320.28, -187500.02, -187500.02, -187500.02, 0.00, 0.00, 0.00
166, 150056.52, 148166.25, -187500.02, -187500.02, 154075.98, -187500.02, -187500.02, -187500.02, 0.00, 0.00, 0.00
167, 150551.25, 149142.41, -187500.02, -187500.02, 154874.03, -187500.02, -187500.02, -187500.02, 0.00, 0.00, 0.00
168, 151565.36, 150480.28, -187500.02, -187500.02, 156231.48, -187500.02, -187500.02, -187500.02, 0.00, 0.00, 0.00
169, 151190.55, 149654.30, -187500.02, -187500.02, 155590.69, -187500.02, -187500.02, -187500.02, 0.00, 0.00, 0.00
170, 150073.72, 148128.16, -187500.02, -187500.02, 154072.41, -187500.02, -187500.02, -187500.02, 0.00, 0.00, 0.00
171, 150186.42, 148615.81, -187500.02, -187500.02, 154385.34, -187500.02, -187500.02, -187500.02, 0.00, 0.00, 0.00
172, 151257.69, 150152.33, -187500.02, -187500.02, 155889.11, -187500.02, -187500.02, -187500.02, 0.00, 0.00, 0.00
173, 151221.38, 149796.61, -187500.02, -187500.02, 155708.80, -187500.02, -187500.02, -187500.02, 0.00, 0.00, 0.00
174, 150141.94, 148233.13, -187500.02, -187500.02, 154195.25, -187500.02, -187500.02, -187500.02, 0.00, 0.00, 0.00
175, 150109.58, 148473.00, -187500.02, -187500.02, 154268.42, -187500.02, -187500.02, -187500.02, 0.00, 0.00, 0.00
176, 151220.91, 150102.83, -187500.02, -187500.02, 155826.88, -187500.02, -187500.02, -187500.02, 0.00, 0.00, 0.00
177, 151450.03, 150127.34, -187500.02, -187500.02, 156011.14, -187500.02, -187500.02, -187500.02, 0.00, 0.00, 0.00
178, 150341.42, 148447.05, -187500.02, -187500.02, 154432.20, -187500.02, -187500.02, -187500.02, 0.00, 0.00, 0.00
179, 149969.27, 148210.19, -187500.02, -187500.02, 154044.95, -187500.02, -187500.02, -187500.02, 0.00, 0.00, 0.00
180, 150973.91, 149777.63, -187500.02, -187500.02, 155499.27, -187500.02, -187500.02, -187500.02, 0.00, 0.00, 0.00
181, 151479.75, 150242.45, -187500.02, -187500.02, 156091.45, -187500.02, -187500.02, -187500.02, 0.00, 0.00, 0.00
182, 150513.22, 148685.44, -187500.02, -187500.02, 154674.94, -187500.02, -187500.02, -187500.02, 0.00, 0.00, 0.00
183, 149870.16, 148018.48, -187500.02, -187500.02, 153892.41, -187500.02, -187500.02, -187500.02, 0.00, 0.00, 0.00
184, 150710.41, 149421.27, -187500.02, -187500.02, 155148.48, -187500.02, -187500.02, -187500.02, 0.00, 0.00, 0.00
185, 151475.58, 150312.97, -187500.02, -187500.02, 156127.17, -187500.02, -187500.02, -187500.02, 0.00, 0.00, 0.00
186, 150778.11, 149065.97, -187500.02, -187500.02, 155042.88, -187500.02, -187500.02, -187500.02, 0.00, 0.00, 0.00
187, 149968.08, 148073.80, -187500.02, -187500.02, 153975.58, -187500.02, -187500.02, -187500.02, 0.00, 0.00, 0.00
188, 150693.75, 149349.34, -187500.02, -187500.02, 155080.72, -187500.02, -187500.02, -187500.02, 0.00, 0.00, 0.00
189, 151735.70, 150654.19, -187500.02, -187500.02, 156428.72, -187500.02, -187500.02, -187500.02, 0.00, 0.00, 0.00
190, 151373.36, 149815.05, -187500.02, -187500.02, 155765.03, -187500.02, -187500.02, -187500.02, 0.00, 0.00, 0.00
191, 150401.59, 148487.75, -187500.02, -187500.02, 154419.34, -187500.02, -187500.02, -187500.02, 0.00, 0.00, 0.00
192, 150848.28, 149398.08, -187500.02, -187500.02, 155148.06, -187500.02, -187500.02, -187500.02, 0.00, 0.00, 0.00
193, 151997.84, 150933.75, -187500.02, -187500.02, 156681.63, -187500.02, -187500.02, -187500.02, 0.00, 0.00, 0.00
194, 151879.31, 150431.08, -187500.02, -187500.02, 156357.06, -187500.02, -187500.02, -187500.02, 0.00, 0.00, 0.00
195, 150922.73, 149041.67, -187500.02, -187500.02, 154990.55, -187500.02, -187500.02, -187500.02, 0.00, 0.00, 0.00
196, 151111.83, 149573.00, -187500.02, -187500.02, 155347.92, -187500.02, -187500.02, -187500.02, 0.00, 0.00, 0.00
197, 152340.17, 151293.13, -187500.02, -187500.02, 157016.95, -187500.02, -187500.02, -187500.02, 0.00, 0.00, 0.00
198, 152482.33, 151150.97, -187500.02, -187500.02, 157048.47, -187500.02, -187500.02, -187500.02, 0.00, 0.00, 0.00
199, 151370.02, 149484.95, -187500.02, -187500.02, 155464.98, -187500.02, -187500.02, -187500.02, 0.00, 0.00, 0.00
200, 151135.77, 149446.42, -187500.02, -187500.02, 155266.80, -187500.02, -187500.02, -187500.02, 0.00, 0.00, 0.00
201, 152204.84, 151074.19, -187500.02, -187500.02, 156799.53, -187500.02, -187500.02, -187500.02, 0.00, 0.00, 0.00
202, 152576.98, 151311.83, -187500.02, -187500.02, 157185.70, -187500.02, -187500.02, -187500.02, 0.00, 0.00, 0.00
203, 151500.59, 149637.72, -187500.02, -187500.02, 155633.92, -187500.02, -187500.02, -187500.02, 0.00, 0.00, 0.00
204, 150983.70, 149181.80, -187500.02, -187500.02, 155042.88, -187500.02, -187500.02, -187500.02, 0.00, 0.00, 0.00
205, 151912.94, 150686.61, -187500.02, -187500.02, 156416.36, -187500.02, -187500.02, -187500.02, 0.00, 0.00, 0.00
206, 152559.56, 151367.81, -187500.02, -187500.02, 157207.38, -187500.02, -187500.02, -187500.02, 0.00, 0.00, 0.00
207, 151666.61, 149887.98, -187500.02, -187500.02, 155878.63, -187500.02, -187500.02, -187500.02, 0.00, 0.00, 0.00
208, 150954.25, 149084.55, -187500.02, -187500.02, 154975.91, -187500.02, -187500.02, -187500.02, 0.00, 0.00, 0.00
209, 151653.52, 150317.00, -187500.02, -187500.02, 156055.61, -187500.02, -187500.02, -187500.02, 0.00, 0.00, 0.00
210, 152471.80, 151320.70, -187500.02, -187500.02, 157127.64, -187500.02, -187500.02, -187500.02, 0.00, 0.00, 0.00
211, 151836.95, 150159.66, -187500.02, -187500.02, 156138.63, -187500.02, -187500.02, -187500.02, 0.00, 0.00, 0.00
212, 150977.83, 149074.33, -187500.02, -187500.02, 154997.73, -187500.02, -187500.02, -187500.02, 0.00, 0.00, 0.00
213, 151481.20, 150050.25, -187500.02, -187500.02, 155804.73, -187500.02, -187500.02, -187500.02, 0.00, 0.00, 0.00
214, 152461.83, 151348.33, -187500.02, -187500.02, 157127.06, -187500.02, -187500.02, -187500.02, 0.00, 0.00, 0.00
215, 152055.22, 150481.34, -187500.02, -187500.02, 156442.92, -187500.02, -187500.02, -187500.02, 0.00, 0.00, 0.00
216, 150977.02, 149016.70, -187500.02, -187500.02, 154972.75, -187500.02, -187500.02, -187500.02, 0.00, 0.00, 0.00
217, 151214.08, 149664.66, -187500.02, -187500.02, 155442.27, -187500.02, -187500.02, -187500.02, 0.00, 0.00, 0.00
218, 152450.38, 151380.16, -187500.02, -187500.02, 157125.58, -187500.02, -187500.02, -187500.02, 0.00, 0.00, 0.00
219, 152512.56, 151101.31, -187500.02, -187500.02, 157026.70, -187500.02, -187500.02, -187500.02, 0.00, 0.00, 0.00
220, 151491.48, 149591.39, -187500.02, -187500.02, 155563.17, -187500.02, -187500.02, -187500.02, 0.00, 0.00, 0.00
221, 151546.67, 149934.80, -187500.02, -187500.02, 155734.30, -187500.02, -187500.02, -187500.02, 0.00, 0.00, 0.00
222, 152726.30, 151641.97, -187500.02, -187500.02, 157367.08, -187500.02, -187500.02, -187500.02, 0.00, 0.00, 0.00
223, 153091.63, 151812.73, -187500.02, -187500.02, 157699.33, -187500.02, -187500.02, -187500.02, 0.00, 0.00, 0.00
224, 152117.23, 150275.84, -187500.02, -187500.02, 156259.16, -187500.02, -187500.02, -187500.02, 0.00, 0.00, 0.00
225, 151926.44, 150246.03, -187500.02, -187500.02, 156074.25, -187500.02, -187500.02, -187500.02, 0.00, 0.00, 0.00
226, 153090.36, 151984.25, -187500.02, -187500.02, 157700.78, -187500.02, -187500.02, -187500.02, 0.00, 0.00, 0.00
227, 153610.45, 152413.03, -187500.02, -187500.02, 158268.14, -187500.02, -187500.02, -187500.02, 0.00, 0.00, 0.00
228, 152608.55, 150809.58, -187500.02, -187500.02, 156798.11, -187500.02, -187500.02, -187500.02, 0.00, 0.00, 0.00
229, 151943.20, 150118.52, -187500.02, -187500.02, 155990.38, -187500.02, -187500.02, -187500.02, 0.00, 0.00, 0.00
230, 152808.95, 151566.48, -187500.02, -187500.02, 157291.17, -187500.02, -187500.02, -187500.02, 0.00, 0.00, 0.00
231, 153534.78, 152377.56, -187500.02, -187500.02, 158197.80, -187500.02, -187500.02, -187500.02, 0.00, 0.00, 0.00
232, 152742.19, 151012.73, -187500.02, -187500.02, 156994.88, -187500.02, -187500.02, -187500.02, 0.00, 0.00, 0.00
233, 151929.50, 150052.70, -187500.02, -187500.02, 155954.03, -187500.02, -187500.02, -187500.02, 0.00, 0.00, 0.00
234, 152612.31, 151267.53, -187500.02, -187500.02, 157007.98, -187500.02, -187500.02, -187500.02, 0.00, 0.00, 0.00
235, 153503.22, 152385.78, -187500.02, -187500.02, 158178.66, -187500.02, -187500.02, -187500.02, 0.00, 0.00, 0.00
236, 152924.80, 151286.70, -187500.02, -187500.02, 157259.38, -187500.02, -187500.02, -187500.02, 0.00, 0.00, 0.00
237, 151924.78, 149993.25, -187500.02, -187500.02, 155927.89, -187500.02, -187500.02, -187500.02, 0.00, 0.00, 0.00
238, 152299.94, 150820.33, -187500.02, -187500.02, 156579.91, -187500.02, -187500.02, -187500.02, 0.00, 0.00, 0.00
239, 153349.91, 152258.00, -187500.02, -187500.02, 158020.25, -187500.02, -187500.02, -187500.02, 0.00, 0.00, 0.00
240, 153139.91, 151640.13, -187500.02, -187500.02, 157585.17, -187500.02, -187500.02, -187500.02, 0.00, 0.00, 0.00
241, 152033.00, 150089.55, -187500.02, -187500.02, 156054.42, -187500.02, -187500.02, -187500.02, 0.00, 0.00, 0.00
242, 152124.14, 150539.64, -187500.02, -187500.02, 156331.45, -187500.02, -187500.02, -187500.02, 0.00, 0.00, 0.00
243, 153204.38, 152095.88, -187500.02, -187500.02, 157846.42, -187500.02, -187500.02, -187500.02, 0.00, 0.00, 0.00
244, 153283.08, 151894.73, -187500.02, -187500.02, 157815.16, -187500.02, -187500.02, -187500.02, 0.00, 0.00, 0.00
245, 152188.75, 150268.52, -187500.02, -187500.02, 156259.34, -187500.02, -187500.02, -187500.02, 0.00, 0.00, 0.00
246, 151982.73, 150282.16, -187500.02, -187500.02, 156109.56, -187500.02, -187500.02, -187500.02, 0.00, 0.00, 0.00
247, 153040.78, 151883.20, -187500.02, -187500.02, 157625.48, -187500.02, -187500.02, -187500.02, 0.00, 0.00, 0.00
248, 153333.77, 152020.75, -187500.02, -187500.02, 157914.56, -187500.02, -187500.02, -187500.02, 0.00, 0.00, 0.00
249, 152288.48, 150408.55, -187500.02, -187500.02, 156411.16, -187500.02, -187500.02, -187500.02, 0.00, 0.00, 0.00
250, 151951.13, 150194.67, -187500.02, -187500.02, 156049.39, -187500.02, -187500.02, -187500.02, 0.00, 0.00, 0.00
251, 153034.41, 151850.66, -187500.02, -187500.02, 157582.98, -187500.02, -187500.02, -187500.02, 0.00, 0.00, 0.00
252, 153688.05, 152504.92, -187500.02, -187500.02, 158354.34, -187500.02, -187500.02, -187500.02, 0.00, 0.00, 0.00
253, 152909.38, 151160.22, -187500.02, -187500.02, 157150.11, -187500.02, -187500.02, -187500.02, 0.00, 0.00, 0.00
254, 152360.77, 150554.28, -187500.02, -187500.02, 156437.03, -187500.02, -187500.02, -187500.02, 0.00, 0.00, 0.00
255, 153237.41, 151985.28, -187500.02, -187500.02, 157714.75, -187500.02, -187500.02, -187500.02, 0.00, 0.00, 0.00
0, 154149.03, 153053.81, -187500.02, -187500.02, 158861.94, -187500.02, -187500.02, -187500.02, 0.00, 0.00, 0.00
1, 153537.13, 151890.25, -187500.02, -187500.02, 157869.14, -187500.02, -187500.02, -187500.02, 0.00, 0.00, 0.00
2, 152766.50, 150921.95, -187500.02, -187500.02, 156834.27, -187500.02, -187500.02, -187500.02, 0.00, 0.00, 0.00
3, 153465.13, 152131.28, -187500.02, -187500.02, 157869.83, -187500.02, -187500.02, -187500.02, 0.00, 0.00, 0.00
4, 154486.77, 153430.59, -187500.02, -187500.02, 159201.20, -187500.02, -187500.02, -187500.02, 0.00, 0.00, 0.00
5, 154098.16, 152559.38, -187500.02, -187500.02, 158516.84, -187500.02, -187500.02, -187500.02, 0.00, 0.00, 0.00
6, 153012.14, 151086.48, -187500.02, -187500.02, 157037.89, -187500.02, -187500.02, -187500.02, 0.00, 0.00, 0.00
7, 153276.55, 151776.86, -187500.02, -187500.02, 157548.14, -187500.02, -187500.02, -187500.02, 0.00, 0.00, 0.00
8, 154342.45, 153249.20, -187500.02, -187500.02, 159010.08, -187500.02, -187500.02, -187500.02, 0.00, 0.00, 0.00
9, 154175.73, 152714.44, -187500.02, -187500.02, 158653.86, -187500.02, -187500.02, -187500.02, 0.00, 0.00, 0.00
10, 153088.39, 151163.70, -187500.02, -187500.02, 157137.66, -187500.02, -187500.02, -187500.02, 0.00, 0.00, 0.00
11, 153091.50, 151467.80, -187500.02, -187500.02, 157274.22, -187500.02, -187500.02, -187500.02, 0.00, 0.00, 0.00
12, 154129.53, 152994.05, -187500.02, -187500.02, 158743.36, -187500.02, -187500.02, -187500.02, 0.00, 0.00, 0.00
13, 154298.41, 152938.20, -187500.02, -187500.02, 158846.72, -187500.02, -187500.02, -187500.02, 0.00, 0.00, 0.00
14, 153230.05, 151324.19, -187500.02, -187500.02, 157317.47, -187500.02, -187500.02, -187500.02, 0.00, 0.00, 0.00
15, 152932.06, 151189.61, -187500.02, -187500.02, 157031.69, -187500.02, -187500.02, -187500.02, 0.00, 0.00, 0.00
16, 153907.69, 152705.44, -187500.02, -187500.02, 158452.19, -187500.02, -187500.02, -187500.02, 0.00, 0.00, 0.00
17, 154324.47, 153044.94, -187500.02, -187500.02, 158927.14, -187500.02, -187500.02, -187500.02, 0.00, 0.00, 0.00
18, 153355.00, 151506.83, -187500.02, -187500.02, 157510.56, -187500.02, -187500.02, -187500.02, 0.00, 0.00, 0.00
19, 152804.64, 150968.39, -187500.02, -187500.02, 156848.98, -187500.02, -187500.02, -187500.02, 0.00, 0.00, 0.00
20, 153648.55, 152378.91, -187500.02, -187500.02, 158122.36, -187500.02, -187500.02, -187500.02, 0.00, 0.00, 0.00
21, 154334.41, 153137.86, -187500.02, -187500.02, 158982.67, -187500.02, -187500.02, -187500.02, 0.00, 0.00, 0.00
22, 153531.63, 151776.03, -187500.02, -187500.02, 157773.61, -187500.02, -187500.02, -187500.02, 0.00, 0.00, 0.00
23, 152810.06, 150922.53, -187500.02, -187500.02, 156832.78, -187500.02, -187500.02, -187500.02, 0.00, 0.00, 0.00
24, 153445.50, 152071.56, -187500.02, -187500.02, 157825.39, -187500.02, -187500.02, -187500.02, 0.00, 0.00, 0.00
25, 154297.13, 153141.58, -187500.02, -187500.02, 158953.67, -187500.02, -187500.02, -187500.02, 0.00, 0.00, 0.00
26, 153726.11, 152055.02, -187500.02, -187500.02, 158042.08, -187500.02, -187500.02, -187500.02, 0.00, 0.00, 0.00
27, 152815.66, 150886.56, -187500.02, -187500.02, 156828.28, -187500.02, -187500.02, -187500.02, 0.00, 0.00, 0.00
28, 153363.19, 151921.47, -187500.02, -187500.02, 157686.05, -187500.02, -187500.02, -187500.02, 0.00, 0.00, 0.00
29, 154474.44, 153380.48, -187500.02, -187500.02, 159157.45, -187500.02, -187500.02, -187500.02, 0.00, 0.00, 0.00
30, 154261.41, 152742.86, -187500.02, -187500.02, 158698.92, -187500.02, -187500.02, -187500.02, 0.00, 0.00, 0.00
31, 153323.80, 151417.11, -187500.02, -187500.02, 157375.70, -187500.02, -187500.02, -187500.02, 0.00, 0.00, 0.00
32, 153626.33, 152097.89, -187500.02, -187500.02, 157880.64, -187500.02, -187500.02, -187500.02, 0.00, 0.00, 0.00
33, 154805.00, 153726.89, -187500.02, -187500.02, 159475.52, -187500.02, -187500.02, -187500.02, 0.00, 0.00, 0.00
34, 154875.70, 153481.16, -187500.02, -187500.02, 159403.52, -187500.02, -187500.02, -187500.02, 0.00, 0.00, 0.00
35, 153845.52, 151949.34, -187500.02, -187500.02, 157925.44, -187500.02, -187500.02, -187500.02, 0.00, 0.00, 0.00
36, 153834.89, 152199.42, -187500.02, -187500.02, 158006.52, -187500.02, -187500.02, -187500.02, 0.00, 0.00, 0.00
37, 155008.36, 153910.33, -187500.02, -187500.02, 159639.27, -187500.02, -187500.02, -187500.02, 0.00, 0.00, 0.00
38, 155322.56, 154028.28, -187500.02, -187500.02, 159917.61, -187500.02, -187500.02, -187500.02, 0.00, 0.00, 0.00
39, 154260.92, 152391.19, -187500.02, -187500.02, 158384.09, -187500.02, -187500.02, -187500.02, 0.00, 0.00, 0.00
40, 153839.19, 152064.50, -187500.02, -187500.02, 157915.31, -187500.02, -187500.02, -187500.02, 0.00, 0.00, 0.00
41, 154826.44, 153627.42, -187500.02, -187500.02, 159357.14, -187500.02, -187500.02, -187500.02, 0.00, 0.00, 0.00
42, 155406.98, 154182.63, -187500.02, -187500.02, 160038.33, -187500.02, -187500.02, -187500.02, 0.00, 0.00, 0.00
43, 154424.02, 152590.77, -187500.02, -187500.02, 158590.20, -187500.02, -187500.02, -187500.02, 0.00, 0.00, 0.00
44, 153705.19, 151825.81, -187500.02, -187500.02, 157715.83, -187500.02, -187500.02, -187500.02, 0.00, 0.00, 0.00
45, 154528.69, 153228.89, -187500.02, -187500.02, 158968.13, -187500.02, -187500.02, -187500.02, 0.00, 0.00, 0.00
46, 155274.97, 154090.34, -187500.02, -187500.02, 159917.58, -187500.02, -187500.02, -187500.02, 0.00, 0.00, 0.00
47, 154510.77, 152766.03, -187500.02, -187500.02, 158762.30, -187500.02, -187500.02, -187500.02, 0.00, 0.00, 0.00
48, 153655.05, 151738.56, -187500.02, -187500.02, 157663.34, -187500.02, -187500.02, -187500.02, 0.00, 0.00, 0.00
49, 154315.72, 152926.50, -187500.02, -187500.02, 158684.61, -187500.02, -187500.02, -187500.02, 0.00, 0.00, 0.00
50, 155186.91, 154034.52, -187500.02, -187500.02, 159841.75, -187500.02, -187500.02, -187500.02, 0.00, 0.00, 0.00
51, 154690.19, 153062.42, -187500.02, -187500.02, 159044.95, -187500.02, -187500.02, -187500.02, 0.00, 0.00, 0.00
52, 153732.00, 151786.94, -187500.02, -187500.02, 157743.88, -187500.02, -187500.02, -187500.02, 0.00, 0.00, 0.00
53, 154069.19, 152552.08, -187500.02, -187500.02, 158335.64, -187500.02, -187500.02, -187500.02, 0.00, 0.00, 0.00
54, 155105.83, 153969.30, -187500.02, -187500.02, 159750.86, -187500.02, -187500.02, -187500.02, 0.00, 0.00, 0.00
55, 154887.53, 153360.55, -187500.02, -187500.02, 159320.64, -187500.02, -187500.02, -187500.02, 0.00, 0.00, 0.00
56, 153797.78, 151831.50, -187500.02, -187500.02, 157816.05, -187500.02, -187500.02, -187500.02, 0.00, 0.00, 0.00
57, 153931.52, 152311.80, -187500.02, -187500.02, 158119.63, -187500.02, -187500.02, -187500.02, 0.00, 0.00, 0.00
58, 155081.09, 153943.95, -187500.02, -187500.02, 159701.88, -187500.02, -187500.02, -187500.02, 0.00, 0.00, 0.00
59, 155275.33, 153899.38, -187500.02, -187500.02, 159820.02, -187500.02, -187500.02, -187500.02, 0.00, 0.00, 0.00
60, 154311.66, 152415.22, -187500.02, -187500.02, 158408.73, -187500.02, -187500.02, -187500.02, 0.00, 0.00, 0.00
61, 154199.05, 152505.30, -187500.02, -187500.02, 158337.36, -187500.02, -187500.02, -187500.02, 0.00, 0.00, 0.00
62, 155334.66, 154180.89, -187500.02, -187500.02, 159920.92, -187500.02, -187500.02, -187500.02, 0.00, 0.00, 0.00
63, 155773.25, 154500.03, -187500.02, -187500.02, 160386.03, -187500.02, -187500.02, -187500.02, 0.00, 0.00, 0.00
64, 154863.16, 153022.81, -187500.02, -187500.02, 159025.13, -187500.02, -187500.02, -187500.02, 0.00, 0.00, 0.00
65, 154463.16, 152681.05, -187500.02, -187500.02, 158549.59, -187500.02, -187500.02, -187500.02, 0.00, 0.00, 0.00
66, 155534.67, 154338.56, -187500.02, -187500.02, 160074.45, -187500.02, -187500.02, -187500.02, 0.00, 0.00, 0.00
67, 156215.75, 155031.89, -187500.02, -187500.02, 160883.06, -187500.02, -187500.02, -187500.02, 0.00, 0.00, 0.00
68, 155366.97, 153597.36, -187500.02, -187500.02, 159603.19, -187500.02, -187500.02, -187500.02, 0.00, 0.00, 0.00
69, 154604.02, 152716.08, -187500.02, -187500.02, 158630.53, -187500.02, -187500.02, -187500.02, 0.00, 0.00, 0.00
70, 155284.53, 153935.77, -187500.02, -187500.02, 159695.52, -187500.02, -187500.02, -187500.02, 0.00, 0.00, 0.00
71, 156137.23, 154983.19, -187500.02, -187500.02, 160811.47, -187500.02, -187500.02, -187500.02, 0.00, 0.00, 0.00
72, 155506.77, 153812.81, -187500.02, -187500.02, 159817.83, -187500.02, -187500.02, -187500.02, 0.00, 0.00, 0.00
73, 154498.94, 152541.58, -187500.02, -187500.02, 158499.52, -187500.02, -187500.02, -187500.02, 0.00, 0.00, 0.00
74, 154999.80, 153552.55, -187500.02, -187500.02, 159333.83, -187500.02, -187500.02, -187500.02, 0.00, 0.00, 0.00
75, 155944.52, 154799.38, -187500.02, -187500.02, 160609.42, -187500.02, -187500.02, -187500.02, 0.00, 0.00, 0.00
76, 155576.56, 154001.61, -187500.02, -187500.02, 159989.52, -187500.02, -187500.02, -187500.02, 0.00, 0.00, 0.00
77, 154549.98, 152593.52, -187500.02, -187500.02, 158579.45, -187500.02, -187500.02, -187500.02, 0.00, 0.00, 0.00
78, 154786.89, 153229.11, -187500.02, -187500.02, 159037.11, -187500.02, -187500.02, -187500.02, 0.00, 0.00, 0.00
79, 155837.66, 154700.53, -187500.02, -187500.02, 160487.83, -187500.02, -187500.02, -187500.02, 0.00, 0.00, 0.00
80, 155753.16, 154287.38, -187500.02, -187500.02, 160249.17, -187500.02, -187500.02, -187500.02, 0.00, 0.00, 0.00
81, 154672.38, 152717.86, -187500.02, -187500.02, 158730.03, -187500.02, -187500.02, -187500.02, 0.00, 0.00, 0.00
82, 154606.44, 152929.83, -187500.02, -187500.02, 158773.67, -187500.02, -187500.02, -187500.02, 0.00, 0.00, 0.00
83, 155703.88, 154547.75, -187500.02, -187500.02, 160320.98, -187500.02, -187500.02, -187500.02, 0.00, 0.00, 0.00
84, 155935.95, 154578.33, -187500.02, -187500.02, 160508.61, -187500.02, -187500.02, -187500.02, 0.00, 0.00, 0.00
85, 154823.80, 152892.61, -187500.02, -187500.02, 158920.86, -187500.02, -187500.02, -187500.02, 0.00, 0.00, 0.00
86, 154462.80, 152675.47, -187500.02, -187500.02, 158551.58, -187500.02, -187500.02, -187500.02, 0.00, 0.00, 0.00
87, 155459.11, 154240.52, -187500.02, -187500.02, 160004.08, -187500.02, -187500.02, -187500.02, 0.00, 0.00, 0.00
88, 155967.86, 154697.95, -187500.02, -187500.02, 160592.61, -187500.02, -187500.02, -187500.02, 0.00, 0.00, 0.00
89, 154982.55, 153120.64, -187500.02, -187500.02, 159149.83, -187500.02, -187500.02, -187500.02, 0.00, 0.00, 0.00
90, 154398.77, 152533.31, -187500.02, -187500.02, 158441.30, -187500.02, -187500.02, -187500.02, 0.00, 0.00, 0.00
91, 155343.75, 154069.16, -187500.02, -187500.02, 159829.30, -187500.02, -187500.02, -187500.02, 0.00, 0.00, 0.00
92, 156206.56, 155047.66, -187500.02, -187500.02, 160897.66, -187500.02, -187500.02, -187500.02, 0.00, 0.00, 0.00
93, 155533.16, 153809.17, -187500.02, -187500.02, 159819.97, -187500.02, -187500.02, -187500.02, 0.00, 0.00, 0.00
94, 154814.30, 152932.39, -187500.02, -187500.02, 158862.69, -187500.02, -187500.02, -187500.02, 0.00, 0.00, 0.00
95, 155556.36, 154211.09, -187500.02, -187500.02, 159976.53, -187500.02, -187500.02, -187500.02, 0.00, 0.00, 0.00
96, 156607.84, 155515.41, -187500.02, -187500.02, 161329.31, -187500.02, -187500.02, -187500.02, 0.00, 0.00, 0.00
97, 156190.03, 154596.70, -187500.02, -187500.02, 160588.14, -187500.02, -187500.02, -187500.02, 0.00, 0.00, 0.00
98, 155334.31, 153440.70, -187500.02, -187500.02, 159397.86, -187500.02, -187500.02, -187500.02, 0.00, 0.00, 0.00
99, 155830.66, 154393.91, -187500.02, -187500.02, 160173.48, -187500.02, -187500.02, -187500.02, 0.00, 0.00, 0.00
100, 156941.27, 155862.94, -187500.02, -187500.02, 161651.97, -187500.02, -187500.02, -187500.02, 0.00, 0.00, 0.00
101, 156672.77, 155162.78, -187500.02, -187500.02, 161138.22, -187500.02, -187500.02, -187500.02, 0.00, 0.00, 0.00
102, 155553.89, 153601.25, -187500.02, -187500.02, 159597.06, -187500.02, -187500.02, -187500.02, 0.00, 0.00, 0.00
103, 155628.64, 154022.02, -187500.02, -187500.02, 159840.22, -187500.02, -187500.02, -187500.02, 0.00, 0.00, 0.00
104, 156718.17, 155590.11, -187500.02, -187500.02, 161364.81, -187500.02, -187500.02, -187500.02, 0.00, 0.00, 0.00
105, 156773.20, 155360.72, -187500.02, -187500.02, 161308.27, -187500.02, -187500.02, -187500.02, 0.00, 0.00, 0.00
106, 155642.66, 153697.39, -187500.02, -187500.02, 159715.13, -187500.02, -187500.02, -187500.02, 0.00, 0.00, 0.00
107, 155456.38, 153733.97, -187500.02, -187500.02, 159590.84, -187500.02, -187500.02, -187500.02, 0.00, 0.00, 0.00
108, 156472.67, 155279.13, -187500.02, -187500.02, 161051.16, -187500.02, -187500.02, -187500.02, 0.00, 0.00, 0.00
109, 156838.41, 155526.73, -187500.02, -187500.02, 161441.42, -187500.02, -187500.02, -187500.02, 0.00, 0.00, 0.00
110, 155869.11, 153996.34, -187500.02, -187500.02, 160018.69, -187500.02, -187500.02, -187500.02, 0.00, 0.00, 0.00
111, 155390.23, 153567.61, -187500.02, -187500.02, 159458.75, -187500.02, -187500.02, -187500.02, 0.00, 0.00, 0.00
112, 156280.58, 155019.36, -187500.02, -187500.02, 160786.89, -187500.02, -187500.02, -187500.02, 0.00, 0.00, 0.00
113, 156835.38, 155580.81, -187500.02, -187500.02, 161464.09, -187500.02, -187500.02, -187500.02, 0.00, 0.00, 0.00
114, 155976.97, 154161.47, -187500.02, -187500.02, 160188.36, -187500.02, -187500.02, -187500.02, 0.00, 0.00, 0.00
115, 155273.34, 153369.81, -187500.02, -187500.02, 159298.11, -187500.02, -187500.02, -187500.02, 0.00, 0.00, 0.00
116, 156025.45, 154676.59, -187500.02, -187500.02, 160450.41, -187500.02, -187500.02, -187500.02, 0.00, 0.00, 0.00
117, 156761.03, 155547.13, -187500.02, -187500.02, 161402.45, -187500.02, -187500.02, -187500.02, 0.00, 0.00, 0.00
118, 156069.63, 154336.20, -187500.02, -187500.02, 160355.81, -187500.02, -187500.02, -187500.02, 0.00, 0.00, 0.00
119, 155224.33, 153284.48, -187500.02, -187500.02, 159241.05, -187500.02, -187500.02, -187500.02, 0.00, 0.00, 0.00
120, 155825.14, 154398.31, -187500.02, -187500.02, 160181.52, -187500.02, -187500.02, -187500.02, 0.00, 0.00, 0.00
121, 156894.36, 155775.81, -187500.02, -187500.02, 161591.11, -187500.02, -187500.02, -187500.02, 0.00, 0.00, 0.00
122, 156545.27, 154963.50, -187500.02, -187500.02, 160958.58, -187500.02, -187500.02, -187500.02, 0.00, 0.00, 0.00
123, 155652.38, 153729.59, -187500.02, -187500.02, 159709.75, -187500.02, -187500.02, -187500.02, 0.00, 0.00, 0.00
124, 156028.66, 154522.72, -187500.02, -187500.02, 160324.39, -187500.02, -187500.02, -187500.02, 0.00, 0.00, 0.00
125, 157243.09, 156165.42, -187500.02, -187500.02, 161948.84, -187500.02, -187500.02, -187500.02, 0.00, 0.00, 0.00
126, 157217.14, 155778.98, -187500.02, -187500.02, 161740.77, -187500.02, -187500.02, -187500.02, 0.00, 0.00, 0.00
127, 156244.92, 154343.81, -187500.02, -187500.02, 160343.11, -187500.02, -187500.02, -187500.02, 0.00, 0.00, 0.00
128, 156340.05, 154742.58, -187500.02, -187500.02, 160569.67, -187500.02, -187500.02, -187500.02, 0.00, 0.00, 0.00
129, 157496.11, 156394.61, -187500.02, -187500.02, 162163.31, -187500.02, -187500.02, -187500.02, 0.00, 0.00, 0.00
130, 157668.28, 156324.81, -187500.02, -187500.02, 162260.72, -187500.02, -187500.02, -187500.02, 0.00, 0.00, 0.00
131, 156574.25, 154671.92, -187500.02, -187500.02, 160696.03, -187500.02, -187500.02, -187500.02, 0.00, 0.00, 0.00
132, 156211.39, 154456.94, -187500.02, -187500.02, 160331.84, -187500.02, -187500.02, -187500.02, 0.00, 0.00, 0.00
133, 157198.25, 156001.05, -187500.02, -187500.02, 161773.05, -187500.02, -187500.02, -187500.02, 0.00, 0.00, 0.00
134, 157621.05, 156341.08, -187500.02, -187500.02, 162250.03, -187500.02, -187500.02, -187500.02, 0.00, 0.00, 0.00
135, 156653.88, 154798.47, -187500.02, -187500.02, 160831.38, -187500.02, -187500.02, -187500.02, 0.00, 0.00, 0.00
136, 156104.89, 154267.53, -187500.02, -187500.02, 160175.25, -187500.02, -187500.02, -187500.02, 0.00, 0.00, 0.00
137, 156989.55, 155711.55, -187500.02, -187500.02, 161482.55, -187500.02, -187500.02, -187500.02, 0.00, 0.00, 0.00
138, 157638.13, 156424.75, -187500.02, -187500.02, 162296.03, -187500.02, -187500.02, -187500.02, 0.00, 0.00, 0.00
139, 156825.73, 155042.56, -187500.02, -187500.02, 161070.44, -187500.02, -187500.02, -187500.02, 0.00, 0.00, 0.00
140, 155998.23, 154075.86, -187500.02, -187500.02, 160020.98, -187500.02, -187500.02, -187500.02, 0.00, 0.00, 0.00
141, 156652.08, 155267.69, -187500.02, -187500.02, 161052.00, -187500.02, -187500.02, -187500.02, 0.00, 0.00, 0.00
142, 157504.42, 156335.25, -187500.02, -187500.02, 162175.11, -187500.02, -187500.02, -187500.02, 0.00, 0.00, 0.00
143, 156960.52, 155286.30, -187500.02, -187500.02, 161297.09, -187500.02, -187500.02, -187500.02, 0.00, 0.00, 0.00
144, 156040.41, 154094.06, -187500.02, -187500.02, 160065.34, -187500.02, -187500.02, -187500.02, 0.00, 0.00, 0.00
145, 156446.84, 154949.91, -187500.02, -187500.02, 160753.25, -187500.02, -187500.02, -187500.02, 0.00, 0.00, 0.00
146, 157469.11, 156330.89, -187500.02, -187500.02, 162144.00, -187500.02, -187500.02, -187500.02, 0.00, 0.00, 0.00
147, 157175.67, 155613.69, -187500.02, -187500.02, 161611.16, -187500.02, -187500.02, -187500.02, 0.00, 0.00, 0.00
148, 156084.48, 154112.34, -187500.02, -187500.02, 160118.64, -187500.02, -187500.02, -187500.02, 0.00, 0.00, 0.00
149, 156245.44, 154646.75, -187500.02, -187500.02, 160475.59, -187500.02, -187500.02, -187500.02, 0.00, 0.00, 0.00
150, 157349.19, 156215.98, -187500.02, -187500.02, 162010.47, -187500.02, -187500.02, -187500.02, 0.00, 0.00, 0.00
151, 157319.58, 155862.78, -187500.02, -187500.02, 161834.16, -187500.02, -187500.02, -187500.02, 0.00, 0.00, 0.00
152, 156191.95, 154231.03, -187500.02, -187500.02, 160259.08, -187500.02, -187500.02, -187500.02, 0.00, 0.00, 0.00
153, 156133.30, 154446.09, -187500.02, -187500.02, 160304.34, -187500.02, -187500.02, -187500.02, 0.00, 0.00, 0.00
154, 157316.67, 156171.50, -187500.02, -187500.02, 161949.25, -187500.02, -187500.02, -187500.02, 0.00, 0.00, 0.00
155, 157730.75, 156426.98, -187500.02, -187500.02, 162355.31, -187500.02, -187500.02, -187500.02, 0.00, 0.00, 0.00
156, 156768.27, 154899.28, -187500.02, -187500.02, 160933.25, -187500.02, -187500.02, -187500.02, 0.00, 0.00, 0.00
157, 156463.91, 154708.38, -187500.02, -187500.02, 160599.22, -187500.02, -187500.02, -187500.02, 0.00, 0.00, 0.00
158, 157531.52, 156341.97, -187500.02, -187500.02, 162114.27, -187500.02, -187500.02, -187500.02, 0.00, 0.00, 0.00
159, 158185.09, 156985.55, -187500.02, -187500.02, 162877.63, -187500.02, -187500.02, -187500.02, 0.00, 0.00, 0.00
160, 157345.84, 155551.34, -187500.02, -187500.02, 161587.97, -187500.02, -187500.02, -187500.02, 0.00, 0.00, 0.00
161, 156774.55, 154948.80, -187500.02, -187500.02, 160868.72, -187500.02, -187500.02, -187500.02, 0.00, 0.00, 0.00
162, 157719.84, 156461.56, -187500.02, -187500.02, 162232.28, -187500.02, -187500.02, -187500.02, 0.00, 0.00, 0.00
163, 158538.75, 157396.59, -187500.02, -187500.02, 163253.78, -187500.02, -187500.02, -187500.02, 0.00, 0.00, 0.00
164, 157815.25, 156101.61, -187500.02, -187500.02, 162131.03, -187500.02, -187500.02, -187500.02, 0.00, 0.00, 0.00
165, 156888.81, 154959.08, -187500.02, -187500.02, 160926.08, -187500.02, -187500.02, -187500.02, 0.00, 0.00, 0.00
166, 157455.31, 156045.48, -187500.02, -187500.02, 161842.25, -187500.02, -187500.02, -187500.02, 0.00, 0.00, 0.00
167, 158380.56, 157235.08, -187500.02, -187500.02, 163074.80, -187500.02, -187500.02, -187500.02, 0.00, 0.00, 0.00
168, 157881.91, 156258.64, -187500.02, -187500.02, 162275.77, -187500.02, -187500.02, -187500.02, 0.00, 0.00, 0.00
169, 156886.69, 154935.48, -187500.02, -187500.02, 160931.58, -187500.02, -187500.02, -187500.02, 0.00, 0.00, 0.00
170, 157175.94, 155648.20, -187500.02, -187500.02, 161470.78, -187500.02, -187500.02, -187500.02, 0.00, 0.00, 0.00
171, 158222.20, 157094.11, -187500.02, -187500.02, 162909.16, -187500.02, -187500.02, -187500.02, 0.00, 0.00, 0.00
172, 158011.20, 156501.86, -187500.02, -187500.02, 162495.52, -187500.02, -187500.02, -187500.02, 0.00, 0.00, 0.00
173, 156936.70, 154981.36, -187500.02, -187500.02, 161005.47, -187500.02, -187500.02, -187500.02, 0.00, 0.00, 0.00
174, 156947.22, 155304.52, -187500.02, -187500.02, 161157.81, -187500.02, -187500.02, -187500.02, 0.00, 0.00, 0.00
175, 157997.02, 156838.91, -187500.02, -187500.02, 162639.67, -187500.02, -187500.02, -187500.02, 0.00, 0.00, 0.00
176, 158098.02, 156697.55, -187500.02, -187500.02, 162662.09, -187500.02, -187500.02, -187500.02, 0.00, 0.00, 0.00
177, 157043.03, 155119.17, -187500.02, -187500.02, 161158.84, -187500.02, -187500.02, -187500.02, 0.00, 0.00, 0.00
178, 156809.42, 155067.50, -187500.02, -187500.02, 160951.22, -187500.02, -187500.02, -187500.02, 0.00, 0.00, 0.00
179, 157838.20, 156645.52, -187500.02, -187500.02, 162431.80, -187500.02, -187500.02, -187500.02, 0.00, 0.00, 0.00
180, 158180.00, 156858.14, -187500.02, -187500.02, 162790.67, -187500.02, -187500.02, -187500.02, 0.00, 0.00, 0.00
181, 157180.61, 155305.70, -187500.02, -187500.02, 161351.30, -187500.02, -187500.02, -187500.02, 0.00, 0.00, 0.00
182, 156694.31, 154861.78, -187500.02, -187500.02, 160780.05, -187500.02, -187500.02, -187500.02, 0.00, 0.00, 0.00
183, 157665.47, 156411.16, -187500.02, -187500.02, 162194.64, -187500.02, -187500.02, -187500.02, 0.00, 0.00, 0.00
184, 158420.47, 157221.47, -187500.02, -187500.02, 163110.83, -187500.02, -187500.02, -187500.02, 0.00, 0.00, 0.00
185, 157681.03, 155922.17, -187500.02, -187500.02, 161961.89, -187500.02, -187500.02, -187500.02, 0.00, 0.00, 0.00
186, 157050.73, 155191.39, -187500.02, -187500.02, 161134.81, -187500.02, -187500.02, -187500.02, 0.00, 0.00, 0.00
187, 157833.63, 156508.61, -187500.02, -187500.02, 162295.03, -187500.02, -187500.02, -187500.02, 0.00, 0.00, 0.00
188, 158795.19, 157683.13, -187500.02, -187500.02, 163529.30, -187500.02, -187500.02, -187500.02, 0.00, 0.00, 0.00
189, 158324.19, 156700.67, -187500.02, -187500.02, 162718.86, -187500.02, -187500.02, -187500.02, 0.00, 0.00, 0.00
190, 157510.06, 155632.31, -187500.02, -187500.02, 161601.75, -187500.02, -187500.02, -187500.02, 0.00, 0.00, 0.00
191, 158104.25, 156706.88, -187500.02, -187500.02, 162504.63, -187500.02, -187500.02, -187500.02, 0.00, 0.00, 0.00
192, 159137.98, 158050.63, -187500.02, -187500.02, 163872.17, -187500.02, -187500.02, -187500.02, 0.00, 0.00, 0.00
193, 158784.28, 157240.56, -187500.02, -187500.02, 163245.16, -187500.02, -187500.02, -187500.02, 0.00, 0.00, 0.00
194, 157740.59, 155814.41, -187500.02, -187500.02, 161818.08, -187500.02, -187500.02, -187500.02, 0.00, 0.00, 0.00
195, 157933.83, 156382.33, -187500.02, -187500.02, 162214.52, -187500.02, -187500.02, -187500.02, 0.00, 0.00, 0.00
196, 158911.94, 157769.77, -187500.02, -187500.02, 163580.44, -187500.02, -187500.02, -187500.02, 0.00, 0.00, 0.00
197, 158796.48, 157332.20, -187500.02, -187500.02, 163315.42, -187500.02, -187500.02, -187500.02, 0.00, 0.00, 0.00
198, 157684.48, 155734.56, -187500.02, -187500.02, 161765.47, -187500.02, -187500.02, -187500.02, 0.00, 0.00, 0.00
199, 157617.30, 155938.86, -187500.02, -187500.02, 161801.45, -187500.02, -187500.02, -187500.02, 0.00, 0.00, 0.00
200, 158639.06, 157466.09, -187500.02, -187500.02, 163258.16, -187500.02, -187500.02, -187500.02, 0.00, 0.00, 0.00
201, 158908.56, 157555.77, -187500.02, -187500.02, 163501.34, -187500.02, -187500.02, -187500.02, 0.00, 0.00, 0.00
202, 157794.19, 155870.00, -187500.02, -187500.02, 161913.86, -187500.02, -187500.02, -187500.02, 0.00, 0.00, 0.00
203, 157465.86, 155694.22, -187500.02, -187500.02, 161586.61, -187500.02, -187500.02, -187500.02, 0.00, 0.00, 0.00
204, 158469.13, 157259.67, -187500.02, -187500.02, 163041.69, -187500.02, -187500.02, -187500.02, 0.00, 0.00, 0.00
205, 158946.92, 157672.39, -187500.02, -187500.02, 163588.91, -187500.02, -187500.02, -187500.02, 0.00, 0.00, 0.00
206, 157935.86, 156077.52, -187500.02, -187500.02, 162127.91, -187500.02, -187500.02, -187500.02, 0.00, 0.00, 0.00
207, 157316.38, 155451.13, -187500.02, -187500.02, 161382.63, -187500.02, -187500.02, -187500.02, 0.00, 0.00, 0.00
208, 158135.30, 156825.84, -187500.02, -187500.02, 162615.55, -187500.02, -187500.02, -187500.02, 0.00, 0.00, 0.00
209, 158862.17, 157668.02, -187500.02, -187500.02, 163547.27, -187500.02, -187500.02, -187500.02, 0.00, 0.00, 0.00
210, 158151.34, 156410.55, -187500.02, -187500.02, 162450.53, -187500.02, -187500.02, -187500.02, 0.00, 0.00, 0.00
211, 157353.06, 155445.33, -187500.02, -187500.02, 161409.08, -187500.02, -187500.02, -187500.02, 0.00, 0.00, 0.00
212, 157969.89, 156577.77, -187500.02, -187500.02, 162379.83, -187500.02, -187500.02, -187500.02, 0.00, 0.00, 0.00
213, 158854.80, 157698.86, -187500.02, -187500.02, 163552.14, -187500.02, -187500.02, -187500.02, 0.00, 0.00, 0.00
214, 158365.86, 156730.61, -187500.02, -187500.02, 162755.88, -187500.02, -187500.02, -187500.02, 0.00, 0.00, 0.00
215, 157387.41, 155434.42, -187500.02, -187500.02, 161430.94, -187500.02, -187500.02, -187500.02, 0.00, 0.00, 0.00
216, 157826.33, 156347.27, -187500.02, -187500.02, 162163.13, -187500.02, -187500.02, -187500.02, 0.00, 0.00, 0.00
217, 158981.78, 157895.20, -187500.02, -187500.02, 163712.13, -187500.02, -187500.02, -187500.02, 0.00, 0.00, 0.00
218, 158811.64, 157310.70, -187500.02, -187500.02, 163311.92, -187500.02, -187500.02, -187500.02, 0.00, 0.00, 0.00
219, 157807.48, 155889.78, -187500.02, -187500.02, 161904.66, -187500.02, -187500.02, -187500.02, 0.00, 0.00, 0.00
220, 158024.34, 156458.00, -187500.02, -187500.02, 162296.39, -187500.02, -187500.02, -187500.02, 0.00, 0.00, 0.00
221, 159195.36, 158102.36, -187500.02, -187500.02, 163897.31, -187500.02, -187500.02, -187500.02, 0.00, 0.00, 0.00
222, 159350.13, 157991.42, -187500.02, -187500.02, 163953.42, -187500.02, -187500.02, -187500.02, 0.00, 0.00, 0.00
223, 158379.16, 156516.28, -187500.02, -187500.02, 162542.17, -187500.02, -187500.02, -187500.02, 0.00, 0.00, 0.00
224, 158367.56, 156736.55, -187500.02, -187500.02, 162595.50, -187500.02, -187500.02, -187500.02, 0.00, 0.00, 0.00
225, 159480.34, 158360.16, -187500.02, -187500.02, 164135.48, -187500.02, -187500.02, -187500.02, 0.00, 0.00, 0.00
226, 159831.91, 158565.59, -187500.02, -187500.02, 164491.94, -187500.02, -187500.02, -187500.02, 0.00, 0.00, 0.00
227, 158830.13, 156996.59, -187500.02, -187500.02, 163035.25, -187500.02, -187500.02, -187500.02, 0.00, 0.00, 0.00
228, 158332.98, 156541.48, -187500.02, -187500.02, 162451.92, -187500.02, -187500.02, -187500.02, 0.00, 0.00, 0.00
229, 159214.80, 157982.44, -187500.02, -187500.02, 163769.53, -187500.02, -187500.02, -187500.02, 0.00, 0.00, 0.00
230, 159790.97, 158569.14, -187500.02, -187500.02, 164473.92, -187500.02, -187500.02, -187500.02, 0.00, 0.00, 0.00
231, 158865.98, 157067.30, -187500.02, -187500.02, 163117.42, -187500.02, -187500.02, -187500.02, 0.00, 0.00, 0.00
232, 158196.02, 156332.00, -187500.02, -187500.02, 162280.28, -187500.02, -187500.02, -187500.02, 0.00, 0.00, 0.00
233, 158923.72, 157592.84, -187500.02, -187500.02, 163393.06, -187500.02, -187500.02, -187500.02, 0.00, 0.00, 0.00
234, 159723.80, 158561.80, -187500.02, -187500.02, 164434.47, -187500.02, -187500.02, -187500.02, 0.00, 0.00, 0.00
235, 159070.83, 157376.64, -187500.02, -187500.02, 163419.47, -187500.02, -187500.02, -187500.02, 0.00, 0.00, 0.00
236, 158150.09, 156213.19, -187500.02, -187500.02, 162204.08, -187500.02, -187500.02, -187500.02, 0.00, 0.00, 0.00
237, 158639.78, 157201.09, -187500.02, -187500.02, 163019.89, -187500.02, -187500.02, -187500.02, 0.00, 0.00, 0.00
238, 159616.44, 158481.03, -187500.02, -187500.02, 164331.97, -187500.02, -187500.02, -187500.02, 0.00, 0.00, 0.00
239, 159175.44, 157568.50, -187500.02, -187500.02, 163602.78, -187500.02, -187500.02, -187500.02, 0.00, 0.00, 0.00
240, 158086.38, 156111.53, -187500.02, -187500.02, 162136.78, -187500.02, -187500.02, -187500.02, 0.00, 0.00, 0.00
241, 158310.84, 156746.25, -187500.02, -187500.02, 162593.31, -187500.02, -187500.02, -187500.02, 0.00, 0.00, 0.00
242, 159367.58, 158233.72, -187500.02, -187500.02, 164061.83, -187500.02, -187500.02, -187500.02, 0.00, 0.00, 0.00
243, 159308.91, 157839.94, -187500.02, -187500.02, 163842.08, -187500.02, -187500.02, -187500.02, 0.00, 0.00, 0.00
244, 158207.27, 156255.27, -187500.02, -187500.02, 162299.28, -187500.02, -187500.02, -187500.02, 0.00, 0.00, 0.00
245, 158191.97, 156543.09, -187500.02, -187500.02, 162416.64, -187500.02, -187500.02, -187500.02, 0.00, 0.00, 0.00
246, 159246.70, 158090.38, -187500.02, -187500.02, 163905.25, -187500.02, -187500.02, -187500.02, 0.00, 0.00, 0.00
247, 159377.41, 157990.42, -187500.02, -187500.02, 163966.53, -187500.02, -187500.02, -187500.02, 0.00, 0.00, 0.00
248, 158297.34, 156377.84, -187500.02, -187500.02, 162435.11, -187500.02, -187500.02, -187500.02, 0.00, 0.00, 0.00
249, 158074.42, 156339.67, -187500.02, -187500.02, 162240.48, -187500.02, -187500.02, -187500.02, 0.00, 0.00, 0.00
250, 159200.20, 158038.66, -187500.02, -187500.02, 163832.14, -187500.02, -187500.02, -187500.02, 0.00, 0.00, 0.00
251, 159791.75, 158566.64, -187500.02, -187500.02, 164494.48, -187500.02, -187500.02, -187500.02, 0.00, 0.00, 0.00
252, 158909.09, 157102.42, -187500.02, -187500.02, 163157.80, -187500.02, -187500.02, -187500.02, 0.00, 0.00, 0.00
253, 158457.45, 156670.25, -187500.02, -187500.02, 162599.97, -187500.02, -187500.02, -187500.02, 0.00, 0.00, 0.00
254, 159444.39, 158225.48, -187500.02, -187500.02, 164016.77, -187500.02, -187500.02, -187500.02, 0.00, 0.00, 0.00
255, 160218.38, 159068.03, -187500.02, -187500.02, 164961.72, -187500.02, -187500.02, -187500.02, 0.00, 0.00, 0.00
0, 159532.17, 157826.11, -187500.02, -187500.02, 163875.67, -187500.02, -187500.02, -187500.02, 0.00, 0.00, 0.00
1, 158853.78, 157007.67, -187500.02, -187500.02, 162973.78, -187500.02, -187500.02, -187500.02, 0.00, 0.00, 0.00
2, 159619.44, 158298.48, -187500.02, -187500.02, 164107.34, -187500.02, -187500.02, -187500.02, 0.00, 0.00, 0.00
3, 160497.33, 159372.66, -187500.02, -187500.02, 165243.42, -187500.02, -187500.02, -187500.02, 0.00, 0.00, 0.00
4, 159940.45, 158311.98, -187500.02, -187500.02, 164356.47, -187500.02, -187500.02, -187500.02, 0.00, 0.00, 0.00
5, 158992.20, 157071.14, -187500.02, -187500.02, 163079.69, -187500.02, -187500.02, -187500.02, 0.00, 0.00, 0.00
6, 159386.33, 157915.92, -187500.02, -187500.02, 163751.80, -187500.02, -187500.02, -187500.02, 0.00, 0.00, 0.00
7, 160365.47, 159240.50, -187500.02, -187500.02, 165090.56, -187500.02, -187500.02, -187500.02, 0.00, 0.00, 0.00
8, 160045.14, 158494.56, -187500.02, -187500.02, 164527.34, -187500.02, -187500.02, -187500.02, 0.00, 0.00, 0.00
9, 158933.22, 156972.67, -187500.02, -187500.02, 163014.08, -187500.02, -187500.02, -187500.02, 0.00, 0.00, 0.00
10, 159079.78, 157488.28, -187500.02, -187500.02, 163351.30, -187500.02, -187500.02, -187500.02, 0.00, 0.00, 0.00
11, 160120.72, 158971.70, -187500.02, -187500.02, 164801.23, -187500.02, -187500.02, -187500.02, 0.00, 0.00, 0.00
12, 160100.48, 158656.50, -187500.02, -187500.02, 164655.91, -187500.02, -187500.02, -187500.02, 0.00, 0.00, 0.00
13, 159034.41, 157099.19, -187500.02, -187500.02, 163153.83, -187500.02, -187500.02, -187500.02, 0.00, 0.00, 0.00
14, 158909.72, 157210.34, -187500.02, -187500.02, 163103.98, -187500.02, -187500.02, -187500.02, 0.00, 0.00, 0.00
15, 159927.89, 158742.86, -187500.02, -187500.02, 164559.53, -187500.02, -187500.02, -187500.02, 0.00, 0.00, 0.00
16, 160202.69, 158863.98, -187500.02, -187500.02, 164828.17, -187500.02, -187500.02, -187500.02, 0.00, 0.00, 0.00
17, 159202.69, 157313.97, -187500.02, -187500.02, 163377.41, -187500.02, -187500.02, -187500.02, 0.00, 0.00, 0.00
18, 158786.78, 156990.17, -187500.02, -187500.02, 162912.20, -187500.02, -187500.02, -187500.02, 0.00, 0.00, 0.00
19, 159757.14, 158520.94, -187500.02, -187500.02, 164322.91, -187500.02, -187500.02, -187500.02, 0.00, 0.00, 0.00
20, 160294.55, 159033.86, -187500.02, -187500.02, 164958.17, -187500.02, -187500.02, -187500.02, 0.00, 0.00, 0.00
21, 159354.81, 157521.72, -187500.02, -187500.02, 163587.92, -187500.02, -187500.02, -187500.02, 0.00, 0.00, 0.00
22, 158709.47, 156832.31, -187500.02, -187500.02, 162791.73, -187500.02, -187500.02, -187500.02, 0.00, 0.00, 0.00
23, 159568.34, 158266.02, -187500.02, -187500.02, 164072.81, -187500.02, -187500.02, -187500.02, 0.00, 0.00, 0.00
24, 160438.00, 159283.02, -187500.02, -187500.02, 165171.31, -187500.02, -187500.02, -187500.02, 0.00, 0.00, 0.00
25, 159802.73, 158098.23, -187500.02, -187500.02, 164150.36, -187500.02, -187500.02, -187500.02, 0.00, 0.00, 0.00
26, 159021.66, 157129.06, -187500.02, -187500.02, 163109.44, -187500.02, -187500.02, -187500.02, 0.00, 0.00, 0.00
27, 159719.88, 158349.59, -187500.02, -187500.02, 164158.67, -187500.02, -187500.02, -187500.02, 0.00, 0.00, 0.00
28, 160735.17, 159627.28, -187500.02, -187500.02, 165477.63, -187500.02, -187500.02, -187500.02, 0.00, 0.00, 0.00
29, 160350.69, 158773.64, -187500.02, -187500.02, 164800.03, -187500.02, -187500.02, -187500.02, 0.00, 0.00, 0.00
30, 159442.03, 157533.92, -187500.02, -187500.02, 163536.84, -187500.02, -187500.02, -187500.02, 0.00, 0.00, 0.00
31, 159876.92, 158402.97, -187500.02, -187500.02, 164227.16, -187500.02, -187500.02, -187500.02, 0.00, 0.00, 0.00
32, 161002.77, 159916.69, -187500.02, -187500.02, 165737.20, -187500.02, -187500.02, -187500.02, 0.00, 0.00, 0.00
33, 160830.58, 159352.23, -187500.02, -187500.02, 165359.16, -187500.02, -187500.02, -187500.02, 0.00, 0.00, 0.00
34, 159699.98, 157756.14, -187500.02, -187500.02, 163795.80, -187500.02, -187500.02, -187500.02, 0.00, 0.00, 0.00
35, 159701.88, 158072.45, -187500.02, -187500.02, 163940.89, -187500.02, -187500.02, -187500.02, 0.00, 0.00, 0.00
36, 160770.45, 159627.75, -187500.02, -187500.02, 165441.38, -187500.02, -187500.02, -187500.02, 0.00, 0.00, 0.00
37, 160868.25, 159476.36, -187500.02, -187500.02, 165452.84, -187500.02, -187500.02, -187500.02, 0.00, 0.00, 0.00
38, 159822.28, 157912.45, -187500.02, -187500.02, 163962.47, -187500.02, -187500.02, -187500.02, 0.00, 0.00, 0.00
39, 159520.08, 157765.16, -187500.02, -187500.02, 163665.41, -187500.02, -187500.02, -187500.02, 0.00, 0.00, 0.00
40, 160505.34, 159310.13, -187500.02, -187500.02, 165109.98, -187500.02, -187500.02, -187500.02, 0.00, 0.00, 0.00
41, 160908.84, 159613.09, -187500.02, -187500.02, 165554.52, -187500.02, -187500.02, -187500.02, 0.00, 0.00, 0.00
42, 159882.61, 158010.05, -187500.02, -187500.02, 164071.28, -187500.02, -187500.02, -187500.02, 0.00, 0.00, 0.00
43, 159363.94, 157534.06, -187500.02, -187500.02, 163465.66, -187500.02, -187500.02, -187500.02, 0.00, 0.00, 0.00
44, 160213.95, 158938.25, -187500.02, -187500.02, 164740.94, -187500.02, -187500.02, -187500.02, 0.00, 0.00, 0.00
45, 160824.42, 159596.19, -187500.02, -187500.02, 165503.80, -187500.02, -187500.02, -187500.02, 0.00, 0.00, 0.00
46, 159976.53, 158189.44, -187500.02, -187500.02, 164245.42, -187500.02, -187500.02, -187500.02, 0.00, 0.00, 0.00
47, 159262.64, 157370.78, -187500.02, -187500.02, 163331.39, -187500.02, -187500.02, -187500.02, 0.00, 0.00, 0.00
48, 159967.14, 158604.38, -187500.02, -187500.02, 164409.28, -187500.02, -187500.02, -187500.02, 0.00, 0.00, 0.00
49, 160834.59, 159679.14, -187500.02, -187500.02, 165549.27, -187500.02, -187500.02, -187500.02, 0.00, 0.00, 0.00
50, 160222.91, 158536.11, -187500.02, -187500.02, 164582.11, -187500.02, -187500.02, -187500.02, 0.00, 0.00, 0.00
51, 159261.72, 157315.23, -187500.02, -187500.02, 163312.08, -187500.02, -187500.02, -187500.02, 0.00, 0.00, 0.00
52, 159732.80, 158268.78, -187500.02, -187500.02, 164091.80, -187500.02, -187500.02, -187500.02, 0.00, 0.00, 0.00
53, 160691.22, 159542.80, -187500.02, -187500.02, 165389.58, -187500.02, -187500.02, -187500.02, 0.00, 0.00, 0.00
54, 160340.92, 158759.41, -187500.02, -187500.02, 164786.06, -187500.02, -187500.02, -187500.02, 0.00, 0.00, 0.00
55, 159337.63, 157390.20, -187500.02, -187500.02, 163407.47, -187500.02, -187500.02, -187500.02, 0.00, 0.00, 0.00
56, 159704.53, 158174.33, -187500.02, -187500.02, 164009.45, -187500.02, -187500.02, -187500.02, 0.00, 0.00, 0.00
57, 160903.44, 159817.19, -187500.02, -187500.02, 165626.36, -187500.02, -187500.02, -187500.02, 0.00, 0.00, 0.00
58, 160952.20, 159538.08, -187500.02, -187500.02, 165523.73, -187500.02, -187500.02, -187500.02, 0.00, 0.00, 0.00
59, 159920.69, 158017.75, -187500.02, -187500.02, 164052.09, -187500.02, -187500.02, -187500.02, 0.00, 0.00, 0.00
60, 159948.36, 158319.14, -187500.02, -187500.02, 164183.95, -187500.02, -187500.02, -187500.02, 0.00, 0.00, 0.00
61, 161113.56, 160004.75, -187500.02, -187500.02, 165794.17, -187500.02, -187500.02, -187500.02, 0.00, 0.00, 0.00
62, 161486.78, 160200.63, -187500.02, -187500.02, 166144.52, -187500.02, -187500.02, -187500.02, 0.00, 0.00, 0.00
63, 160498.70, 158640.22, -187500.02, -187500.02, 164684.23, -187500.02, -187500.02, -187500.02, 0.00, 0.00, 0.00
64, 160235.05, 158520.88, -187500.02, -187500.02, 164412.30, -187500.02, -187500.02, -187500.02, 0.00, 0.00, 0.00
65, 161354.52, 160201.05, -187500.02, -187500.02, 165982.64, -187500.02, -187500.02, -187500.02, 0.00, 0.00, 0.00
66, 161893.36, 160681.34, -187500.02, -187500.02, 166595.61, -187500.02, -187500.02, -187500.02, 0.00, 0.00, 0.00
67, 160931.39, 159124.36, -187500.02, -187500.02, 165175.23, -187500.02, -187500.02, -187500.02, 0.00, 0.00, 0.00
68, 160273.58, 158429.58, -187500.02, -187500.02, 164365.69, -187500.02, -187500.02, -187500.02, 0.00, 0.00, 0.00
69, 161087.52, 159802.94, -187500.02, -187500.02, 165593.88, -187500.02, -187500.02, -187500.02, 0.00, 0.00, 0.00
70, 161797.36, 160611.03, -187500.02, -187500.02, 166494.19, -187500.02, -187500.02, -187500.02, 0.00, 0.00, 0.00
71, 160961.88, 159201.14, -187500.02, -187500.02, 165251.11, -187500.02, -187500.02, -187500.02, 0.00, 0.00, 0.00
72, 160109.52, 158195.00, -187500.02, -187500.02, 164165.91, -187500.02, -187500.02, -187500.02, 0.00, 0.00, 0.00
73, 160744.17, 159352.02, -187500.02, -187500.02, 165158.13, -187500.02, -187500.02, -187500.02, 0.00, 0.00, 0.00
74, 161625.30, 160464.69, -187500.02, -187500.02, 166322.19, -187500.02, -187500.02, -187500.02, 0.00, 0.00, 0.00
75, 161071.66, 159420.53, -187500.02, -187500.02, 165454.20, -187500.02, -187500.02, -187500.02, 0.00, 0.00, 0.00
76, 160116.88, 158174.33, -187500.02, -187500.02, 164174.94, -187500.02, -187500.02, -187500.02, 0.00, 0.00, 0.00
77, 160511.81, 159012.14, -187500.02, -187500.02, 164838.48, -187500.02, -187500.02, -187500.02, 0.00, 0.00, 0.00
78, 161466.00, 160314.94, -187500.02, -187500.02, 166147.69, -187500.02, -187500.02, -187500.02, 0.00, 0.00, 0.00
79, 161233.94, 159702.11, -187500.02, -187500.02, 165709.64, -187500.02, -187500.02, -187500.02, 0.00, 0.00, 0.00
80, 160119.88, 158143.38, -187500.02, -187500.02, 164173.64, -187500.02, -187500.02, -187500.02, 0.00, 0.00, 0.00
81, 160194.39, 158569.66, -187500.02, -187500.02, 164424.08, -187500.02, -187500.02, -187500.02, 0.00, 0.00, 0.00
82, 161282.84, 160131.41, -187500.02, -187500.02, 165942.05, -187500.02, -187500.02, -187500.02, 0.00, 0.00, 0.00
83, 161306.09, 159873.03, -187500.02, -187500.02, 165852.47, -187500.02, -187500.02, -187500.02, 0.00, 0.00, 0.00
84, 160228.34, 158299.14, -187500.02, -187500.02, 164342.33, -187500.02, -187500.02, -187500.02, 0.00, 0.00, 0.00
85, 160097.41, 158390.56, -187500.02, -187500.02, 164273.06, -187500.02, -187500.02, -187500.02, 0.00, 0.00, 0.00
86, 161243.42, 160087.50, -187500.02, -187500.02, 165877.98, -187500.02, -187500.02, -187500.02, 0.00, 0.00, 0.00
87, 161676.11, 160379.59, -187500.02, -187500.02, 166316.16, -187500.02, -187500.02, -187500.02, 0.00, 0.00, 0.00
88, 160695.52, 158823.91, -187500.02, -187500.02, 164871.84, -187500.02, -187500.02, -187500.02, 0.00, 0.00, 0.00
89, 160305.05, 158516.06, -187500.02, -187500.02, 164425.48, -187500.02, -187500.02, -187500.02, 0.00, 0.00, 0.00
90, 161356.59, 160146.94, -187500.02, -187500.02, 165926.25, -187500.02, -187500.02, -187500.02, 0.00, 0.00, 0.00
91, 162064.95, 160871.84, -187500.02, -187500.02, 166764.66, -187500.02, -187500.02, -187500.02, 0.00, 0.00, 0.00
92, 161266.13, 159492.39, -187500.02, -187500.02, 165533.33, -187500.02, -187500.02, -187500.02, 0.00, 0.00, 0.00
93, 160670.22, 158827.41, -187500.02, -187500.02, 164759.55, -187500.02, -187500.02, -187500.02, 0.00, 0.00, 0.00
94, 161513.09, 160212.06, -187500.02, -187500.02, 165990.91, -187500.02, -187500.02, -187500.02, 0.00, 0.00, 0.00
95, 162341.19, 161188.50, -187500.02, -187500.02, 167047.86, -187500.02, -187500.02, -187500.02, 0.00, 0.00, 0.00
96, 161624.63, 159919.50, -187500.02, -187500.02, 165953.94, -187500.02, -187500.02, -187500.02, 0.00, 0.00, 0.00
97, 160685.80, 158747.67, -187500.02, -187500.02, 164725.41, -187500.02, -187500.02, -187500.02, 0.00, 0.00, 0.00
98, 161207.61, 159767.94, -187500.02, -187500.02, 165570.94, -187500.02, -187500.02, -187500.02, 0.00, 0.00, 0.00
99, 162207.81, 161074.53, -187500.02, -187500.02, 166907.33, -187500.02, -187500.02, -187500.02, 0.00, 0.00, 0.00
100, 161744.23, 160133.70, -187500.02, -187500.02, 166152.30, -187500.02, -187500.02, -187500.02, 0.00, 0.00, 0.00
101, 140624.28, 138148.27, -187500.02, -187500.02, 144220.63, -187500.02, -187500.02, 0.00, 0.00, 0.00, 0.00
102, 140953.92, 138444.98, -187500.02, -187500.02, 144647.70, -187500.02, -187500.02, 0.00, 0.00, 0.00, 0.00
103, 140274.69, 137480.20, -187500.02, -187500.02, 143702.91, -187500.02, -187500.02, 0.00, 0.00, 0.00, 0.00
104, 140573.61, 138169.38, -187500.02, -187500.02, 144210.34, -187500.02, -187500.02, 0.00, 0.00, 0.00, 0.00
105, 141997.41, 140207.92, -187500.02, -187500.02, 146164.11, -187500.02, -187500.02, 0.00, 0.00, 0.00, 0.00
106, 142529.11, 140632.08, -187500.02, -187500.02, 146728.48, -187500.02, -187500.02, 0.00, 0.00, 0.00, 0.00
107, 141811.00, 139450.72, -187500.02, -187500.02, 145627.16, -187500.02, -187500.02, 0.00, 0.00, 0.00, 0.00
108, 141772.38, 139575.67, -187500.02, -187500.02, 145599.55, -187500.02, -187500.02, 0.00, 0.00, 0.00, 0.00
109, 143048.14, 141442.92, -187500.02, -187500.02, 147347.41, -187500.02, -187500.02, 0.00, 0.00, 0.00, 0.00
110, 143865.34, 142268.58, -187500.02, -187500.02, 148294.77, -187500.02, -187500.02, 0.00, 0.00, 0.00, 0.00
111, 143212.06, 141085.80, -187500.02, -187500.02, 147239.34, -187500.02, -187500.02, 0.00, 0.00, 0.00, 0.00
112, 142835.84, 140701.34, -187500.02, -187500.02, 146734.66, -187500.02, -187500.02, 0.00, 0.00, 0.00, 0.00
113, 143960.50, 142420.19, -187500.02, -187500.02, 148300.42, -187500.02, -187500.02, 0.00, 0.00, 0.00, 0.00
114, 144957.00, 143539.17, -187500.02, -187500.02, 149507.75, -187500.02, -187500.02, 0.00, 0.00, 0.00, 0.00
115, 144463.92, 142533.63, -187500.02, -187500.02, 148656.59, -187500.02, -187500.02, 0.00, 0.00, 0.00, 0.00
116, 143858.73, 141759.83, -187500.02, -187500.02, 147809.20, -187500.02, -187500.02, 0.00, 0.00, 0.00, 0.00
117, 144741.38, 143179.55, -187500.02, -187500.02, 149057.70, -187500.02, -187500.02, 0.00, 0.00, 0.00, 0.00
118, 145864.95, 144553.00, -187500.02, -187500.02, 150477.95, -187500.02, -187500.02, 0.00, 0.00, 0.00, 0.00
119, 145607.59, 143847.06, -187500.02, -187500.02, 149946.73, -187500.02, -187500.02, 0.00, 0.00, 0.00, 0.00
120, 144801.88, 142723.80, -187500.02, -187500.02, 148799.63, -187500.02, -187500.02, 0.00, 0.00, 0.00, 0.00
121, 145351.16, 143716.19, -187500.02, -187500.02, 149617.08, -187500.02, -187500.02, 0.00, 0.00, 0.00, 0.00
122, 146624.00, 145380.02, -187500.02, -187500.02, 151277.16, -187500.02, -187500.02, 0.00, 0.00, 0.00, 0.00
123, 146586.94, 144960.47, -187500.02, -187500.02, 151036.30, -187500.02, -187500.02, 0.00, 0.00, 0.00, 0.00
124, 145539.05, 143453.95, -187500.02, -187500.02, 149554.31, -187500.02, -187500.02, 0.00, 0.00, 0.00, 0.00
125, 145697.34, 143951.78, -187500.02, -187500.02, 149876.83, -187500.02, -187500.02, 0.00, 0.00, 0.00, 0.00
126, 146863.08, 145585.95, -187500.02, -187500.02, 151463.47, -187500.02, -187500.02, 0.00, 0.00, 0.00, 0.00
127, 147025.03, 145492.66, -187500.02, -187500.02, 151532.78, -187500.02, -187500.02, 0.00, 0.00, 0.00, 0.00
128, 146041.84, 144007.61, -187500.02, -187500.02, 150114.84, -187500.02, -187500.02, 0.00, 0.00, 0.00, 0.00
129, 145884.48, 144032.98, -187500.02, -187500.02, 149986.55, -187500.02, -187500.02, 0.00, 0.00, 0.00, 0.00
130, 146995.84, 145691.08, -187500.02, -187500.02, 151549.30, -187500.02, -187500.02, 0.00, 0.00, 0.00, 0.00
131, 147499.45, 146094.44, -187500.02, -187500.02, 152091.39, -187500.02, -187500.02, 0.00, 0.00, 0.00, 0.00
132, 146561.61, 144582.72, -187500.02, -187500.02, 150695.23, -187500.02, -187500.02, 0.00, 0.00, 0.00, 0.00
133, 146167.38, 144255.83, -187500.02, -187500.02, 150230.42, -187500.02, -187500.02, 0.00, 0.00, 0.00, 0.00
134, 147210.23, 145860.39, -187500.02, -187500.02, 151709.13, -187500.02, -187500.02, 0.00, 0.00, 0.00, 0.00
135, 147903.41, 146579.67, -187500.02, -187500.02, 152540.61, -187500.02, -187500.02, 0.00, 0.00, 0.00, 0.00
136, 147077.31, 145179.58, -187500.02, -187500.02, 151291.23, -187500.02, -187500.02, 0.00, 0.00, 0.00, 0.00
137, 146420.55, 144443.03, -187500.02, -187500.02, 150455.13, -187500.02, -187500.02, 0.00, 0.00, 0.00, 0.00
138, 147317.86, 145899.86, -187500.02, -187500.02, 151750.28, -187500.02, -187500.02, 0.00, 0.00, 0.00, 0.00
139, 148308.48, 147066.41, -187500.02, -187500.02, 152985.75, -187500.02, -187500.02, 0.00, 0.00, 0.00, 0.00
140, 147826.30, 146077.30, -187500.02, -187500.02, 152160.91, -187500.02, -187500.02, 0.00, 0.00, 0.00, 0.00
141, 147094.44, 145121.41, -187500.02, -187500.02, 151146.77, -187500.02, -187500.02, 0.00, 0.00, 0.00, 0.00
142, 147802.42, 146325.27, -187500.02, -187500.02, 152177.42, -187500.02, -187500.02, 0.00, 0.00, 0.00, 0.00
143, 148945.73, 147763.89, -187500.02, -187500.02, 153647.09, -187500.02, -187500.02, 0.00, 0.00, 0.00, 0.00
144, 148722.92, 147113.61, -187500.02, -187500.02, 153173.45, -187500.02, -187500.02, 0.00, 0.00, 0.00, 0.00
145, 147860.09, 145903.72, -187500.02, -187500.02, 151953.61, -187500.02, -187500.02, 0.00, 0.00, 0.00, 0.00
146, 148251.94, 146682.00, -187500.02, -187500.02, 152558.61, -187500.02, -187500.02, 0.00, 0.00, 0.00, 0.00
147, 149488.28, 148347.45, -187500.02, -187500.02, 154199.34, -187500.02, -187500.02, 0.00, 0.00, 0.00, 0.00
148, 149480.28, 147987.97, -187500.02, -187500.02, 154019.03, -187500.02, -187500.02, 0.00, 0.00, 0.00, 0.00
149, 148409.91, 146433.67, -187500.02, -187500.02, 152514.50, -187500.02, -187500.02, 0.00, 0.00, 0.00, 0.00
150, 148433.39, 146737.91, -187500.02, -187500.02, 152653.27, -187500.02, -187500.02, 0.00, 0.00, 0.00, 0.00
151, 149529.28, 148323.16, -187500.02, -187500.02, 154175.63, -187500.02, -187500.02, 0.00, 0.00, 0.00, 0.00
152, 149749.63, 148333.08, -187500.02, -187500.02, 154344.33, -187500.02, -187500.02, 0.00, 0.00, 0.00, 0.00
153, 148680.09, 146713.22, -187500.02, -187500.02, 152814.38, -187500.02, -187500.02, 0.00, 0.00, 0.00, 0.00
154, 148421.81, 146611.39, -187500.02, -187500.02, 152559.84, -187500.02, -187500.02, 0.00, 0.00, 0.00, 0.00
155, 149454.48, 148178.00, -187500.02, -187500.02, 154025.95, -187500.02, -187500.02, 0.00, 0.00, 0.00, 0.00
156, 149941.89, 148612.78, -187500.02, -187500.02, 154587.30, -187500.02, -187500.02, 0.00, 0.00, 0.00, 0.00
157, 149050.14, 147165.89, -187500.02, -187500.02, 153264.78, -187500.02, -187500.02, 0.00, 0.00, 0.00, 0.00
158, 148509.39, 146612.00, -187500.02, -187500.02, 152593.88, -187500.02, -187500.02, 0.00, 0.00, 0.00, 0.00
159, 149387.09, 148036.09, -187500.02, -187500.02, 153879.33, -187500.02, -187500.02, 0.00, 0.00, 0.00, 0.00
160, 150150.08, 148898.00, -187500.02, -187500.02, 154834.75, -187500.02, -187500.02, 0.00, 0.00, 0.00, 0.00
161, 149430.25, 147629.78, -187500.02, -187500.02, 153724.03, -187500.02, -187500.02, 0.00, 0.00, 0.00, 0.00
162, 148618.94, 146655.36, -187500.02, -187500.02, 152672.00, -187500.02, -187500.02, 0.00, 0.00, 0.00, 0.00
163, 149265.30, 147814.56, -187500.02, -187500.02, 153669.56, -187500.02, -187500.02, 0.00, 0.00, 0.00, 0.00
164, 150206.41, 148994.11, -187500.02, -187500.02, 154899.64, -187500.02, -187500.02, 0.00, 0.00, 0.00, 0.00
165, 149747.52, 148068.67, -187500.02, -187500.02, 154138.16, -187500.02, -187500.02, 0.00, 0.00, 0.00, 0.00
166, 148877.28, 146910.08, -187500.02, -187500.02, 152943.45, -187500.02, -187500.02, 0.00, 0.00, 0.00, 0.00
167, 149399.02, 147889.73, -187500.02, -187500.02, 153748.72, -187500.02, -187500.02, 0.00, 0.00, 0.00, 0.00
168, 150554.14, 149398.56, -187500.02, -187500.02, 155269.61, -187500.02, -187500.02, 0.00, 0.00, 0.00, 0.00
169, 150417.20, 148878.69, -187500.02, -187500.02, 154922.95, -187500.02, -187500.02, 0.00, 0.00, 0.00, 0.00
170, 149546.70, 147615.59, -187500.02, -187500.02, 153669.83, -187500.02, -187500.02, 0.00, 0.00, 0.00, 0.00
171, 149827.42, 148239.45, -187500.02, -187500.02, 154121.63, -187500.02, -187500.02, 0.00, 0.00, 0.00, 0.00
172, 151012.11, 149869.05, -187500.02, -187500.02, 155714.52, -187500.02, -187500.02, 0.00, 0.00, 0.00, 0.00
173, 151158.05, 149738.73, -187500.02, -187500.02, 155750.38, -187500.02, -187500.02, 0.00, 0.00, 0.00, 0.00
174, 150208.28, 148300.56, -187500.02, -187500.02, 154371.00, -187500.02, -187500.02, 0.00, 0.00, 0.00, 0.00
175, 150201.33, 148523.17, -187500.02, -187500.02, 154434.44, -187500.02, -187500.02, 0.00, 0.00, 0.00, 0.00
176, 151398.75, 150243.38, -187500.02, -187500.02, 156074.14, -187500.02, -187500.02, 0.00, 0.00, 0.00, 0.00
177, 151793.91, 150485.27, -187500.02, -187500.02, 156464.63, -187500.02, -187500.02, 0.00, 0.00, 0.00, 0.00
178, 150811.95, 148936.95, -187500.02, -187500.02, 155022.44, -187500.02, -187500.02, 0.00, 0.00, 0.00, 0.00
179, 150372.66, 148557.78, -187500.02, -187500.02, 154508.13, -187500.02, -187500.02, 0.00, 0.00, 0.00, 0.00
180, 151323.86, 150058.41, -187500.02, -187500.02, 155887.94, -187500.02, -187500.02, 0.00, 0.00, 0.00, 0.00
181, 151937.16, 150681.95, -187500.02, -187500.02, 156629.08, -187500.02, -187500.02, 0.00, 0.00, 0.00, 0.00
182, 151057.52, 149233.00, -187500.02, -187500.02, 155321.89, -187500.02, -187500.02, 0.00, 0.00, 0.00, 0.00
183, 150416.02, 148528.70, -187500.02, -187500.02, 154512.48, -187500.02, -187500.02, 0.00, 0.00, 0.00, 0.00
184, 151233.27, 149885.72, -187500.02, -187500.02, 155722.94, -187500.02, -187500.02, 0.00, 0.00, 0.00, 0.00
185, 152057.69, 150855.67, -187500.02, -187500.02, 156771.44, -187500.02, -187500.02, 0.00, 0.00, 0.00, 0.00
186, 151391.67, 149652.59, -187500.02, -187500.02, 155736.56, -187500.02, -187500.02, 0.00, 0.00, 0.00, 0.00
187, 150521.36, 148569.61, -187500.02, -187500.02, 154589.69, -187500.02, -187500.02, 0.00, 0.00, 0.00, 0.00
188, 151103.89, 149635.41, -187500.02, -187500.02, 155488.47, -187500.02, -187500.02, 0.00, 0.00, 0.00, 0.00
189, 152060.61, 150872.09, -187500.02, -187500.02, 156759.02, -187500.02, -187500.02, 0.00, 0.00, 0.00, 0.00
190, 151702.64, 150080.69, -187500.02, -187500.02, 156138.69, -187500.02, -187500.02, 0.00, 0.00, 0.00, 0.00
191, 150727.94, 148757.25, -187500.02, -187500.02, 154803.22, -187500.02, -187500.02, 0.00, 0.00, 0.00, 0.00
192, 151009.00, 149431.00, -187500.02, -187500.02, 155306.28, -187500.02, -187500.02, 0.00, 0.00, 0.00, 0.00
193, 152062.80, 150887.28, -187500.02, -187500.02, 156746.20, -187500.02, -187500.02, 0.00, 0.00, 0.00, 0.00
194, 151962.20, 150438.55, -187500.02, -187500.02, 156469.05, -187500.02, -187500.02, 0.00, 0.00, 0.00, 0.00
195, 150899.95, 148925.69, -187500.02, -187500.02, 154990.91, -187500.02, -187500.02, 0.00, 0.00, 0.00, 0.00
196, 150990.88, 149330.17, -187500.02, -187500.02, 155223.50, -187500.02, -187500.02, 0.00, 0.00, 0.00, 0.00
197, 152245.33, 151099.86, -187500.02, -187500.02, 156928.58, -187500.02, -187500.02, 0.00, 0.00, 0.00, 0.00
198, 152545.63, 151170.92, -187500.02, -187500.02, 157162.16, -187500.02, -187500.02, 0.00, 0.00, 0.00, 0.00
199, 151620.17, 149735.20, -187500.02, -187500.02, 155805.94, -187500.02, -187500.02, 0.00, 0.00, 0.00, 0.00
200, 151474.08, 149740.98, -187500.02, -187500.02, 155663.89, -187500.02, -187500.02, 0.00, 0.00, 0.00, 0.00
201, 152578.50, 151388.42, -187500.02, -187500.02, 157210.81, -187500.02, -187500.02, 0.00, 0.00, 0.00, 0.00
202, 153135.27, 151868.67, -187500.02, -187500.02, 157823.84, -187500.02, -187500.02, 0.00, 0.00, 0.00, 0.00
203, 152246.11, 150410.83, -187500.02, -187500.02, 156487.38, -187500.02, -187500.02, 0.00, 0.00, 0.00, 0.00
204, 151833.78, 150031.03, -187500.02, -187500.02, 155978.09, -187500.02, -187500.02, 0.00, 0.00, 0.00, 0.00
205, 152860.84, 151616.13, -187500.02, -187500.02, 157429.81, -187500.02, -187500.02, 0.00, 0.00, 0.00, 0.00
206, 153638.17, 152452.86, -187500.02, -187500.02, 158373.14, -187500.02, -187500.02, 0.00, 0.00, 0.00, 0.00
207, 152803.36, 151027.84, -187500.02, -187500.02, 157110.03, -187500.02, -187500.02, 0.00, 0.00, 0.00, 0.00
208, 152017.06, 150113.27, -187500.02, -187500.02, 156104.31, -187500.02, -187500.02, 0.00, 0.00, 0.00, 0.00
209, 152744.58, 151370.41, -187500.02, -187500.02, 157201.17, -187500.02, -187500.02, 0.00, 0.00, 0.00, 0.00
210, 153646.64, 152471.66, -187500.02, -187500.02, 158364.20, -187500.02, -187500.02, 0.00, 0.00, 0.00, 0.00
211, 153094.77, 151418.94, -187500.02, -187500.02, 157483.19, -187500.02, -187500.02, 0.00, 0.00, 0.00, 0.00
212, 152144.52, 150187.48, -187500.02, -187500.02, 156214.13, -187500.02, -187500.02, 0.00, 0.00, 0.00, 0.00
213, 152579.89, 151080.31, -187500.02, -187500.02, 156934.36, -187500.02, -187500.02, 0.00, 0.00, 0.00, 0.00
214, 153597.73, 152435.41, -187500.02, -187500.02, 158304.34, -187500.02, -187500.02, 0.00, 0.00, 0.00, 0.00
215, 153303.88, 151731.92, -187500.02, -187500.02, 157779.19, -187500.02, -187500.02, 0.00, 0.00, 0.00, 0.00
216, 152282.27, 150321.13, -187500.02, -187500.02, 156372.16, -187500.02, -187500.02, 0.00, 0.00, 0.00, 0.00
217, 152480.05, 150876.70, -187500.02, -187500.02, 156754.81, -187500.02, -187500.02, 0.00, 0.00, 0.00, 0.00
218, 153505.39, 152321.88, -187500.02, -187500.02, 158175.20, -187500.02, -187500.02, 0.00, 0.00, 0.00, 0.00
219, 153454.84, 151977.06, -187500.02, -187500.02, 157998.69, -187500.02, -187500.02, 0.00, 0.00, 0.00, 0.00
220, 152390.75, 150437.92, -187500.02, -187500.02, 156511.27, -187500.02, -187500.02, 0.00, 0.00, 0.00, 0.00
221, 152332.23, 150631.98, -187500.02, -187500.02, 156536.14, -187500.02, -187500.02, 0.00, 0.00, 0.00, 0.00
222, 153406.97, 152215.67, -187500.02, -187500.02, 158041.33, -187500.02, -187500.02, 0.00, 0.00, 0.00, 0.00
223, 153689.25, 152327.84, -187500.02, -187500.02, 158307.36, -187500.02, -187500.02, 0.00, 0.00, 0.00, 0.00
224, 152686.28, 150788.31, -187500.02, -187500.02, 156865.98, -187500.02, -187500.02, 0.00, 0.00, 0.00, 0.00
225, 152366.63, 150580.20, -187500.02, -187500.02, 156513.91, -187500.02, -187500.02, 0.00, 0.00, 0.00, 0.00
226, 153470.78, 152245.17, -187500.02, -187500.02, 158063.38, -187500.02, -187500.02, 0.00, 0.00, 0.00, 0.00
227, 154125.06, 152881.52, -187500.02, -187500.02, 158819.06, -187500.02, -187500.02, 0.00, 0.00, 0.00, 0.00
228, 153322.70, 151528.19, -187500.02, -187500.02, 157594.45, -187500.02, -187500.02, 0.00, 0.00, 0.00, 0.00
229, 152790.95, 150955.27, -187500.02, -187500.02, 156910.88, -187500.02, -187500.02, 0.00, 0.00, 0.00, 0.00
230, 153717.95, 152435.67, -187500.02, -187500.02, 158244.33, -187500.02, -187500.02, 0.00, 0.00, 0.00, 0.00
231, 154608.53, 153452.30, -187500.02, -187500.02, 159347.81, -187500.02, -187500.02, 0.00, 0.00, 0.00, 0.00
232, 154015.27, 152329.91, -187500.02, -187500.02, 158384.97, -187500.02, -187500.02, 0.00, 0.00, 0.00, 0.00
233, 153286.94, 151416.48, -187500.02, -187500.02, 157402.88, -187500.02, -187500.02, 0.00, 0.00, 0.00, 0.00
234, 154017.86, 152654.30, -187500.02, -187500.02, 158475.63, -187500.02, -187500.02, 0.00, 0.00, 0.00, 0.00
235, 155031.78, 153909.77, -187500.02, -187500.02, 159779.39, -187500.02, -187500.02, 0.00, 0.00, 0.00, 0.00
236, 154517.06, 152895.14, -187500.02, -187500.02, 158944.30, -187500.02, -187500.02, 0.00, 0.00, 0.00, 0.00
237, 153545.92, 151608.97, -187500.02, -187500.02, 157632.23, -187500.02, -187500.02, 0.00, 0.00, 0.00, 0.00
238, 153866.41, 152336.28, -187500.02, -187500.02, 158187.05, -187500.02, -187500.02, 0.00, 0.00, 0.00, 0.00
239, 154957.39, 153823.14, -187500.02, -187500.02, 159665.97, -187500.02, -187500.02, 0.00, 0.00, 0.00, 0.00
240, 154734.14, 153202.94, -187500.02, -187500.02, 159230.20, -187500.02, -187500.02, 0.00, 0.00, 0.00, 0.00
241, 153641.48, 151683.81, -187500.02, -187500.02, 157734.06, -187500.02, -187500.02, 0.00, 0.00, 0.00, 0.00
242, 153725.95, 152088.95, -187500.02, -187500.02, 157969.19, -187500.02, -187500.02, 0.00, 0.00, 0.00, 0.00
243, 154813.41, 153648.48, -187500.02, -187500.02, 159480.63, -187500.02, -187500.02, 0.00, 0.00, 0.00, 0.00
244, 154911.36, 153496.28, -187500.02, -187500.02, 159493.69, -187500.02, -187500.02, 0.00, 0.00, 0.00, 0.00
245, 153848.02, 151919.77, -187500.02, -187500.02, 157989.02, -187500.02, -187500.02, 0.00, 0.00, 0.00, 0.00
246, 153656.48, 151920.78, -187500.02, -187500.02, 157835.67, -187500.02, -187500.02, 0.00, 0.00, 0.00, 0.00
247, 154679.08, 153459.61, -187500.02, -187500.02, 159286.75, -187500.02, -187500.02, 0.00, 0.00, 0.00, 0.00
248, 155015.41, 153673.36, -187500.02, -187500.02, 159641.41, -187500.02, -187500.02, 0.00, 0.00, 0.00, 0.00
249, 153991.44, 152095.81, -187500.02, -187500.02, 158174.80, -187500.02, -187500.02, 0.00, 0.00, 0.00, 0.00
250, 153487.05, 151637.38, -187500.02, -187500.02, 157588.47, -187500.02, -187500.02, 0.00, 0.00, 0.00, 0.00
251, 154420.69, 153134.44, -187500.02, -187500.02, 158957.05, -187500.02, -187500.02, 0.00, 0.00, 0.00, 0.00
252, 155104.16, 153861.00, -187500.02, -187500.02, 159786.56, -187500.02, -187500.02, 0.00, 0.00, 0.00, 0.00
253, 154257.67, 152443.52, -187500.02, -187500.02, 158519.80, -187500.02, -187500.02, 0.00, 0.00, 0.00, 0.00
254, 153540.45, 151636.31, -187500.02, -187500.02, 157616.98, -187500.02, -187500.02, 0.00, 0.00, 0.00, 0.00
255, 154406.06, 153064.20, -187500.02, -187500.02, 158882.70, -187500.02, -187500.02, 0.00, 0.00, 0.00, 0.00
0, 155372.61, 154215.86, -187500.02, -187500.02, 160099.55, -187500.02, -187500.02, 0.00, 0.00, 0.00, 0.00
1, 154818.09, 153127.75, -187500.02, -187500.02, 159187.23, -187500.02, -187500.02, 0.00, 0.00, 0.00, 0.00
2, 153897.55, 151957.88, -187500.02, -187500.02, 157961.69, -187500.02, -187500.02, 0.00, 0.00, 0.00, 0.00
3, 154633.25, 153226.98, -187500.02, -187500.02, 159048.03, -187500.02, -187500.02, 0.00, 0.00, 0.00, 0.00
4, 155777.77, 154667.88, -187500.02, -187500.02, 160518.91, -187500.02, -187500.02, 0.00, 0.00, 0.00, 0.00
5, 155433.48, 153852.94, -187500.02, -187500.02, 159891.75, -187500.02, -187500.02, 0.00, 0.00, 0.00, 0.00
6, 154339.64, 152381.30, -187500.02, -187500.02, 158415.75, -187500.02, -187500.02, 0.00, 0.00, 0.00, 0.00
7, 154753.92, 153240.50, -187500.02, -187500.02, 159089.11, -187500.02, -187500.02, 0.00, 0.00, 0.00, 0.00
8, 156035.89, 154959.41, -187500.02, -187500.02, 160785.55, -187500.02, -187500.02, 0.00, 0.00, 0.00, 0.00
9, 155952.97, 154485.84, -187500.02, -187500.02, 160504.03, -187500.02, -187500.02, 0.00, 0.00, 0.00, 0.00
10, 154637.50, 152640.64, -187500.02, -187500.02, 158714.39, -187500.02, -187500.02, 0.00, 0.00, 0.00, 0.00
11, 154642.89, 152981.91, -187500.02, -187500.02, 158874.41, -187500.02, -187500.02, 0.00, 0.00, 0.00, 0.00
12, 155894.00, 154753.75, -187500.02, -187500.02, 160577.55, -187500.02, -187500.02, 0.00, 0.00, 0.00, 0.00
13, 156066.56, 154679.39, -187500.02, -187500.02, 160673.03, -187500.02, -187500.02, 0.00, 0.00, 0.00, 0.00
14, 154772.92, 152788.05, -187500.02, -187500.02, 158884.00, -187500.02, -187500.02, 0.00, 0.00, 0.00, 0.00
15, 154445.98, 152660.33, -187500.02, -187500.02, 158590.89, -187500.02, -187500.02, 0.00, 0.00, 0.00, 0.00
16, 155643.53, 154446.56, -187500.02, -187500.02, 160261.48, -187500.02, -187500.02, 0.00, 0.00, 0.00, 0.00
17, 156109.16, 154813.91, -187500.02, -187500.02, 160770.89, -187500.02, -187500.02, 0.00, 0.00, 0.00, 0.00
18, 154963.23, 153050.59, -187500.02, -187500.02, 159149.25, -187500.02, -187500.02, 0.00, 0.00, 0.00, 0.00
19, 154306.06, 152417.86, -187500.02, -187500.02, 158390.42, -187500.02, -187500.02, 0.00, 0.00, 0.00, 0.00
20, 155377.63, 154113.63, -187500.02, -187500.02, 159927.69, -187500.02, -187500.02, 0.00, 0.00, 0.00, 0.00
21, 156192.94, 154987.19, -187500.02, -187500.02, 160902.84, -187500.02, -187500.02, 0.00, 0.00, 0.00, 0.00
22, 155199.06, 153364.20, -187500.02, -187500.02, 159457.97, -187500.02, -187500.02, 0.00, 0.00, 0.00, 0.00
23, 154255.84, 152295.59, -187500.02, -187500.02, 158302.97, -187500.02, -187500.02, 0.00, 0.00, 0.00, 0.00
24, 155113.19, 153747.03, -187500.02, -187500.02, 159575.69, -187500.02, -187500.02, 0.00, 0.00, 0.00, 0.00
25, 156143.58, 154987.58, -187500.02, -187500.02, 160873.17, -187500.02, -187500.02, 0.00, 0.00, 0.00, 0.00
26, 155415.03, 153679.80, -187500.02, -187500.02, 159757.75, -187500.02, -187500.02, 0.00, 0.00, 0.00, 0.00
27, 154271.84, 152248.44, -187500.02, -187500.02, 158287.84, -187500.02, -187500.02, 0.00, 0.00, 0.00, 0.00
28, 154867.72, 153376.14, -187500.02, -187500.02, 159222.11, -187500.02, -187500.02, 0.00, 0.00, 0.00, 0.00
29, 156194.05, 155091.19, -187500.02, -187500.02, 160939.11, -187500.02, -187500.02, 0.00, 0.00, 0.00, 0.00
30, 155893.11, 154308.84, -187500.02, -187500.02, 160355.28, -187500.02, -187500.02, 0.00, 0.00, 0.00, 0.00
31, 154626.75, 152597.14, -187500.02, -187500.02, 158663.58, -187500.02, -187500.02, 0.00, 0.00, 0.00, 0.00
32, 154925.61, 153336.58, -187500.02, -187500.02, 159206.02, -187500.02, -187500.02, 0.00, 0.00, 0.00, 0.00
33, 156321.95, 155227.27, -187500.02, -187500.02, 161051.06, -187500.02, -187500.02, 0.00, 0.00, 0.00, 0.00
34, 156356.03, 154908.56, -187500.02, -187500.02, 160922.92, -187500.02, -187500.02, 0.00, 0.00, 0.00, 0.00
35, 155078.03, 153082.80, -187500.02, -187500.02, 159167.69, -187500.02, -187500.02, 0.00, 0.00, 0.00, 0.00
36, 155061.53, 153373.17, -187500.02, -187500.02, 159275.47, -187500.02, -187500.02, 0.00, 0.00, 0.00, 0.00
37, 156436.77, 155322.25, -187500.02, -187500.02, 161130.86, -187500.02, -187500.02, 0.00, 0.00, 0.00, 0.00
38, 156811.39, 155500.77, -187500.02, -187500.02, 161468.30, -187500.02, -187500.02, 0.00, 0.00, 0.00, 0.00
39, 155538.77, 153584.06, -187500.02, -187500.02, 159679.11, -187500.02, -187500.02, 0.00, 0.00, 0.00, 0.00
40, 155017.28, 153182.83, -187500.02, -187500.02, 159127.56, -187500.02, -187500.02, 0.00, 0.00, 0.00, 0.00
41, 156196.31, 154985.52, -187500.02, -187500.02, 160794.17, -187500.02, -187500.02, 0.00, 0.00, 0.00, 0.00
42, 156849.45, 155601.03, -187500.02, -187500.02, 161541.14, -187500.02, -187500.02, 0.00, 0.00, 0.00, 0.00
43, 155691.61, 153791.75, -187500.02, -187500.02, 159893.13, -187500.02, -187500.02, 0.00, 0.00, 0.00, 0.00
44, 154890.97, 152959.59, -187500.02, -187500.02, 158944.50, -187500.02, -187500.02, 0.00, 0.00, 0.00, 0.00
45, 155871.31, 154557.25, -187500.02, -187500.02, 160373.81, -187500.02, -187500.02, 0.00, 0.00, 0.00, 0.00
46, 156788.36, 155604.69, -187500.02, -187500.02, 161507.17, -187500.02, -187500.02, 0.00, 0.00, 0.00, 0.00
47, 155888.28, 154093.56, -187500.02, -187500.02, 160180.75, -187500.02, -187500.02, 0.00, 0.00, 0.00, 0.00
48, 154848.16, 152852.36, -187500.02, -187500.02, 158872.89, -187500.02, -187500.02, 0.00, 0.00, 0.00, 0.00
49, 155575.89, 154157.16, -187500.02, -187500.02, 159989.28, -187500.02, -187500.02, 0.00, 0.00, 0.00, 0.00
50, 156722.11, 155589.27, -187500.02, -187500.02, 161459.83, -187500.02, -187500.02, 0.00, 0.00, 0.00, 0.00
51, 156126.13, 154445.67, -187500.02, -187500.02, 160514.02, -187500.02, -187500.02, 0.00, 0.00, 0.00, 0.00
52, 154863.00, 152818.52, -187500.02, -187500.02, 158872.19, -187500.02, -187500.02, 0.00, 0.00, 0.00, 0.00
53, 155283.84, 153734.83, -187500.02, -187500.02, 159594.78, -187500.02, -187500.02, 0.00, 0.00, 0.00, 0.00
54, 156564.22, 155439.53, -187500.02, -187500.02, 161287.23, -187500.02, -187500.02, 0.00, 0.00, 0.00, 0.00
55, 156329.84, 154778.42, -187500.02, -187500.02, 160818.52, -187500.02, -187500.02, 0.00, 0.00, 0.00, 0.00
56, 155033.38, 152996.45, -187500.02, -187500.02, 159076.83, -187500.02, -187500.02, 0.00, 0.00, 0.00, 0.00
57, 133073.20, 130204.00, -187500.02, -187500.02, 136477.22, -187500.02, 0.00, 0.00, 0.00, 0.00, 0.00
58, 132458.98, 129354.84, -187500.02, -187500.02, 135683.06, -187500.02, 0.00, 0.00, 0.00, 0.00, 0.00
59, 132405.83, 129582.45, -187500.02, -187500.02, 135743.56, -187500.02, 0.00, 0.00, 0.00, 0.00, 0.00
60, 133761.80, 131636.66, -187500.02, -187500.02, 137657.23, -187500.02, 0.00, 0.00, 0.00, 0.00, 0.00
61, 134702.53, 132699.86, -187500.02, -187500.02, 138818.31, -187500.02, 0.00, 0.00, 0.00, 0.00, 0.00
62, 134229.00, 131787.47, -187500.02, -187500.02, 138026.13, -187500.02, 0.00, 0.00, 0.00, 0.00, 0.00
63, 133922.08, 131484.72, -187500.02, -187500.02, 137609.05, -187500.02, 0.00, 0.00, 0.00, 0.00, 0.00
64, 135024.63, 133162.92, -187500.02, -187500.02, 139131.36, -187500.02, 0.00, 0.00, 0.00, 0.00, 0.00
65, 136144.09, 134491.69, -187500.02, -187500.02, 140525.45, -187500.02, 0.00, 0.00, 0.00, 0.00, 0.00
66, 135805.69, 133686.31, -187500.02, -187500.02, 139875.84, -187500.02, 0.00, 0.00, 0.00, 0.00, 0.00
67, 135181.58, 132875.34, -187500.02, -187500.02, 139001.09, -187500.02, 0.00, 0.00, 0.00, 0.00, 0.00
68, 136030.39, 134243.19, -187500.02, -187500.02, 140194.86, -187500.02, 0.00, 0.00, 0.00, 0.00, 0.00
69, 137266.44, 135784.97, -187500.02, -187500.02, 141766.89, -187500.02, 0.00, 0.00, 0.00, 0.00, 0.00
70, 137108.92, 135211.16, -187500.02, -187500.02, 141362.33, -187500.02, 0.00, 0.00, 0.00, 0.00, 0.00
71, 136346.27, 134125.64, -187500.02, -187500.02, 140258.72, -187500.02, 0.00, 0.00, 0.00, 0.00, 0.00
72, 136870.03, 135066.47, -187500.02, -187500.02, 141023.05, -187500.02, 0.00, 0.00, 0.00, 0.00, 0.00
73, 138214.73, 136834.33, -187500.02, -187500.02, 142772.64, -187500.02, 0.00, 0.00, 0.00, 0.00, 0.00
74, 138341.73, 136643.03, -187500.02, -187500.02, 142749.55, -187500.02, 0.00, 0.00, 0.00, 0.00, 0.00
75, 137509.77, 135381.36, -187500.02, -187500.02, 141521.61, -187500.02, 0.00, 0.00, 0.00, 0.00, 0.00
76, 137742.31, 135910.89, -187500.02, -187500.02, 141881.56, -187500.02, 0.00, 0.00, 0.00, 0.00, 0.00
77, 139065.84, 137720.61, -187500.02, -187500.02, 143633.78, -187500.02, 0.00, 0.00, 0.00, 0.00, 0.00
78, 139425.91, 137879.06, -187500.02, -187500.02, 143947.11, -187500.02, 0.00, 0.00, 0.00, 0.00, 0.00
79, 138617.64, 136575.48, -187500.02, -187500.02, 142716.95, -187500.02, 0.00, 0.00, 0.00, 0.00, 0.00
80, 138539.84, 136647.31, -187500.02, -187500.02, 142636.11, -187500.02, 0.00, 0.00, 0.00, 0.00, 0.00
81, 139774.45, 138414.77, -187500.02, -187500.02, 144305.88, -187500.02, 0.00, 0.00, 0.00, 0.00, 0.00
82, 140369.42, 138931.80, -187500.02, -187500.02, 144958.03, -187500.02, 0.00, 0.00, 0.00, 0.00, 0.00
83, 139575.89, 137603.61, -187500.02, -187500.02, 143747.78, -187500.02, 0.00, 0.00, 0.00, 0.00, 0.00
84, 139234.91, 137291.88, -187500.02, -187500.02, 143311.61, -187500.02, 0.00, 0.00, 0.00, 0.00, 0.00
85, 140323.67, 138922.38, -187500.02, -187500.02, 144808.78, -187500.02, 0.00, 0.00, 0.00, 0.00, 0.00
86, 141174.58, 139839.08, -187500.02, -187500.02, 145823.53, -187500.02, 0.00, 0.00, 0.00, 0.00, 0.00
87, 140536.30, 138664.89, -187500.02, -187500.02, 144798.73, -187500.02, 0.00, 0.00, 0.00, 0.00, 0.00
88, 139926.20, 137931.31, -187500.02, -187500.02, 143976.59, -187500.02, 0.00, 0.00, 0.00, 0.00, 0.00
89, 140805.13, 139334.69, -187500.02, -187500.02, 145219.03, -187500.02, 0.00, 0.00, 0.00, 0.00, 0.00
90, 141878.81, 140626.84, -187500.02, -187500.02, 146568.91, -187500.02, 0.00, 0.00, 0.00, 0.00, 0.00
91, 141496.73, 139767.59, -187500.02, -187500.02, 145875.91, -187500.02, 0.00, 0.00, 0.00, 0.00, 0.00
92, 140759.92, 138773.77, -187500.02, -187500.02, 144837.94, -187500.02, 0.00, 0.00, 0.00, 0.00, 0.00
93, 141377.94, 139833.63, -187500.02, -187500.02, 145730.03, -187500.02, 0.00, 0.00, 0.00, 0.00, 0.00
94, 142518.19, 141293.39, -187500.02, -187500.02, 147206.45, -187500.02, 0.00, 0.00, 0.00, 0.00, 0.00
95, 142318.00, 140685.77, -187500.02, -187500.02, 146775.19, -187500.02, 0.00, 0.00, 0.00, 0.00, 0.00
96, 141257.28, 139202.84, -187500.02, -187500.02, 145304.53, -187500.02, 0.00, 0.00, 0.00, 0.00, 0.00
97, 141472.80, 139783.22, -187500.02, -187500.02, 145711.94, -187500.02, 0.00, 0.00, 0.00, 0.00, 0.00
98, 142621.72, 141361.53, -187500.02, -187500.02, 147264.22, -187500.02, 0.00, 0.00, 0.00, 0.00, 0.00
99, 142658.28, 141108.66, -187500.02, -187500.02, 147178.16, -187500.02, 0.00, 0.00, 0.00, 0.00, 0.00
100, 141652.67, 139631.08, -187500.02, -187500.02, 145752.03, -187500.02, 0.00, 0.00, 0.00, 0.00, 0.00
101, 141601.06, 139812.30, -187500.02, -187500.02, 145775.45, -187500.02, 0.00, 0.00, 0.00, 0.00, 0.00
102, 142707.33, 141416.38, -187500.02, -187500.02, 147307.17, -187500.02, 0.00, 0.00, 0.00, 0.00, 0.00
103, 143028.20, 141581.69, -187500.02, -187500.02, 147619.72, -187500.02, 0.00, 0.00, 0.00, 0.00, 0.00
104, 142074.41, 140105.89, -187500.02, -187500.02, 146236.70, -187500.02, 0.00, 0.00, 0.00, 0.00, 0.00
105, 141757.06, 139888.00, -187500.02, -187500.02, 145880.36, -187500.02, 0.00, 0.00, 0.00, 0.00, 0.00
106, 142809.27, 141477.08, -187500.02, -187500.02, 147356.86, -187500.02, 0.00, 0.00, 0.00, 0.00, 0.00
107, 143398.45, 142043.16, -187500.02, -187500.02, 148043.78, -187500.02, 0.00, 0.00, 0.00, 0.00, 0.00
108, 142528.48, 140619.36, -187500.02, -187500.02, 146754.98, -187500.02, 0.00, 0.00, 0.00, 0.00, 0.00
109, 141911.42, 139950.03, -187500.02, -187500.02, 145978.75, -187500.02, 0.00, 0.00, 0.00, 0.00, 0.00
110, 142808.44, 141398.53, -187500.02, -187500.02, 147278.72, -187500.02, 0.00, 0.00, 0.00, 0.00, 0.00
111, 143619.16, 142320.33, -187500.02, -187500.02, 148290.47, -187500.02, 0.00, 0.00, 0.00, 0.00, 0.00
112, 142960.02, 141143.81, -187500.02, -187500.02, 147274.44, -187500.02, 0.00, 0.00, 0.00, 0.00, 0.00
113, 142230.52, 140253.14, -187500.02, -187500.02, 146306.42, -187500.02, 0.00, 0.00, 0.00, 0.00, 0.00
114, 143002.28, 141524.06, -187500.02, -187500.02, 147410.73, -187500.02, 0.00, 0.00, 0.00, 0.00, 0.00
115, 144065.70, 142845.20, -187500.02, -187500.02, 148772.95, -187500.02, 0.00, 0.00, 0.00, 0.00, 0.00
116, 143766.06, 142110.38, -187500.02, -187500.02, 148207.66, -187500.02, 0.00, 0.00, 0.00, 0.00, 0.00
117, 142953.14, 140989.28, -187500.02, -187500.02, 147063.92, -187500.02, 0.00, 0.00, 0.00, 0.00, 0.00
118, 143431.83, 141877.47, -187500.02, -187500.02, 147782.70, -187500.02, 0.00, 0.00, 0.00, 0.00, 0.00
119, 144606.80, 143419.97, -187500.02, -187500.02, 149323.03, -187500.02, 0.00, 0.00, 0.00, 0.00, 0.00
120, 144545.17, 143005.86, -187500.02, -187500.02, 149077.92, -187500.02, 0.00, 0.00, 0.00, 0.00, 0.00
121, 143586.78, 141622.08, -187500.02, -187500.02, 147722.00, -187500.02, 0.00, 0.00, 0.00, 0.00, 0.00
122, 143798.88, 142150.30, -187500.02, -187500.02, 148084.06, -187500.02, 0.00, 0.00, 0.00, 0.00, 0.00
123, 145019.45, 143832.38, -187500.02, -187500.02, 149717.72, -187500.02, 0.00, 0.00, 0.00, 0.00, 0.00
124, 145238.19, 143811.83, -187500.02, -187500.02, 149856.86, -187500.02, 0.00, 0.00, 0.00, 0.00, 0.00
125, 144290.20, 142364.09, -187500.02, -187500.02, 148476.84, -187500.02, 0.00, 0.00, 0.00, 0.00, 0.00
126, 144209.52, 142470.19, -187500.02, -187500.02, 148427.77, -187500.02, 0.00, 0.00, 0.00, 0.00, 0.00
127, 145364.44, 144138.77, -187500.02, -187500.02, 150007.09, -187500.02, 0.00, 0.00, 0.00, 0.00, 0.00
128, 145815.00, 144476.59, -187500.02, -187500.02, 150483.42, -187500.02, 0.00, 0.00, 0.00, 0.00, 0.00
129, 144884.50, 142990.19, -187500.02, -187500.02, 149108.91, -187500.02, 0.00, 0.00, 0.00, 0.00, 0.00
130, 144423.80, 142557.14, -187500.02, -187500.02, 148549.31, -187500.02, 0.00, 0.00, 0.00, 0.00, 0.00
131, 145362.47, 144025.06, -187500.02, -187500.02, 149893.16, -187500.02, 0.00, 0.00, 0.00, 0.00, 0.00
132, 146055.69, 144770.56, -187500.02, -187500.02, 150743.64, -187500.02, 0.00, 0.00, 0.00, 0.00, 0.00
133, 145250.70, 143419.66, -187500.02, -187500.02, 149538.00, -187500.02, 0.00, 0.00, 0.00, 0.00, 0.00
134, 144552.06, 142612.00, -187500.02, -187500.02, 148637.70, -187500.02, 0.00, 0.00, 0.00, 0.00, 0.00
135, 145286.28, 143848.78, -187500.02, -187500.02, 149727.58, -187500.02, 0.00, 0.00, 0.00, 0.00, 0.00
136, 146159.92, 144914.28, -187500.02, -187500.02, 150859.61, -187500.02, 0.00, 0.00, 0.00, 0.00, 0.00
137, 145628.00, 143893.73, -187500.02, -187500.02, 150002.63, -187500.02, 0.00, 0.00, 0.00, 0.00, 0.00
138, 144710.64, 142708.80, -187500.02, -187500.02, 148771.48, -187500.02, 0.00, 0.00, 0.00, 0.00, 0.00
139, 145226.00, 143695.22, -187500.02, -187500.02, 149585.00, -187500.02, 0.00, 0.00, 0.00, 0.00, 0.00
140, 146238.03, 145004.97, -187500.02, -187500.02, 150920.98, -187500.02, 0.00, 0.00, 0.00, 0.00, 0.00
141, 145886.66, 144239.17, -187500.02, -187500.02, 150329.73, -187500.02, 0.00, 0.00, 0.00, 0.00, 0.00
142, 144895.92, 142890.66, -187500.02, -187500.02, 148976.70, -187500.02, 0.00, 0.00, 0.00, 0.00, 0.00
143, 145172.36, 143541.48, -187500.02, -187500.02, 149455.53, -187500.02, 0.00, 0.00, 0.00, 0.00, 0.00
144, 146273.98, 145051.70, -187500.02, -187500.02, 150945.17, -187500.02, 0.00, 0.00, 0.00, 0.00, 0.00
145, 146237.25, 144700.11, -187500.02, -187500.02, 150763.50, -187500.02, 0.00, 0.00, 0.00, 0.00, 0.00
146, 145169.75, 143164.19, -187500.02, -187500.02, 149271.19, -187500.02, 0.00, 0.00, 0.00, 0.00, 0.00
147, 145152.36, 143404.72, -187500.02, -187500.02, 149348.66, -187500.02, 0.00, 0.00, 0.00, 0.00, 0.00
148, 146300.80, 145053.89, -187500.02, -187500.02, 150930.38, -187500.02, 0.00, 0.00, 0.00, 0.00, 0.00
149, 146643.64, 145226.92, -187500.02, -187500.02, 151252.66, -187500.02, 0.00, 0.00, 0.00, 0.00, 0.00
150, 145718.55, 143780.97, -187500.02, -187500.02, 149893.09, -187500.02, 0.00, 0.00, 0.00, 0.00, 0.00
151, 145485.91, 143675.98, -187500.02, -187500.02, 149643.31, -187500.02, 0.00, 0.00, 0.00, 0.00, 0.00
152, 146611.34, 145343.91, -187500.02, -187500.02, 151205.98, -187500.02, 0.00, 0.00, 0.00, 0.00, 0.00
153, 147209.88, 145897.45, -187500.02, -187500.02, 151886.52, -187500.02, 0.00, 0.00, 0.00, 0.00, 0.00
154, 146413.78, 144569.17, -187500.02, -187500.02, 150678.94, -187500.02, 0.00, 0.00, 0.00, 0.00, 0.00
155, 145960.44, 144097.58, -187500.02, -187500.02, 150089.91, -187500.02, 0.00, 0.00, 0.00, 0.00, 0.00
156, 146908.69, 145570.88, -187500.02, -187500.02, 151427.08, -187500.02, 0.00, 0.00, 0.00, 0.00, 0.00
157, 147725.94, 146487.83, -187500.02, -187500.02, 152434.67, -187500.02, 0.00, 0.00, 0.00, 0.00, 0.00
158, 147016.42, 145238.14, -187500.02, -187500.02, 151343.61, -187500.02, 0.00, 0.00, 0.00, 0.00, 0.00
159, 146234.03, 144291.61, -187500.02, -187500.02, 150321.36, -187500.02, 0.00, 0.00, 0.00, 0.00, 0.00
160, 146908.05, 145458.16, -187500.02, -187500.02, 151331.00, -187500.02, 0.00, 0.00, 0.00, 0.00, 0.00
161, 147815.20, 146583.77, -187500.02, -187500.02, 152512.73, -187500.02, 0.00, 0.00, 0.00, 0.00, 0.00
162, 147257.95, 145540.88, -187500.02, -187500.02, 151644.72, -187500.02, 0.00, 0.00, 0.00, 0.00, 0.00
163, 146246.92, 144238.06, -187500.02, -187500.02, 150308.69, -187500.02, 0.00, 0.00, 0.00, 0.00, 0.00
164, 146692.19, 145131.80, -187500.02, -187500.02, 151028.39, -187500.02, 0.00, 0.00, 0.00, 0.00, 0.00
165, 147771.16, 146561.36, -187500.02, -187500.02, 152463.95, -187500.02, 0.00, 0.00, 0.00, 0.00, 0.00
166, 147550.52, 145960.70, -187500.02, -187500.02, 152035.98, -187500.02, 0.00, 0.00, 0.00, 0.00, 0.00
167, 146530.41, 144539.94, -187500.02, -187500.02, 150628.67, -187500.02, 0.00, 0.00, 0.00, 0.00, 0.00
168, 146644.11, 144962.55, -187500.02, -187500.02, 150887.53, -187500.02, 0.00, 0.00, 0.00, 0.00, 0.00
169, 147695.09, 146453.63, -187500.02, -187500.02, 152339.97, -187500.02, 0.00, 0.00, 0.00, 0.00, 0.00
170, 147777.86, 146289.02, -187500.02, -187500.02, 152338.83, -187500.02, 0.00, 0.00, 0.00, 0.00, 0.00
171, 146730.02, 144750.55, -187500.02, -187500.02, 150862.94, -187500.02, 0.00, 0.00, 0.00, 0.00, 0.00
172, 146576.67, 144799.20, -187500.02, -187500.02, 150754.67, -187500.02, 0.00, 0.00, 0.00, 0.00, 0.00
173, 147678.33, 146422.27, -187500.02, -187500.02, 152292.42, -187500.02, 0.00, 0.00, 0.00, 0.00, 0.00
174, 148021.81, 146617.11, -187500.02, -187500.02, 152636.77, -187500.02, 0.00, 0.00, 0.00, 0.00, 0.00
175, 146988.83, 145038.14, -187500.02, -187500.02, 151164.38, -187500.02, 0.00, 0.00, 0.00, 0.00, 0.00
176, 146609.09, 144740.02, -187500.02, -187500.02, 150728.61, -187500.02, 0.00, 0.00, 0.00, 0.00, 0.00
177, 147680.27, 146372.09, -187500.02, -187500.02, 152235.45, -187500.02, 0.00, 0.00, 0.00, 0.00, 0.00
178, 148443.14, 147168.50, -187500.02, -187500.02, 153141.78, -187500.02, 0.00, 0.00, 0.00, 0.00, 0.00
179, 147730.36, 145921.84, -187500.02, -187500.02, 152032.45, -187500.02, 0.00, 0.00, 0.00, 0.00, 0.00
180, 147166.11, 145273.58, -187500.02, -187500.02, 151286.84, -187500.02, 0.00, 0.00, 0.00, 0.00, 0.00
181, 148037.67, 146667.38, -187500.02, -187500.02, 152535.25, -187500.02, 0.00, 0.00, 0.00, 0.00, 0.00
182, 148954.84, 147739.84, -187500.02, -187500.02, 153680.17, -187500.02, 0.00, 0.00, 0.00, 0.00, 0.00
183, 148399.42, 146677.31, -187500.02, -187500.02, 152776.97, -187500.02, 0.00, 0.00, 0.00, 0.00, 0.00
184, 147603.38, 145660.22, -187500.02, -187500.02, 151699.23, -187500.02, 0.00, 0.00, 0.00, 0.00, 0.00
185, 148252.80, 146790.25, -187500.02, -187500.02, 152663.14, -187500.02, 0.00, 0.00, 0.00, 0.00, 0.00
186, 149327.73, 148147.20, -187500.02, -187500.02, 154055.08, -187500.02, 0.00, 0.00, 0.00, 0.00, 0.00
187, 148944.47, 147313.22, -187500.02, -187500.02, 153398.11, -187500.02, 0.00, 0.00, 0.00, 0.00, 0.00
188, 147937.94, 145955.19, -187500.02, -187500.02, 152030.39, -187500.02, 0.00, 0.00, 0.00, 0.00, 0.00
189, 148204.64, 146603.05, -187500.02, -187500.02, 152508.41, -187500.02, 0.00, 0.00, 0.00, 0.00, 0.00
190, 149282.63, 148072.20, -187500.02, -187500.02, 153962.92, -187500.02, 0.00, 0.00, 0.00, 0.00, 0.00
191, 149133.52, 147579.53, -187500.02, -187500.02, 153641.91, -187500.02, 0.00, 0.00, 0.00, 0.00, 0.00
192, 148049.19, 146047.66, -187500.02, -187500.02, 152144.72, -187500.02, 0.00, 0.00, 0.00, 0.00, 0.00
193, 148051.09, 146330.63, -187500.02, -187500.02, 152259.88, -187500.02, 0.00, 0.00, 0.00, 0.00, 0.00
194, 149147.39, 147907.09, -187500.02, -187500.02, 153778.56, -187500.02, 0.00, 0.00, 0.00, 0.00, 0.00
195, 149313.66, 147861.08, -187500.02, -187500.02, 153892.72, -187500.02, 0.00, 0.00, 0.00, 0.00, 0.00
196, 148248.30, 146284.52, -187500.02, -187500.02, 152396.27, -187500.02, 0.00, 0.00, 0.00, 0.00, 0.00
197, 148001.88, 146193.69, -187500.02, -187500.02, 152158.09, -187500.02, 0.00, 0.00, 0.00, 0.00, 0.00
198, 148984.00, 147680.83, -187500.02, -187500.02, 153553.53, -187500.02, 0.00, 0.00, 0.00, 0.00, 0.00
199, 149403.17, 148036.45, -187500.02, -187500.02, 154039.02, -187500.02, 0.00, 0.00, 0.00, 0.00, 0.00
200, 148505.59, 146609.25, -187500.02, -187500.02, 152730.27, -187500.02, 0.00, 0.00, 0.00, 0.00, 0.00
201, 147962.02, 146061.47, -187500.02, -187500.02, 152065.38, -187500.02, 0.00, 0.00, 0.00, 0.00, 0.00
202, 148874.33, 147514.31, -187500.02, -187500.02, 153390.09, -187500.02, 0.00, 0.00, 0.00, 0.00, 0.00
203, 149570.63, 148284.22, -187500.02, -187500.02, 154260.33, -187500.02, 0.00, 0.00, 0.00, 0.00, 0.00
204, 148806.91, 146989.98, -187500.02, -187500.02, 153115.66, -187500.02, 0.00, 0.00, 0.00, 0.00, 0.00
205, 148077.83, 146127.75, -187500.02, -187500.02, 152170.06, -187500.02, 0.00, 0.00, 0.00, 0.00, 0.00
206, 148866.41, 147438.88, -187500.02, -187500.02, 153324.64, -187500.02, 0.00, 0.00, 0.00, 0.00, 0.00
207, 149846.53, 148631.25, -187500.02, -187500.02, 154575.11, -187500.02, 0.00, 0.00, 0.00, 0.00, 0.00
208, 149367.38, 147673.75, -187500.02, -187500.02, 153786.20, -187500.02, 0.00, 0.00, 0.00, 0.00, 0.00
209, 148538.80, 146590.88, -187500.02, -187500.02, 152660.00, -187500.02, 0.00, 0.00, 0.00, 0.00, 0.00
210, 149095.36, 147595.27, -187500.02, -187500.02, 153494.70, -187500.02, 0.00, 0.00, 0.00, 0.00, 0.00
211, 150227.30, 149067.67, -187500.02, -187500.02, 154982.81, -187500.02, 0.00, 0.00, 0.00, 0.00, 0.00
212, 150023.36, 148461.20, -187500.02, -187500.02, 154553.23, -187500.02, 0.00, 0.00, 0.00, 0.00, 0.00
213, 149044.28, 147097.23, -187500.02, -187500.02, 153192.48, -187500.02, 0.00, 0.00, 0.00, 0.00, 0.00
214, 149326.09, 147733.47, -187500.02, -187500.02, 153655.86, -187500.02, 0.00, 0.00, 0.00, 0.00, 0.00
215, 150476.77, 149302.16, -187500.02, -187500.02, 155195.52, -187500.02, 0.00, 0.00, 0.00, 0.00, 0.00
216, 150535.39, 149083.50, -187500.02, -187500.02, 155141.73, -187500.02, 0.00, 0.00, 0.00, 0.00, 0.00
217, 149474.36, 147534.89, -187500.02, -187500.02, 153649.84, -187500.02, 0.00, 0.00, 0.00, 0.00, 0.00
218, 149360.55, 147641.72, -187500.02, -187500.02, 153601.55, -187500.02, 0.00, 0.00, 0.00, 0.00, 0.00
219, 150416.86, 149192.55, -187500.02, -187500.02, 155075.06, -187500.02, 0.00, 0.00, 0.00, 0.00, 0.00
220, 150729.28, 149360.19, -187500.02, -187500.02, 155386.63, -187500.02, 0.00, 0.00, 0.00, 0.00, 0.00
221, 149689.42, 147776.94, -187500.02, -187500.02, 153904.58, -187500.02, 0.00, 0.00, 0.00, 0.00, 0.00
222, 149277.80, 147454.59, -187500.02, -187500.02, 153446.80, -187500.02, 0.00, 0.00, 0.00, 0.00, 0.00
223, 150243.13, 148948.31, -187500.02, -187500.02, 154828.53, -187500.02, 0.00, 0.00, 0.00, 0.00, 0.00
224, 150770.22, 149454.36, -187500.02, -187500.02, 155456.06, -187500.02, 0.00, 0.00, 0.00, 0.00, 0.00
225, 149877.52, 148028.31, -187500.02, -187500.02, 154160.94, -187500.02, 0.00, 0.00, 0.00, 0.00, 0.00
226, 149267.94, 147366.50, -187500.02, -187500.02, 153392.70, -187500.02, 0.00, 0.00, 0.00, 0.00, 0.00
227, 150042.11, 148648.33, -187500.02, -187500.02, 154535.23, -187500.02, 0.00, 0.00, 0.00, 0.00, 0.00
228, 150801.88, 149540.50, -187500.02, -187500.02, 155510.09, -187500.02, 0.00, 0.00, 0.00, 0.00, 0.00
229, 150113.22, 148339.98, -187500.02, -187500.02, 154469.64, -187500.02, 0.00, 0.00, 0.00, 0.00, 0.00
230, 149242.33, 147266.28, -187500.02, -187500.02, 153333.81, -187500.02, 0.00, 0.00, 0.00, 0.00, 0.00
231, 149823.31, 148334.73, -187500.02, -187500.02, 154240.06, -187500.02, 0.00, 0.00, 0.00, 0.00, 0.00
232, 150801.58, 149586.11, -187500.02, -187500.02, 155531.19, -187500.02, 0.00, 0.00, 0.00, 0.00, 0.00
233, 150337.72, 148657.17, -187500.02, -187500.02, 154779.25, -187500.02, 0.00, 0.00, 0.00, 0.00, 0.00
234, 149343.20, 147351.66, -187500.02, -187500.02, 153449.14, -187500.02, 0.00, 0.00, 0.00, 0.00, 0.00
235, 149776.38, 148212.64, -187500.02, -187500.02, 154136.55, -187500.02, 0.00, 0.00, 0.00, 0.00, 0.00
236, 150934.89, 149753.28, -187500.02, -187500.02, 155668.63, -187500.02, 0.00, 0.00, 0.00, 0.00, 0.00
237, 150906.56, 149392.14, -187500.02, -187500.02, 155475.56, -187500.02, 0.00, 0.00, 0.00, 0.00, 0.00
238, 149931.63, 147979.34, -187500.02, -187500.02, 154092.39, -187500.02, 0.00, 0.00, 0.00, 0.00, 0.00
239, 150051.91, 148394.36, -187500.02, -187500.02, 154342.28, -187500.02, 0.00, 0.00, 0.00, 0.00, 0.00
240, 151221.17, 150029.73, -187500.02, -187500.02, 155927.23, -187500.02, 0.00, 0.00, 0.00, 0.00, 0.00
241, 151456.02, 150046.58, -187500.02, -187500.02, 156102.59, -187500.02, 0.00, 0.00, 0.00, 0.00, 0.00
242, 150477.42, 148557.56, -187500.02, -187500.02, 154689.83, -187500.02, 0.00, 0.00, 0.00, 0.00, 0.00
243, 150336.47, 148596.67, -187500.02, -187500.02, 154573.70, -187500.02, 0.00, 0.00, 0.00, 0.00, 0.00
244, 151502.67, 150293.38, -187500.02, -187500.02, 156177.83, -187500.02, 0.00, 0.00, 0.00, 0.00, 0.00
245, 151945.39, 150619.03, -187500.02, -187500.02, 156645.72, -187500.02, 0.00, 0.00, 0.00, 0.00, 0.00
246, 150918.30, 149033.14, -187500.02, -187500.02, 155177.41, -187500.02, 0.00, 0.00, 0.00, 0.00, 0.00
247, 150403.34, 148543.14, -187500.02, -187500.02, 154562.23, -187500.02, 0.00, 0.00, 0.00, 0.00, 0.00
248, 151261.25, 149917.41, -187500.02, -187500.02, 155811.56, -187500.02, 0.00, 0.00, 0.00, 0.00, 0.00
249, 151900.34, 150611.14, -187500.02, -187500.02, 156607.11, -187500.02, 0.00, 0.00, 0.00, 0.00, 0.00
250, 151085.31, 149259.42, -187500.02, -187500.02, 155403.81, -187500.02, 0.00, 0.00, 0.00, 0.00, 0.00
251, 150335.73, 148397.23, -187500.02, -187500.02, 154450.75, -187500.02, 0.00, 0.00, 0.00, 0.00, 0.00
252, 151042.91, 149607.63, -187500.02, -187500.02, 155510.17, -187500.02, 0.00, 0.00, 0.00, 0.00, 0.00
253, 151878.06, 150631.78, -187500.02, -187500.02, 156598.17, -187500.02, 0.00, 0.00, 0.00, 0.00, 0.00
254, 151315.06, 149590.00, -187500.02, -187500.02, 155722.23, -187500.02, 0.00, 0.00, 0.00, 0.00, 0.00
255, 150444.58, 148478.75, -187500.02, -187500.02, 154561.70, -187500.02, 0.00, 0.00, 0.00, 0.00, 0.00
0, 150927.42, 149396.23, -187500.02, -187500.02, 155317.84, -187500.02, 0.00, 0.00, 0.00, 0.00, 0.00
1, 151908.95, 150685.13, -187500.02, -187500.02, 156628.45, -187500.02, 0.00, 0.00, 0.00, 0.00, 0.00
2, 151588.92, 149957.83, -187500.02, -187500.02, 156073.00, -187500.02, 0.00, 0.00, 0.00, 0.00, 0.00
3, 150528.91, 148517.55, -187500.02, -187500.02, 154632.11, -187500.02, 0.00, 0.00, 0.00, 0.00, 0.00
4, 150753.97, 149110.06, -187500.02, -187500.02, 155053.38, -187500.02, 0.00, 0.00, 0.00, 0.00, 0.00
5, 151769.28, 150522.50, -187500.02, -187500.02, 156445.42, -187500.02, 0.00, 0.00, 0.00, 0.00, 0.00
6, 151695.14, 150152.48, -187500.02, -187500.02, 156244.48, -187500.02, 0.00, 0.00, 0.00, 0.00, 0.00
7, 150597.91, 148593.63, -187500.02, -187500.02, 154734.30, -187500.02, 0.00, 0.00, 0.00, 0.00, 0.00
8, 150618.52, 148896.31, -187500.02, -187500.02, 154867.03, -187500.02, 0.00, 0.00, 0.00, 0.00, 0.00
9, 151842.19, 150628.61, -187500.02, -187500.02, 156532.03, -187500.02, 0.00, 0.00, 0.00, 0.00, 0.00
10, 152175.39, 150778.25, -187500.02, -187500.02, 156833.38, -187500.02, 0.00, 0.00, 0.00, 0.00, 0.00
11, 151227.34, 149313.63, -187500.02, -187500.02, 155457.67, -187500.02, 0.00, 0.00, 0.00, 0.00, 0.00
12, 150978.52, 149185.38, -187500.02, -187500.02, 155186.95, -187500.02, 0.00, 0.00, 0.00, 0.00, 0.00
13, 152055.77, 150790.16, -187500.02, -187500.02, 156684.89, -187500.02, 0.00, 0.00, 0.00, 0.00, 0.00
14, 152649.28, 151348.81, -187500.02, -187500.02, 157367.89, -187500.02, 0.00, 0.00, 0.00, 0.00, 0.00
15, 151845.25, 150014.80, -187500.02, -187500.02, 156157.84, -187500.02, 0.00, 0.00, 0.00, 0.00, 0.00
16, 151352.80, 149496.27, -187500.02, -187500.02, 155524.78, -187500.02, 0.00, 0.00, 0.00, 0.00, 0.00
17, 152266.53, 150934.22, -187500.02, -187500.02, 156825.67, -187500.02, 0.00, 0.00, 0.00, 0.00, 0.00
18, 153051.52, 151822.31, -187500.02, -187500.02, 157805.05, -187500.02, 0.00, 0.00, 0.00, 0.00, 0.00
19, 152313.55, 150545.34, -187500.02, -187500.02, 156688.55, -187500.02, 0.00, 0.00, 0.00, 0.00, 0.00
20, 151462.55, 149506.72, -187500.02, -187500.02, 155580.78, -187500.02, 0.00, 0.00, 0.00, 0.00, 0.00
21, 152034.39, 150563.31, -187500.02, -187500.02, 156479.80, -187500.02, 0.00, 0.00, 0.00, 0.00, 0.00
22, 152961.39, 151740.84, -187500.02, -187500.02, 157705.67, -187500.02, 0.00, 0.00, 0.00, 0.00, 0.00
23, 152453.59, 150758.36, -187500.02, -187500.02, 156899.03, -187500.02, 0.00, 0.00, 0.00, 0.00, 0.00
24, 151440.69, 149440.03, -187500.02, -187500.02, 155552.52, -187500.02, 0.00, 0.00, 0.00, 0.00, 0.00
25, 151825.31, 150257.77, -187500.02, -187500.02, 156197.72, -187500.02, 0.00, 0.00, 0.00, 0.00, 0.00
26, 152888.75, 151683.25, -187500.02, -187500.02, 157626.34, -187500.02, 0.00, 0.00, 0.00, 0.00, 0.00
27, 152637.42, 151045.39, -187500.02, -187500.02, 157165.19, -187500.02, 0.00, 0.00, 0.00, 0.00, 0.00
28, 151538.42, 149530.39, -187500.02, -187500.02, 155669.45, -187500.02, 0.00, 0.00, 0.00, 0.00, 0.00
29, 151631.22, 149952.91, -187500.02, -187500.02, 155923.47, -187500.02, 0.00, 0.00, 0.00, 0.00, 0.00
30, 152718.72, 151483.28, -187500.02, -187500.02, 157415.17, -187500.02, 0.00, 0.00, 0.00, 0.00, 0.00
31, 152745.92, 151249.44, -187500.02, -187500.02, 157343.83, -187500.02, 0.00, 0.00, 0.00, 0.00, 0.00
32, 151694.22, 149717.48, -187500.02, -187500.02, 155875.05, -187500.02, 0.00, 0.00, 0.00, 0.00, 0.00
33, 151507.67, 149722.55, -187500.02, -187500.02, 155726.83, -187500.02, 0.00, 0.00, 0.00, 0.00, 0.00
34, 152556.48, 151284.22, -187500.02, -187500.02, 157202.70, -187500.02, 0.00, 0.00, 0.00, 0.00, 0.00
35, 152922.11, 151530.97, -187500.02, -187500.02, 157588.47, -187500.02, 0.00, 0.00, 0.00, 0.00, 0.00
36, 151934.72, 150002.89, -187500.02, -187500.02, 156169.39, -187500.02, 0.00, 0.00, 0.00, 0.00, 0.00
37, 151479.72, 149612.41, -187500.02, -187500.02, 155646.56, -187500.02, 0.00, 0.00, 0.00, 0.00, 0.00
38, 152528.70, 151224.64, -187500.02, -187500.02, 157134.14, -187500.02, 0.00, 0.00, 0.00, 0.00, 0.00
39, 153208.39, 151923.03, -187500.02, -187500.02, 157945.83, -187500.02, 0.00, 0.00, 0.00, 0.00, 0.00
40, 152468.34, 150658.53, -187500.02, -187500.02, 156816.33, -187500.02, 0.00, 0.00, 0.00, 0.00, 0.00
41, 151853.08, 149954.78, -187500.02, -187500.02, 156013.56, -187500.02, 0.00, 0.00, 0.00, 0.00, 0.00
42, 152705.77, 151335.36, -187500.02, -187500.02, 157245.55, -187500.02, 0.00, 0.00, 0.00, 0.00, 0.00
43, 153626.28, 152426.70, -187500.02, -187500.02, 158409.13, -187500.02, 0.00, 0.00, 0.00, 0.00, 0.00
44, 153065.28, 151358.39, -187500.02, -187500.02, 157505.77, -187500.02, 0.00, 0.00, 0.00, 0.00, 0.00
45, 152224.92, 150290.86, -187500.02, -187500.02, 156379.86, -187500.02, 0.00, 0.00, 0.00, 0.00, 0.00
46, 152825.44, 151361.00, -187500.02, -187500.02, 157284.77, -187500.02, 0.00, 0.00, 0.00, 0.00, 0.00
47, 153866.88, 152695.13, -187500.02, -187500.02, 158649.84, -187500.02, 0.00, 0.00, 0.00, 0.00, 0.00
48, 153511.95, 151900.06, -187500.02, -187500.02, 158032.89, -187500.02, 0.00, 0.00, 0.00, 0.00, 0.00
49, 152445.80, 150463.88, -187500.02, -187500.02, 156590.23, -187500.02, 0.00, 0.00, 0.00, 0.00, 0.00
50, 152689.70, 151083.14, -187500.02, -187500.02, 157039.80, -187500.02, 0.00, 0.00, 0.00, 0.00, 0.00
51, 153753.86, 152553.20, -187500.02, -187500.02, 158492.92, -187500.02, 0.00, 0.00, 0.00, 0.00, 0.00
52, 153668.94, 152145.25, -187500.02, -187500.02, 158257.00, -187500.02, 0.00, 0.00, 0.00, 0.00, 0.00
53, 152565.66, 150582.95, -187500.02, -187500.02, 156736.75, -187500.02, 0.00, 0.00, 0.00, 0.00, 0.00
54, 152539.47, 150829.08, -187500.02, -187500.02, 156821.27, -187500.02, 0.00, 0.00, 0.00, 0.00, 0.00
55, 153606.92, 152373.20, -187500.02, -187500.02, 158306.50, -187500.02, 0.00, 0.00, 0.00, 0.00, 0.00
56, 153788.06, 152355.44, -187500.02, -187500.02, 158446.22, -187500.02, 0.00, 0.00, 0.00, 0.00, 0.00
57, 152718.09, 150762.38, -187500.02, -187500.02, 156939.66, -187500.02, 0.00, 0.00, 0.00, 0.00, 0.00
58, 152359.47, 150533.94, -187500.02, -187500.02, 156565.47, -187500.02, 0.00, 0.00, 0.00, 0.00, 0.00
59, 153337.77, 152043.06, -187500.02, -187500.02, 157972.89, -187500.02, 0.00, 0.00, 0.00, 0.00, 0.00
