%OpenBCI Raw EEG Data
%
%Sample Rate = 250.0 Hz
%First Column = SampleIndex
%Other Columns = EEG data in microvolts followed by Accel Data (in G) interleaved with Aux Data
0, 17877.01, 31071.40, 187500.00, -96392.01, -45329.63, 187500.00, -187500.02, 187500.00, -0.00, -0.00, -0.00
1, 18405.16, 21525.27, 187500.00, -96286.87, -44949.71, 187500.00, -187500.02, 187500.00, -0.00, -0.00, -0.00
2, 27519.76, -18762.05, 187500.00, -91121.17, -38995.39, 187500.00, -187500.02, 187500.00, -0.00, -0.00, -0.00
3, 28075.82, -13807.50, 187500.00, -90614.62, -38692.25, 187500.00, -187500.02, 187500.00, -0.00, -0.00, -0.00
4, 19127.86, 26406.17, 187500.00, -95660.12, -44506.12, 187500.00, -187500.02, 187500.00, -0.00, -0.00, -0.00
5, 17291.02, 27136.85, 187500.00, -96906.55, -45668.81, 187500.00, -187500.02, 187500.00, -0.00, -0.00, -0.00
6, 26007.30, -13230.47, 187500.00, -92014.88, -39968.23, 187500.00, -187500.02, 187500.00, -0.00, -0.00, -0.00
7, 29008.45, -19158.37, 187500.00, -90110.70, -38047.56, 187500.00, -187500.02, 187500.00, -0.00, -0.00, -0.00
8, 20646.87, 20240.02, 187500.00, -94793.55, -43516.54, 187500.00, -187500.02, 187500.00, -0.00, -0.00, -0.00
9, 16568.63, 31357.42, 187500.00, -97301.30, -46135.61, 187500.00, -187500.02, 187500.00, -0.00, -0.00, -0.00
10, 24292.28, -6348.57, 187500.00, -93019.40, -41078.62, 187500.00, -187500.02, 187500.00, -0.00, -0.00, -0.00
11, 29498.96, -22893.04, 187500.00, -89885.21, -37703.52, 187500.00, -187500.02, 187500.00, -0.00, -0.00, -0.00
12, 22339.36, 13079.59, 187500.00, -93832.38, -42401.23, 187500.00, -187500.02, 187500.00, -0.00, -0.00, -0.00
13, 16273.25, 33904.82, 187500.00, -97446.56, -46319.77, 187500.00, -187500.02, 187500.00, -0.00, -0.00, -0.00
14, 22511.13, 1363.97, 187500.00, -94043.53, -42226.22, 187500.00, -187500.02, 187500.00, -0.00, -0.00, -0.00
15, 29569.77, -24712.24, 187500.00, -89894.20, -37627.39, 187500.00, -187500.02, 187500.00, -0.00, -0.00, -0.00
16, 24064.13, 5374.99, 187500.00, -92873.87, -41269.86, 187500.00, -187500.02, 187500.00, -0.00, -0.00, -0.00
17, 16467.00, 34565.79, 187500.00, -97302.64, -46173.76, 187500.00, -187500.02, 187500.00, -0.00, -0.00, -0.00
18, 20775.95, 9265.38, 187500.00, -95036.95, -43342.64, 187500.00, -187500.02, 187500.00, -0.00, -0.00, -0.00
19, 29165.03, -24378.91, 187500.00, -90173.05, -37858.64, 187500.00, -187500.02, 187500.00, -0.00, -0.00, -0.00
20, 25727.88, -2308.24, 187500.00, -91944.73, -40156.79, 187500.00, -187500.02, 187500.00, -0.00, -0.00, -0.00
21, 17074.68, 33254.45, 187500.00, -96928.27, -45761.15, 187500.00, -187500.02, 187500.00, -0.00, -0.00, -0.00
22, 19193.93, 16881.89, 187500.00, -95922.53, -44348.99, 187500.00, -187500.02, 187500.00, -0.00, -0.00, -0.00
23, 28311.50, -21831.78, 187500.00, -90694.66, -38375.17, 187500.00, -187500.02, 187500.00, -0.00, -0.00, -0.00
24, 27213.79, -9436.53, 187500.00, -91118.88, -39150.55, 187500.00, -187500.02, 187500.00, -0.00, -0.00, -0.00
25, 18098.25, 29961.51, 187500.00, -96327.68, -45088.81, 187500.00, -187500.02, 187500.00, -0.00, -0.00, -0.00
26, 17899.12, 23473.55, 187500.00, -96651.82, -45188.77, 187500.00, -187500.02, 187500.00, -0.00, -0.00, -0.00
27, 27054.66, -17315.31, 187500.00, -91455.45, -39186.43, 187500.00, -187500.02, 187500.00, -0.00, -0.00, -0.00
28, 28391.03, -15612.71, 187500.00, -90496.89, -38370.01, 187500.00, -187500.02, 187500.00, -0.00, -0.00, -0.00
29, 19493.98, 24917.37, 187500.00, -95526.03, -44185.42, 187500.00, -187500.02, 187500.00, -0.00, -0.00, -0.00
30, 16949.44, 28973.11, 187500.00, -97175.97, -45810.61, 187500.00, -187500.02, 187500.00, -0.00, -0.00, -0.00
31, 25469.28, -11046.81, 187500.00, -92406.31, -40230.77, 187500.00, -187500.02, 187500.00, -0.00, -0.00, -0.00
32, 29193.19, -20394.02, 187500.00, -90099.03, -37840.65, 187500.00, -187500.02, 187500.00, -0.00, -0.00, -0.00
33, 21099.22, 18440.03, 187500.00, -94620.56, -43156.95, 187500.00, -187500.02, 187500.00, -0.00, -0.00, -0.00
34, 16371.60, 32772.86, 187500.00, -97486.84, -46201.75, 187500.00, -187500.02, 187500.00, -0.00, -0.00, -0.00
35, 23752.51, -3709.67, 187500.00, -93396.96, -41351.84, 187500.00, -187500.02, 187500.00, -0.00, -0.00, -0.00
36, 29607.59, -23454.58, 187500.00, -89899.70, -37548.02, 187500.00, -187500.02, 187500.00, -0.00, -0.00, -0.00
37, 22847.08, 11063.49, 187500.00, -93628.48, -42018.60, 187500.00, -187500.02, 187500.00, -0.00, -0.00, -0.00
38, 16214.89, 34761.54, 187500.00, -97557.96, -46314.76, 187500.00, -187500.02, 187500.00, -0.00, -0.00, -0.00
39, 21941.01, 4214.09, 187500.00, -94440.79, -42536.71, 187500.00, -187500.02, 187500.00, -0.00, -0.00, -0.00
40, 29535.39, -24575.72, 187500.00, -89981.75, -37564.43, 187500.00, -187500.02, 187500.00, -0.00, -0.00, -0.00
41, 24630.19, 3286.89, 187500.00, -92605.66, -40822.91, 187500.00, -187500.02, 187500.00, -0.00, -0.00, -0.00
42, 16599.32, 34715.48, 187500.00, -97280.17, -46027.70, 187500.00, -187500.02, 187500.00, -0.00, -0.00, -0.00
43, 20314.23, 12067.66, 187500.00, -95330.14, -43548.39, 187500.00, -187500.02, 187500.00, -0.00, -0.00, -0.00
44, 29056.17, -23516.63, 187500.00, -90261.35, -37802.21, 187500.00, -187500.02, 187500.00, -0.00, -0.00, -0.00
45, 26283.97, -4342.43, 187500.00, -91665.98, -39689.79, 187500.00, -187500.02, 187500.00, -0.00, -0.00, -0.00
46, 17401.73, 32681.76, 187500.00, -96777.24, -45467.96, 187500.00, -187500.02, 187500.00, -0.00, -0.00, -0.00
47, 18841.83, 19313.67, 187500.00, -96148.44, -44480.71, 187500.00, -187500.02, 187500.00, -0.00, -0.00, -0.00
48, 28062.86, -20336.11, 187500.00, -90862.48, -38412.95, 187500.00, -187500.02, 187500.00, -0.00, -0.00, -0.00
49, 27737.73, -11231.44, 187500.00, -90841.73, -38683.25, 187500.00, -187500.02, 187500.00, -0.00, -0.00, -0.00
50, 18607.83, 28751.90, 187500.00, -96061.18, -44667.01, 187500.00, -187500.02, 187500.00, -0.00, -0.00, -0.00
51, 17686.31, 25582.89, 187500.00, -96787.86, -45232.20, 187500.00, -187500.02, 187500.00, -0.00, -0.00, -0.00
52, 26726.76, -15164.38, 187500.00, -91656.12, -39277.27, 187500.00, -187500.02, 187500.00, -0.00, -0.00, -0.00
53, 28843.94, -16943.83, 187500.00, -90247.04, -37945.37, 187500.00, -187500.02, 187500.00, -0.00, -0.00, -0.00
54, 20142.56, 23213.38, 187500.00, -95160.25, -43673.21, 187500.00, -187500.02, 187500.00, -0.00, -0.00, -0.00
55, 16912.96, 30489.12, 187500.00, -97196.31, -45755.96, 187500.00, -187500.02, 187500.00, -0.00, -0.00, -0.00
56, 25130.96, -8529.72, 187500.00, -92597.33, -40354.55, 187500.00, -187500.02, 187500.00, -0.00, -0.00, -0.00
57, 29574.89, -21154.23, 187500.00, -89872.20, -37481.06, 187500.00, -187500.02, 187500.00, -0.00, -0.00, -0.00
58, 21874.53, 16467.33, 187500.00, -94162.60, -42574.17, 187500.00, -187500.02, 187500.00, -0.00, -0.00, -0.00
59, 16536.71, 33820.02, 187500.00, -97372.66, -46034.58, 187500.00, -187500.02, 187500.00, -0.00, -0.00, -0.00
60, 23420.89, -881.42, 187500.00, -93576.40, -41501.67, 187500.00, -187500.02, 187500.00, -0.00, -0.00, -0.00
61, 29875.29, -23607.60, 187500.00, -89743.50, -37292.88, 187500.00, -187500.02, 187500.00, -0.00, -0.00, -0.00
62, 23663.63, 8944.14, 187500.00, -93149.46, -41431.77, 187500.00, -187500.02, 187500.00, -0.00, -0.00, -0.00
63, 16556.92, 35168.28, 187500.00, -97338.34, -46058.76, 187500.00, -187500.02, 187500.00, -0.00, -0.00, -0.00
64, 21680.21, 7010.56, 187500.00, -94577.52, -42674.57, 187500.00, -187500.02, 187500.00, -0.00, -0.00, -0.00
65, 29700.46, -24051.24, 187500.00, -89888.23, -37414.27, 187500.00, -187500.02, 187500.00, -0.00, -0.00, -0.00
66, 25437.38, 1192.62, 187500.00, -92146.05, -40280.39, 187500.00, -187500.02, 187500.00, -0.00, -0.00, -0.00
67, 17065.69, 34545.16, 187500.00, -97005.38, -45734.68, 187500.00, -187500.02, 187500.00, -0.00, -0.00, -0.00
68, 20094.87, 14741.76, 187500.00, -95455.06, -43712.43, 187500.00, -187500.02, 187500.00, -0.00, -0.00, -0.00
69, 29067.08, -22351.47, 187500.00, -90275.66, -37820.20, 187500.00, -187500.02, 187500.00, -0.00, -0.00, -0.00
70, 27074.31, -6238.57, 187500.00, -91207.74, -39189.74, 187500.00, -187500.02, 187500.00, -0.00, -0.00, -0.00
71, 18044.85, 31926.54, 187500.00, -96376.38, -45073.10, 187500.00, -187500.02, 187500.00, -0.00, -0.00, -0.00
72, 18759.93, 21674.69, 187500.00, -96161.16, -44563.72, 187500.00, -187500.02, 187500.00, -0.00, -0.00, -0.00
73, 27986.06, -18596.76, 187500.00, -90911.27, -38514.87, 187500.00, -187500.02, 187500.00, -0.00, -0.00, -0.00
74, 28415.64, -12896.31, 187500.00, -90463.36, -38298.46, 187500.00, -187500.02, 187500.00, -0.00, -0.00, -0.00
75, 19341.37, 27403.46, 187500.00, -95599.95, -44221.76, 187500.00, -187500.02, 187500.00, -0.00, -0.00, -0.00
76, 17681.75, 27480.26, 187500.00, -96735.27, -45257.18, 187500.00, -187500.02, 187500.00, -0.00, -0.00, -0.00
77, 26550.94, -13015.33, 187500.00, -91739.29, -39438.36, 187500.00, -187500.02, 187500.00, -0.00, -0.00, -0.00
78, 29420.21, -18248.12, 187500.00, -89907.70, -37611.08, 187500.00, -187500.02, 187500.00, -0.00, -0.00, -0.00
79, 20925.77, 21378.88, 187500.00, -94663.63, -43173.33, 187500.00, -187500.02, 187500.00, -0.00, -0.00, -0.00
80, 16986.10, 31873.43, 187500.00, -97079.95, -45690.18, 187500.00, -187500.02, 187500.00, -0.00, -0.00, -0.00
81, 24876.39, -6084.35, 187500.00, -92695.19, -40513.12, 187500.00, -187500.02, 187500.00, -0.00, -0.00, -0.00
82, 29982.21, -22056.32, 187500.00, -89626.49, -37219.21, 187500.00, -187500.02, 187500.00, -0.00, -0.00, -0.00
83, 22648.89, 14249.37, 187500.00, -93677.48, -42043.72, 187500.00, -187500.02, 187500.00, -0.00, -0.00, -0.00
84, 16694.36, 34549.20, 187500.00, -97205.81, -45868.21, 187500.00, -187500.02, 187500.00, -0.00, -0.00, -0.00
85, 23073.10, 1618.67, 187500.00, -93731.12, -41682.34, 187500.00, -187500.02, 187500.00, -0.00, -0.00, -0.00
86, 30062.76, -23966.93, 187500.00, -89631.12, -37139.97, 187500.00, -187500.02, 187500.00, -0.00, -0.00, -0.00
87, 24406.29, 6577.74, 187500.00, -92683.78, -40876.20, 187500.00, -187500.02, 187500.00, -0.00, -0.00, -0.00
88, 16845.23, 35295.28, 187500.00, -97084.22, -45745.46, 187500.00, -187500.02, 187500.00, -0.00, -0.00, -0.00
89, 21337.53, 9514.47, 187500.00, -94705.03, -42778.82, 187500.00, -187500.02, 187500.00, -0.00, -0.00, -0.00
90, 29727.77, -23755.50, 187500.00, -89845.12, -37300.59, 187500.00, -187500.02, 187500.00, -0.00, -0.00, -0.00
91, 26125.03, -1146.67, 187500.00, -91708.22, -39714.73, 187500.00, -187500.02, 187500.00, -0.00, -0.00, -0.00
92, 17459.84, 34006.90, 187500.00, -96692.46, -45320.48, 187500.00, -187500.02, 187500.00, -0.00, -0.00, -0.00
93, 19747.07, 16970.58, 187500.00, -95594.20, -43795.92, 187500.00, -187500.02, 187500.00, -0.00, -0.00, -0.00
94, 28844.17, -21487.56, 187500.00, -90404.58, -37858.73, 187500.00, -187500.02, 187500.00, -0.00, -0.00, -0.00
95, 27596.09, -8487.94, 187500.00, -90906.71, -38733.36, 187500.00, -187500.02, 187500.00, -0.00, -0.00, -0.00
96, 18468.22, 30697.75, 187500.00, -96089.23, -44649.64, 187500.00, -187500.02, 187500.00, -0.00, -0.00, -0.00
97, 18430.06, 23600.60, 187500.00, -96302.84, -44619.94, 187500.00, -187500.02, 187500.00, -0.00, -0.00, -0.00
98, 27616.38, -17131.09, 187500.00, -91107.79, -38608.88, 187500.00, -187500.02, 187500.00, -0.00, -0.00, -0.00
99, 28791.86, -14839.79, 187500.00, -90243.40, -37906.05, 187500.00, -187500.02, 187500.00, -0.00, -0.00, -0.00
100, 19800.20, 25585.10, 187500.00, -95307.74, -43767.22, 187500.00, -187500.02, 187500.00, -0.00, -0.00, -0.00
101, 17405.66, 28929.82, 187500.00, -96851.20, -45268.00, 187500.00, -187500.02, 187500.00, -0.00, -0.00, -0.00
102, 26005.29, -11146.95, 187500.00, -92047.01, -39641.71, 187500.00, -187500.02, 187500.00, -0.00, -0.00, -0.00
103, 29590.20, -19816.88, 187500.00, -89823.23, -37351.30, 187500.00, -187500.02, 187500.00, -0.00, -0.00, -0.00
104, 21424.64, 19108.44, 187500.00, -94351.94, -42684.77, 187500.00, -187500.02, 187500.00, -0.00, -0.00, -0.00
105, 16818.64, 32777.45, 187500.00, -97126.84, -45620.60, 187500.00, -187500.02, 187500.00, -0.00, -0.00, -0.00
106, 24296.66, -3928.83, 187500.00, -92989.96, -40705.97, 187500.00, -187500.02, 187500.00, -0.00, -0.00, -0.00
107, 30032.54, -23102.11, 187500.00, -89574.97, -36994.80, 187500.00, -187500.02, 187500.00, -0.00, -0.00, -0.00
108, 23169.62, 11690.16, 187500.00, -93335.18, -41512.29, 187500.00, -187500.02, 187500.00, -0.00, -0.00, -0.00
109, 16679.29, 34799.36, 187500.00, -97140.61, -45674.09, 187500.00, -187500.02, 187500.00, -0.00, -0.00, -0.00
110, 22525.80, 3820.49, 187500.00, -93967.60, -41820.89, 187500.00, -187500.02, 187500.00, -0.00, -0.00, -0.00
111, 29986.79, -24443.06, 187500.00, -89619.45, -36970.19, 187500.00, -187500.02, 187500.00, -0.00, -0.00, -0.00
112, 24909.19, 3858.36, 187500.00, -92340.28, -40351.63, 187500.00, -187500.02, 187500.00, -0.00, -0.00, -0.00
113, 16962.36, 34883.16, 187500.00, -96929.95, -45476.14, 187500.00, -187500.02, 187500.00, -0.00, -0.00, -0.00
114, 20778.83, 11639.85, 187500.00, -94945.09, -42951.54, 187500.00, -187500.02, 187500.00, -0.00, -0.00, -0.00
115, 29441.63, -23630.67, 187500.00, -89957.66, -37297.77, 187500.00, -187500.02, 187500.00, -0.00, -0.00, -0.00
116, 26544.80, -3830.44, 187500.00, -91411.50, -39262.94, 187500.00, -187500.02, 187500.00, -0.00, -0.00, -0.00
117, 17680.03, 32975.37, 187500.00, -96479.65, -45008.12, 187500.00, -187500.02, 187500.00, -0.00, -0.00, -0.00
118, 19244.27, 18917.60, 187500.00, -95788.80, -43946.84, 187500.00, -187500.02, 187500.00, -0.00, -0.00, -0.00
119, 28480.61, -20665.28, 187500.00, -90516.60, -37892.55, 187500.00, -187500.02, 187500.00, -0.00, -0.00, -0.00
120, 27991.29, -10896.70, 187500.00, -90588.06, -38278.81, 187500.00, -187500.02, 187500.00, -0.00, -0.00, -0.00
121, 18818.40, 29100.63, 187500.00, -95794.48, -44257.93, 187500.00, -187500.02, 187500.00, -0.00, -0.00, -0.00
122, 18001.56, 25220.05, 187500.00, -96465.45, -44745.31, 187500.00, -187500.02, 187500.00, -0.00, -0.00, -0.00
123, 27055.94, -15785.25, 187500.00, -91372.19, -38816.69, 187500.00, -187500.02, 187500.00, -0.00, -0.00, -0.00
124, 29022.31, -16911.75, 187500.00, -90053.97, -37594.09, 187500.00, -187500.02, 187500.00, -0.00, -0.00, -0.00
125, 20237.78, 23499.35, 187500.00, -94981.70, -43340.68, 187500.00, -187500.02, 187500.00, -0.00, -0.00, -0.00
126, 17114.82, 30163.79, 187500.00, -96941.57, -45323.35, 187500.00, -187500.02, 187500.00, -0.00, -0.00, -0.00
127, 25455.22, -9299.87, 187500.00, -92282.82, -39840.53, 187500.00, -187500.02, 187500.00, -0.00, -0.00, -0.00
128, 29782.60, -21399.87, 187500.00, -89634.98, -37051.68, 187500.00, -187500.02, 187500.00, -0.00, -0.00, -0.00
129, 21938.97, 16667.20, 187500.00, -93989.44, -42213.44, 187500.00, -187500.02, 187500.00, -0.00, -0.00, -0.00
130, 16674.94, 33482.98, 187500.00, -97143.34, -45592.33, 187500.00, -187500.02, 187500.00, -0.00, -0.00, -0.00
131, 23702.06, -1850.08, 187500.00, -93275.75, -40962.41, 187500.00, -187500.02, 187500.00, -0.00, -0.00, -0.00
132, 30054.54, -24140.49, 187500.00, -89518.09, -36839.92, 187500.00, -187500.02, 187500.00, -0.00, -0.00, -0.00
133, 23693.70, 9056.55, 187500.00, -92989.34, -41056.06, 187500.00, -187500.02, 187500.00, -0.00, -0.00, -0.00
134, 16664.81, 34957.14, 187500.00, -97106.63, -45588.84, 187500.00, -187500.02, 187500.00, -0.00, -0.00, -0.00
135, 21892.48, 6022.54, 187500.00, -94314.34, -42148.30, 187500.00, -187500.02, 187500.00, -0.00, -0.00, -0.00
136, 29827.40, -24867.52, 187500.00, -89702.15, -36974.86, 187500.00, -187500.02, 187500.00, -0.00, -0.00, -0.00
137, 25399.45, 1159.79, 187500.00, -92039.48, -39937.78, 187500.00, -187500.02, 187500.00, -0.00, -0.00, -0.00
138, 17024.07, 34381.99, 187500.00, -96894.61, -45374.82, 187500.00, -187500.02, 187500.00, -0.00, -0.00, -0.00
139, 20172.34, 13761.95, 187500.00, -95298.72, -43283.53, 187500.00, -187500.02, 187500.00, -0.00, -0.00, -0.00
140, 29162.92, -23391.53, 187500.00, -90118.66, -37393.62, 187500.00, -187500.02, 187500.00, -0.00, -0.00, -0.00
141, 27013.80, -6472.75, 187500.00, -91130.67, -38865.97, 187500.00, -187500.02, 187500.00, -0.00, -0.00, -0.00
142, 17939.08, 31840.75, 187500.00, -96317.44, -44763.95, 187500.00, -187500.02, 187500.00, -0.00, -0.00, -0.00
143, 18780.85, 20863.10, 187500.00, -96038.42, -44168.10, 187500.00, -187500.02, 187500.00, -0.00, -0.00, -0.00
144, 28091.36, -19783.13, 187500.00, -90740.63, -38067.23, 187500.00, -187500.02, 187500.00, -0.00, -0.00, -0.00
145, 28338.41, -13346.20, 187500.00, -90402.50, -37987.26, 187500.00, -187500.02, 187500.00, -0.00, -0.00, -0.00
146, 19160.07, 27333.70, 187500.00, -95601.52, -43977.75, 187500.00, -187500.02, 187500.00, -0.00, -0.00, -0.00
147, 17624.95, 26732.30, 187500.00, -96669.08, -44921.04, 187500.00, -187500.02, 187500.00, -0.00, -0.00, -0.00
148, 26618.36, -14375.84, 187500.00, -91596.98, -39015.39, 187500.00, -187500.02, 187500.00, -0.00, -0.00, -0.00
149, 29333.15, -19014.65, 187500.00, -89857.72, -37303.83, 187500.00, -187500.02, 187500.00, -0.00, -0.00, -0.00
150, 20703.48, 21211.02, 187500.00, -94689.18, -42952.27, 187500.00, -187500.02, 187500.00, -0.00, -0.00, -0.00
151, 16851.07, 31170.04, 187500.00, -97063.20, -45404.59, 187500.00, -187500.02, 187500.00, -0.00, -0.00, -0.00
152, 24887.64, -7579.23, 187500.00, -92594.16, -40126.18, 187500.00, -187500.02, 187500.00, -0.00, -0.00, -0.00
153, 29908.29, -23136.85, 187500.00, -89561.11, -36888.71, 187500.00, -187500.02, 187500.00, -0.00, -0.00, -0.00
154, 22404.07, 13940.20, 187500.00, -93707.77, -41825.36, 187500.00, -187500.02, 187500.00, -0.00, -0.00, -0.00
155, 16477.77, 33876.48, 187500.00, -97238.22, -45633.19, 187500.00, -187500.02, 187500.00, -0.00, -0.00, -0.00
156, 23039.06, 37.06, 187500.00, -93652.30, -41321.47, 187500.00, -187500.02, 187500.00, -0.00, -0.00, -0.00
157, 30035.02, -25398.98, 187500.00, -89521.93, -36769.60, 187500.00, -187500.02, 187500.00, -0.00, -0.00, -0.00
158, 24173.08, 5994.22, 187500.00, -92698.73, -40652.52, 187500.00, -187500.02, 187500.00, -0.00, -0.00, -0.00
159, 16591.68, 34641.71, 187500.00, -97122.80, -45535.46, 187500.00, -187500.02, 187500.00, -0.00, -0.00, -0.00
160, 21247.81, 7964.17, 187500.00, -94650.34, -42460.09, 187500.00, -187500.02, 187500.00, -0.00, -0.00, -0.00
161, 29680.66, -25503.25, 187500.00, -89751.28, -36954.23, 187500.00, -187500.02, 187500.00, -0.00, -0.00, -0.00
162, 25877.44, -2005.85, 187500.00, -91726.17, -39502.53, 187500.00, -187500.02, 187500.00, -0.00, -0.00, -0.00
163, 17131.65, 33371.24, 187500.00, -96770.91, -45159.29, 187500.00, -187500.02, 187500.00, -0.00, -0.00, -0.00
164, 19578.36, 15533.84, 187500.00, -95578.96, -43520.28, 187500.00, -187500.02, 187500.00, -0.00, -0.00, -0.00
165, 28797.09, -23393.51, 187500.00, -90293.87, -37495.09, 187500.00, -187500.02, 187500.00, -0.00, -0.00, -0.00
166, 27366.20, -9557.58, 187500.00, -90895.65, -38492.68, 187500.00, -187500.02, 187500.00, -0.00, -0.00, -0.00
167, 18135.60, 30138.91, 187500.00, -96144.91, -44465.87, 187500.00, -187500.02, 187500.00, -0.00, -0.00, -0.00
168, 18225.66, 22311.35, 187500.00, -96298.09, -44354.02, 187500.00, -187500.02, 187500.00, -0.00, -0.00, -0.00
169, 27561.35, -19110.49, 187500.00, -91003.94, -38249.67, 187500.00, -187500.02, 187500.00, -0.00, -0.00, -0.00
170, 28614.34, -16073.21, 187500.00, -90192.51, -37623.28, 187500.00, -187500.02, 187500.00, -0.00, -0.00, -0.00
171, 19480.44, 25091.42, 187500.00, -95342.88, -43563.13, 187500.00, -187500.02, 187500.00, -0.00, -0.00, -0.00
172, 17182.70, 27881.63, 187500.00, -96844.98, -44996.36, 187500.00, -187500.02, 187500.00, -0.00, -0.00, -0.00
173, 25975.43, -13046.06, 187500.00, -91911.17, -39237.86, 187500.00, -187500.02, 187500.00, -0.00, -0.00, -0.00
174, 29481.30, -21245.56, 187500.00, -89714.69, -36998.24, 187500.00, -187500.02, 187500.00, -0.00, -0.00, -0.00
175, 21097.72, 18567.66, 187500.00, -94392.73, -42476.34, 187500.00, -187500.02, 187500.00, -0.00, -0.00, -0.00
176, 16537.16, 31908.52, 187500.00, -97167.05, -45384.50, 187500.00, -187500.02, 187500.00, -0.00, -0.00, -0.00
177, 24223.68, -5745.11, 187500.00, -92901.76, -40339.82, 187500.00, -187500.02, 187500.00, -0.00, -0.00, -0.00
178, 29927.49, -24670.89, 187500.00, -89490.59, -36659.39, 187500.00, -187500.02, 187500.00, -0.00, -0.00, -0.00
179, 22864.89, 11138.72, 187500.00, -93375.23, -41306.00, 187500.00, -187500.02, 187500.00, -0.00, -0.00, -0.00
180, 16342.52, 34143.99, 187500.00, -97242.47, -45505.11, 187500.00, -187500.02, 187500.00, -0.00, -0.00, -0.00
181, 22409.28, 2232.58, 187500.00, -93935.82, -41511.75, 187500.00, -187500.02, 187500.00, -0.00, -0.00, -0.00
182, 29937.99, -26086.77, 187500.00, -89519.38, -36621.41, 187500.00, -187500.02, 187500.00, -0.00, -0.00, -0.00
183, 24672.70, 3249.03, 187500.00, -92348.95, -40122.88, 187500.00, -187500.02, 187500.00, -0.00, -0.00, -0.00
184, 16666.04, 34416.21, 187500.00, -97011.87, -45293.11, 187500.00, -187500.02, 187500.00, -0.00, -0.00, -0.00
185, 20701.04, 10246.24, 187500.00, -94898.17, -42625.04, 187500.00, -187500.02, 187500.00, -0.00, -0.00, -0.00
186, 29468.16, -25332.48, 187500.00, -89824.84, -36908.99, 187500.00, -187500.02, 187500.00, -0.00, -0.00, -0.00
187, 26361.29, -4587.16, 187500.00, -91408.10, -39019.91, 187500.00, -187500.02, 187500.00, -0.00, -0.00, -0.00
188, 17404.05, 32607.75, 187500.00, -96561.59, -44825.28, 187500.00, -187500.02, 187500.00, -0.00, -0.00, -0.00
189, 19167.98, 17770.69, 187500.00, -95758.83, -43632.86, 187500.00, -187500.02, 187500.00, -0.00, -0.00, -0.00
190, 28520.15, -22379.17, 187500.00, -90412.22, -37527.77, 187500.00, -187500.02, 187500.00, -0.00, -0.00, -0.00
191, 27862.48, -11790.92, 187500.00, -90578.66, -38036.39, 187500.00, -187500.02, 187500.00, -0.00, -0.00, -0.00
192, 18574.86, 28816.27, 187500.00, -95869.67, -44080.66, 187500.00, -187500.02, 187500.00, -0.00, -0.00, -0.00
193, 17944.29, 24252.11, 187500.00, -96435.70, -44443.58, 187500.00, -187500.02, 187500.00, -0.00, -0.00, -0.00
194, 27207.41, -17438.58, 187500.00, -91189.10, -38381.45, 187500.00, -187500.02, 187500.00, -0.00, -0.00, -0.00
195, 29016.70, -17948.23, 187500.00, -89964.85, -37280.16, 187500.00, -187500.02, 187500.00, -0.00, -0.00, -0.00
196, 20045.92, 23221.41, 187500.00, -95031.10, -43145.62, 187500.00, -187500.02, 187500.00, -0.00, -0.00, -0.00
197, 17004.54, 29385.61, 187500.00, -96973.66, -45080.27, 187500.00, -187500.02, 187500.00, -0.00, -0.00, -0.00
198, 25541.23, -10962.79, 187500.00, -92183.69, -39469.87, 187500.00, -187500.02, 187500.00, -0.00, -0.00, -0.00
199, 29812.69, -22694.66, 187500.00, -89545.51, -36715.96, 187500.00, -187500.02, 187500.00, -0.00, -0.00, -0.00
200, 21783.65, 16282.82, 187500.00, -94031.41, -42001.79, 187500.00, -187500.02, 187500.00, -0.00, -0.00, -0.00
201, 16587.92, 32870.68, 187500.00, -97175.93, -45345.21, 187500.00, -187500.02, 187500.00, -0.00, -0.00, -0.00
202, 23838.07, -3373.64, 187500.00, -93161.09, -40568.57, 187500.00, -187500.02, 187500.00, -0.00, -0.00, -0.00
203, 30175.95, -25547.75, 187500.00, -89389.45, -36457.30, 187500.00, -187500.02, 187500.00, -0.00, -0.00, -0.00
204, 23665.98, 8603.88, 187500.00, -92950.22, -40757.71, 187500.00, -187500.02, 187500.00, -0.00, -0.00, -0.00
205, 16640.67, 34506.51, 187500.00, -97103.59, -45300.39, 187500.00, -187500.02, 187500.00, -0.00, -0.00, -0.00
206, 22075.97, 4685.10, 187500.00, -94187.25, -41733.19, 187500.00, -187500.02, 187500.00, -0.00, -0.00, -0.00
207, 30076.64, -26312.52, 187500.00, -89504.38, -36514.34, 187500.00, -187500.02, 187500.00, -0.00, -0.00, -0.00
208, 25465.36, 587.16, 187500.00, -91964.44, -39604.59, 187500.00, -187500.02, 187500.00, -0.00, -0.00, -0.00
209, 17077.09, 34053.35, 187500.00, -96860.97, -45058.32, 187500.00, -187500.02, 187500.00, -0.00, -0.00, -0.00
210, 20410.67, 12588.35, 187500.00, -95172.41, -42864.97, 187500.00, -187500.02, 187500.00, -0.00, -0.00, -0.00
211, 29473.08, -24896.80, 187500.00, -89932.87, -36940.53, 187500.00, -187500.02, 187500.00, -0.00, -0.00, -0.00
212, 27170.78, -7198.31, 187500.00, -91039.01, -38514.98, 187500.00, -187500.02, 187500.00, -0.00, -0.00, -0.00
213, 18013.11, 31532.28, 187500.00, -96318.65, -44480.51, 187500.00, -187500.02, 187500.00, -0.00, -0.00, -0.00
214, 19008.95, 19802.21, 187500.00, -95978.66, -43808.46, 187500.00, -187500.02, 187500.00, -0.00, -0.00, -0.00
215, 28454.60, -21304.27, 187500.00, -90577.00, -37628.69, 187500.00, -187500.02, 187500.00, -0.00, -0.00, -0.00
216, 28597.25, -14190.38, 187500.00, -90289.78, -37611.43, 187500.00, -187500.02, 187500.00, -0.00, -0.00, -0.00
217, 19349.57, 27054.64, 187500.00, -95556.07, -43637.98, 187500.00, -187500.02, 187500.00, -0.00, -0.00, -0.00
218, 17927.80, 25879.94, 187500.00, -96598.23, -44534.73, 187500.00, -187500.02, 187500.00, -0.00, -0.00, -0.00
219, 27008.13, -15839.54, 187500.00, -91489.73, -38616.41, 187500.00, -187500.02, 187500.00, -0.00, -0.00, -0.00
220, 29654.64, -19942.27, 187500.00, -89774.84, -36954.50, 187500.00, -187500.02, 187500.00, -0.00, -0.00, -0.00
221, 20953.96, 20931.65, 187500.00, -94665.70, -42636.44, 187500.00, -187500.02, 187500.00, -0.00, -0.00, -0.00
222, 17235.34, 30451.77, 187500.00, -96989.45, -45009.64, 187500.00, -187500.02, 187500.00, -0.00, -0.00, -0.00
223, 25405.73, -8937.95, 187500.00, -92446.16, -39676.65, 187500.00, -187500.02, 187500.00, -0.00, -0.00, -0.00
224, 30366.10, -24061.59, 187500.00, -89434.63, -36490.88, 187500.00, -187500.02, 187500.00, -0.00, -0.00, -0.00
225, 22752.87, 13674.77, 187500.00, -93667.71, -41494.71, 187500.00, -187500.02, 187500.00, -0.00, -0.00, -0.00
226, 16925.81, 33354.75, 187500.00, -97168.91, -45244.55, 187500.00, -187500.02, 187500.00, -0.00, -0.00, -0.00
227, 23616.23, -1140.94, 187500.00, -93522.96, -40883.06, 187500.00, -187500.02, 187500.00, -0.00, -0.00, -0.00
228, 30545.20, -26302.62, 187500.00, -89430.51, -36404.33, 187500.00, -187500.02, 187500.00, -0.00, -0.00, -0.00
229, 24582.94, 5791.92, 187500.00, -92675.72, -40347.82, 187500.00, -187500.02, 187500.00, -0.00, -0.00, -0.00
230, 17086.41, 34329.20, 187500.00, -97077.09, -45175.36, 187500.00, -187500.02, 187500.00, -0.00, -0.00, -0.00
231, 21908.26, 6951.53, 187500.00, -94523.36, -42019.64, 187500.00, -187500.02, 187500.00, -0.00, -0.00, -0.00
232, 30311.20, -26346.43, 187500.00, -89635.34, -36562.85, 187500.00, -187500.02, 187500.00, -0.00, -0.00, -0.00
233, 26398.86, -2186.40, 187500.00, -91682.74, -39186.45, 187500.00, -187500.02, 187500.00, -0.00, -0.00, -0.00
234, 17681.86, 33247.19, 187500.00, -96743.29, -44826.80, 187500.00, -187500.02, 187500.00, -0.00, -0.00, -0.00
235, 20335.44, 14789.21, 187500.00, -95430.73, -43058.69, 187500.00, -187500.02, 187500.00, -0.00, -0.00, -0.00
236, 29568.03, -24222.54, 187500.00, -90136.96, -37060.78, 187500.00, -187500.02, 187500.00, -0.00, -0.00, -0.00
237, 28015.54, -9754.05, 187500.00, -90816.34, -38149.31, 187500.00, -187500.02, 187500.00, -0.00, -0.00, -0.00
238, 18735.95, 30102.61, 187500.00, -96138.52, -44169.57, 187500.00, -187500.02, 187500.00, -0.00, -0.00, -0.00
239, 18965.92, 21628.49, 187500.00, -96237.04, -43989.95, 187500.00, -187500.02, 187500.00, -0.00, -0.00, -0.00
240, 28354.44, -20038.20, 187500.00, -90912.19, -37882.54, 187500.00, -187500.02, 187500.00, -0.00, -0.00, -0.00
241, 29304.79, -16426.61, 187500.00, -90158.41, -37334.57, 187500.00, -187500.02, 187500.00, -0.00, -0.00, -0.00
242, 20152.24, 25037.51, 187500.00, -95336.27, -43277.87, 187500.00, -187500.02, 187500.00, -0.00, -0.00, -0.00
243, 18012.09, 27259.11, 187500.00, -96763.42, -44616.07, 187500.00, -187500.02, 187500.00, -0.00, -0.00, -0.00
244, 26863.31, -14072.93, 187500.00, -91810.34, -38863.36, 187500.00, -187500.02, 187500.00, -0.00, -0.00, -0.00
245, 30227.31, -21774.04, 187500.00, -89709.13, -36747.52, 187500.00, -187500.02, 187500.00, -0.00, -0.00, -0.00
246, 21782.36, 18436.03, 187500.00, -94440.52, -42264.40, 187500.00, -187500.02, 187500.00, -0.00, -0.00, -0.00
247, 17340.35, 31342.38, 187500.00, -97171.88, -45108.14, 187500.00, -187500.02, 187500.00, -0.00, -0.00, -0.00
248, 25109.30, -6872.62, 187500.00, -92875.98, -40041.54, 187500.00, -187500.02, 187500.00, -0.00, -0.00, -0.00
249, 30735.64, -25450.12, 187500.00, -89497.74, -36419.39, 187500.00, -187500.02, 187500.00, -0.00, -0.00, -0.00
250, 23579.17, 10838.79, 187500.00, -93444.03, -41120.64, 187500.00, -187500.02, 187500.00, -0.00, -0.00, -0.00
251, 17169.36, 33625.43, 187500.00, -97245.82, -45234.30, 187500.00, -187500.02, 187500.00, -0.00, -0.00, -0.00
252, 23313.18, 1051.29, 187500.00, -93917.65, -41228.17, 187500.00, -187500.02, 187500.00, -0.00, -0.00, -0.00
253, 30768.16, -27036.83, 187500.00, -89535.59, -36404.15, 187500.00, -187500.02, 187500.00, -0.00, -0.00, -0.00
254, 25388.07, 2836.35, 187500.00, -92431.23, -39968.54, 187500.00, -187500.02, 187500.00, -0.00, -0.00, -0.00
255, 17410.94, 33946.84, 187500.00, -97090.84, -45112.79, 187500.00, -187500.02, 187500.00, -0.00, -0.00, -0.00
0, 21570.15, 9184.82, 187500.00, -94914.60, -42381.72, 187500.00, -187500.02, 187500.00, -0.00, -0.00, -0.00
1, 30310.13, -26394.66, 187500.00, -89854.91, -36704.78, 187500.00, -187500.02, 187500.00, -0.00, -0.00, -0.00
2, 27110.03, -5062.38, 187500.00, -91474.55, -38850.59, 187500.00, -187500.02, 187500.00, -0.00, -0.00, -0.00
3, 18151.92, 32222.79, 187500.00, -96636.24, -44640.43, 187500.00, -187500.02, 187500.00, -0.00, -0.00, -0.00
4, 20034.85, 16690.18, 187500.00, -95780.26, -43387.73, 187500.00, -187500.02, 187500.00, -0.00, -0.00, -0.00
5, 29398.31, -23625.70, 187500.00, -90420.09, -37291.27, 187500.00, -187500.02, 187500.00, -0.00, -0.00, -0.00
6, 28622.10, -12413.40, 187500.00, -90640.66, -37861.91, 187500.00, -187500.02, 187500.00, -0.00, -0.00, -0.00
7, 19293.82, 28508.73, 187500.00, -95965.11, -43928.22, 187500.00, -187500.02, 187500.00, -0.00, -0.00, -0.00
8, 18787.42, 23357.46, 187500.00, -96469.84, -44221.07, 187500.00, -187500.02, 187500.00, -0.00, -0.00, -0.00
9, 28092.50, -18803.49, 187500.00, -91196.03, -38139.27, 187500.00, -187500.02, 187500.00, -0.00, -0.00, -0.00
10, 29804.15, -18728.26, 187500.00, -90003.25, -37082.17, 187500.00, -187500.02, 187500.00, -0.00, -0.00, -0.00
11, 20822.88, 22965.70, 187500.00, -95058.55, -42941.95, 187500.00, -187500.02, 187500.00, -0.00, -0.00, -0.00
12, 17940.38, 28633.79, 187500.00, -96905.27, -44780.42, 187500.00, -187500.02, 187500.00, -0.00, -0.00, -0.00
13, 26513.73, -12291.87, 187500.00, -92112.56, -39170.00, 187500.00, -187500.02, 187500.00, -0.00, -0.00, -0.00
14, 30633.36, -23512.63, 187500.00, -89562.70, -36520.98, 187500.00, -187500.02, 187500.00, -0.00, -0.00, -0.00
15, 22534.65, 16032.97, 187500.00, -94084.44, -41852.05, 187500.00, -187500.02, 187500.00, -0.00, -0.00, -0.00
16, 17444.44, 32329.18, 187500.00, -97168.62, -45137.27, 187500.00, -187500.02, 187500.00, -0.00, -0.00, -0.00
17, 24785.71, -4563.98, 187500.00, -93103.66, -40300.15, 187500.00, -187500.02, 187500.00, -0.00, -0.00, -0.00
18, 31029.14, -26413.53, 187500.00, -89371.97, -36236.58, 187500.00, -187500.02, 187500.00, -0.00, -0.00, -0.00
19, 24393.44, 8339.12, 187500.00, -93012.38, -40634.29, 187500.00, -187500.02, 187500.00, -0.00, -0.00, -0.00
20, 17461.14, 34105.21, 187500.00, -97107.73, -45126.70, 187500.00, -187500.02, 187500.00, -0.00, -0.00, -0.00
21, 23020.15, 3593.02, 187500.00, -94111.46, -41460.79, 187500.00, -187500.02, 187500.00, -0.00, -0.00, -0.00
22, 30937.72, -27239.64, 187500.00, -89462.16, -36272.95, 187500.00, -187500.02, 187500.00, -0.00, -0.00, -0.00
23, 26229.35, 376.40, 187500.00, -91966.79, -39431.89, 187500.00, -187500.02, 187500.00, -0.00, -0.00, -0.00
24, 17909.16, 33855.61, 187500.00, -96824.05, -44866.27, 187500.00, -187500.02, 187500.00, -0.00, -0.00, -0.00
25, 21380.25, 11650.76, 187500.00, -95044.55, -42557.52, 187500.00, -187500.02, 187500.00, -0.00, -0.00, -0.00
26, 30400.58, -25847.85, 187500.00, -89809.98, -36620.72, 187500.00, -187500.02, 187500.00, -0.00, -0.00, -0.00
27, 27970.82, -7383.38, 187500.00, -90984.65, -38292.09, 187500.00, -187500.02, 187500.00, -0.00, -0.00, -0.00
28, 18861.72, 31535.14, 187500.00, -96239.81, -44269.77, 187500.00, -187500.02, 187500.00, -0.00, -0.00, -0.00
29, 19994.57, 19106.38, 187500.00, -95815.45, -43500.43, 187500.00, -187500.02, 187500.00, -0.00, -0.00, -0.00
30, 29389.48, -22290.66, 187500.00, -90437.26, -37315.77, 187500.00, -187500.02, 187500.00, -0.00, -0.00, -0.00
31, 29393.57, -14444.39, 187500.00, -90216.45, -37394.24, 187500.00, -187500.02, 187500.00, -0.00, -0.00, -0.00
32, 20107.76, 27122.48, 187500.00, -95526.91, -43522.18, 187500.00, -187500.02, 187500.00, -0.00, -0.00, -0.00
33, 18856.42, 25335.05, 187500.00, -96455.62, -44310.70, 187500.00, -187500.02, 187500.00, -0.00, -0.00, -0.00
34, 27996.10, -16810.50, 187500.00, -91275.40, -38285.32, 187500.00, -187500.02, 187500.00, -0.00, -0.00, -0.00
35, 30485.10, -20279.04, 187500.00, -89638.13, -36713.28, 187500.00, -187500.02, 187500.00, -0.00, -0.00, -0.00
36, 21712.71, 21080.22, 187500.00, -94590.50, -42519.77, 187500.00, -187500.02, 187500.00, -0.00, -0.00, -0.00
37, 18114.48, 30191.64, 187500.00, -96840.77, -44842.79, 187500.00, -187500.02, 187500.00, -0.00, -0.00, -0.00
38, 26349.64, -9832.87, 187500.00, -92236.46, -39408.49, 187500.00, -187500.02, 187500.00, -0.00, -0.00, -0.00
39, 31148.70, -24548.61, 187500.00, -89313.01, -36309.20, 187500.00, -187500.02, 187500.00, -0.00, -0.00, -0.00
40, 23488.06, 13823.88, 187500.00, -93564.11, -41392.01, 187500.00, -187500.02, 187500.00, -0.00, -0.00, -0.00
41, 17774.08, 33232.57, 187500.00, -96996.94, -45107.81, 187500.00, -187500.02, 187500.00, -0.00, -0.00, -0.00
42, 24539.38, -2028.02, 187500.00, -93299.55, -40652.77, 187500.00, -187500.02, 187500.00, -0.00, -0.00, -0.00
43, 31367.28, -26915.32, 187500.00, -89240.72, -36187.96, 187500.00, -187500.02, 187500.00, -0.00, -0.00, -0.00
44, 25286.39, 5866.24, 187500.00, -92552.65, -40253.21, 187500.00, -187500.02, 187500.00, -0.00, -0.00, -0.00
45, 17841.81, 34302.35, 187500.00, -96931.63, -45107.07, 187500.00, -187500.02, 187500.00, -0.00, -0.00, -0.00
46, 22786.66, 6142.37, 187500.00, -94291.45, -41828.56, 187500.00, -187500.02, 187500.00, -0.00, -0.00, -0.00
47, 31150.08, -27134.77, 187500.00, -89395.66, -36331.60, 187500.00, -187500.02, 187500.00, -0.00, -0.00, -0.00
48, 27093.55, -2209.07, 187500.00, -91522.88, -39079.09, 187500.00, -187500.02, 187500.00, -0.00, -0.00, -0.00
49, 18429.15, 33316.41, 187500.00, -96548.40, -44744.04, 187500.00, -187500.02, 187500.00, -0.00, -0.00, -0.00
50, 21190.66, 14029.72, 187500.00, -95176.36, -42895.52, 187500.00, -187500.02, 187500.00, -0.00, -0.00, -0.00
51, 30416.43, -25131.41, 187500.00, -89858.75, -36826.91, 187500.00, -187500.02, 187500.00, -0.00, -0.00, -0.00
52, 28716.60, -9884.41, 187500.00, -90610.84, -38020.16, 187500.00, -187500.02, 187500.00, -0.00, -0.00, -0.00
53, 19456.03, 30285.74, 187500.00, -95912.43, -44090.87, 187500.00, -187500.02, 187500.00, -0.00, -0.00, -0.00
54, 19841.04, 21155.95, 187500.00, -95905.03, -43799.72, 187500.00, -187500.02, 187500.00, -0.00, -0.00, -0.00
55, 29259.53, -20920.18, 187500.00, -90544.55, -37596.64, 187500.00, -187500.02, 187500.00, -0.00, -0.00, -0.00
56, 30039.36, -16583.41, 187500.00, -89882.73, -37158.03, 187500.00, -187500.02, 187500.00, -0.00, -0.00, -0.00
57, 20818.88, 25375.53, 187500.00, -95100.99, -43224.18, 187500.00, -187500.02, 187500.00, -0.00, -0.00, -0.00
58, 18785.43, 27083.47, 187500.00, -96457.56, -44506.66, 187500.00, -187500.02, 187500.00, -0.00, -0.00, -0.00
59, 27705.48, -14820.35, 187500.00, -91447.42, -38623.43, 187500.00, -187500.02, 187500.00, -0.00, -0.00, -0.00
60, 30962.26, -21895.14, 187500.00, -89387.39, -36536.54, 187500.00, -187500.02, 187500.00, -0.00, -0.00, -0.00
61, 22453.13, 18953.52, 187500.00, -94136.02, -42153.33, 187500.00, -187500.02, 187500.00, -0.00, -0.00, -0.00
62, 18101.85, 31471.84, 187500.00, -96793.42, -44959.75, 187500.00, -187500.02, 187500.00, -0.00, -0.00, -0.00
63, 25947.07, -7377.28, 187500.00, -92443.88, -39769.23, 187500.00, -187500.02, 187500.00, -0.00, -0.00, -0.00
64, 31470.14, -25441.04, 187500.00, -89118.55, -36169.35, 187500.00, -187500.02, 187500.00, -0.00, -0.00, -0.00
65, 24247.75, 11588.53, 187500.00, -93075.01, -40961.34, 187500.00, -187500.02, 187500.00, -0.00, -0.00, -0.00
66, 17893.35, 34124.32, 187500.00, -96828.31, -45080.61, 187500.00, -187500.02, 187500.00, -0.00, -0.00, -0.00
67, 24122.02, 831.04, 187500.00, -93449.11, -40942.67, 187500.00, -187500.02, 187500.00, -0.00, -0.00, -0.00
68, 31493.45, -26938.03, 187500.00, -89122.46, -36106.54, 187500.00, -187500.02, 187500.00, -0.00, -0.00, -0.00
69, 26028.25, 3778.38, 187500.00, -92047.34, -39778.10, 187500.00, -187500.02, 187500.00, -0.00, -0.00, -0.00
70, 18112.02, 34861.99, 187500.00, -96638.99, -44944.64, 187500.00, -187500.02, 187500.00, -0.00, -0.00, -0.00
71, 22366.56, 9362.07, 187500.00, -94397.31, -42085.63, 187500.00, -187500.02, 187500.00, -0.00, -0.00, -0.00
72, 31045.74, -26098.16, 187500.00, -89383.21, -36358.42, 187500.00, -187500.02, 187500.00, -0.00, -0.00, -0.00
73, 27726.13, -3922.66, 187500.00, -91074.70, -38639.26, 187500.00, -187500.02, 187500.00, -0.00, -0.00, -0.00
74, 18811.79, 33566.33, 187500.00, -96181.95, -44492.66, 187500.00, -187500.02, 187500.00, -0.00, -0.00, -0.00
75, 20783.46, 17445.63, 187500.00, -95259.13, -43138.13, 187500.00, -187500.02, 187500.00, -0.00, -0.00, -0.00
76, 30128.79, -22960.74, 187500.00, -89911.30, -36936.28, 187500.00, -187500.02, 187500.00, -0.00, -0.00, -0.00
77, 29211.11, -10999.34, 187500.00, -90229.02, -37634.10, 187500.00, -187500.02, 187500.00, -0.00, -0.00, -0.00
78, 19889.88, 30174.90, 187500.00, -95537.03, -43808.90, 187500.00, -187500.02, 187500.00, -0.00, -0.00, -0.00
79, 19489.98, 24495.12, 187500.00, -95960.33, -44013.06, 187500.00, -187500.02, 187500.00, -0.00, -0.00, -0.00
80, 28797.94, -17827.06, 187500.00, -90686.55, -37811.24, 187500.00, -187500.02, 187500.00, -0.00, -0.00, -0.00
81, 30395.15, -17026.75, 187500.00, -89564.98, -36821.79, 187500.00, -187500.02, 187500.00, -0.00, -0.00, -0.00
82, 21389.57, 24972.06, 187500.00, -94635.07, -42809.71, 187500.00, -187500.02, 187500.00, -0.00, -0.00, -0.00
83, 18596.43, 30121.99, 187500.00, -96426.83, -44614.15, 187500.00, -187500.02, 187500.00, -0.00, -0.00, -0.00
84, 27213.67, -11066.66, 187500.00, -91601.83, -38866.48, 187500.00, -187500.02, 187500.00, -0.00, -0.00, -0.00
85, 31211.77, -21622.34, 187500.00, -89131.80, -36269.21, 187500.00, -187500.02, 187500.00, -0.00, -0.00, -0.00
86, 23103.14, 18323.22, 187500.00, -93647.39, -41700.04, 187500.00, -187500.02, 187500.00, -0.00, -0.00, -0.00
87, 18134.44, 34069.64, 187500.00, -96646.75, -44951.79, 187500.00, -187500.02, 187500.00, -0.00, -0.00, -0.00
88, 25493.86, -3248.60, 187500.00, -92584.70, -40033.00, 187500.00, -187500.02, 187500.00, -0.00, -0.00, -0.00
89, 31608.81, -24474.87, 187500.00, -88943.98, -36014.02, 187500.00, -187500.02, 187500.00, -0.00, -0.00, -0.00
90, 24940.50, 10702.06, 187500.00, -92598.24, -40517.48, 187500.00, -187500.02, 187500.00, -0.00, -0.00, -0.00
91, 18113.16, 35955.13, 187500.00, -96625.88, -45014.76, 187500.00, -187500.02, 187500.00, -0.00, -0.00, -0.00
92, 23773.49, 5009.50, 187500.00, -93565.45, -41227.61, 187500.00, -187500.02, 187500.00, -0.00, -0.00, -0.00
93, 31571.41, -25327.36, 187500.00, -89019.06, -36086.93, 187500.00, -187500.02, 187500.00, -0.00, -0.00, -0.00
94, 26769.32, 2702.26, 187500.00, -91588.59, -39378.09, 187500.00, -187500.02, 187500.00, -0.00, -0.00, -0.00
95, 18577.38, 35736.71, 187500.00, -96331.84, -44779.13, 187500.00, -187500.02, 187500.00, -0.00, -0.00, -0.00
96, 22171.39, 13056.12, 187500.00, -94465.78, -42347.05, 187500.00, -187500.02, 187500.00, -0.00, -0.00, -0.00
97, 31087.16, -24056.73, 187500.00, -89330.73, -36438.84, 187500.00, -187500.02, 187500.00, -0.00, -0.00, -0.00
98, 28528.63, -5113.56, 187500.00, -90602.13, -38245.82, 187500.00, -187500.02, 187500.00, -0.00, -0.00, -0.00
99, 19481.04, 33452.04, 187500.00, -95790.41, -44239.00, 187500.00, -187500.02, 187500.00, -0.00, -0.00, -0.00
100, 20738.57, 20499.95, 187500.00, -95271.78, -43359.86, 187500.00, -187500.02, 187500.00, -0.00, -0.00, -0.00
101, 30107.11, -20557.95, 187500.00, -89934.41, -37137.55, 187500.00, -187500.02, 187500.00, -0.00, -0.00, -0.00
102, 30002.10, -12119.09, 187500.00, -89789.84, -37302.58, 187500.00, -187500.02, 187500.00, -0.00, -0.00, -0.00
103, 20769.20, 29196.03, 187500.00, -95023.72, -43433.89, 187500.00, -187500.02, 187500.00, -0.00, -0.00, -0.00
104, 19616.40, 26788.63, 187500.00, -95875.46, -44149.52, 187500.00, -187500.02, 187500.00, -0.00, -0.00, -0.00
105, 28743.13, -15043.30, 187500.00, -90721.48, -38078.79, 187500.00, -187500.02, 187500.00, -0.00, -0.00, -0.00
106, 31117.07, -17784.14, 187500.00, -89169.84, -36581.98, 187500.00, -187500.02, 187500.00, -0.00, -0.00, -0.00
107, 22346.18, 23369.42, 187500.00, -94087.09, -42413.30, 187500.00, -187500.02, 187500.00, -0.00, -0.00, -0.00
108, 18855.93, 31774.30, 187500.00, -96245.29, -44663.37, 187500.00, -187500.02, 187500.00, -0.00, -0.00, -0.00
109, 27146.48, -7974.52, 187500.00, -91610.56, -39142.20, 187500.00, -187500.02, 187500.00, -0.00, -0.00, -0.00
110, 31841.94, -21861.66, 187500.00, -88769.73, -36100.17, 187500.00, -187500.02, 187500.00, -0.00, -0.00, -0.00
111, 24138.30, 16333.29, 187500.00, -93031.09, -41241.47, 187500.00, -187500.02, 187500.00, -0.00, -0.00, -0.00
112, 18530.29, 34994.47, 187500.00, -96357.45, -44882.57, 187500.00, -187500.02, 187500.00, -0.00, -0.00, -0.00
113, 25389.30, -66.07, 187500.00, -92591.74, -40318.79, 187500.00, -187500.02, 187500.00, -0.00, -0.00, -0.00
114, 32098.09, -24052.69, 187500.00, -88649.14, -35936.86, 187500.00, -187500.02, 187500.00, -0.00, -0.00, -0.00
115, 25963.74, 8658.82, 187500.00, -91984.40, -40057.41, 187500.00, -187500.02, 187500.00, -0.00, -0.00, -0.00
116, 18622.15, 36285.17, 187500.00, -96244.41, -44824.19, 187500.00, -187500.02, 187500.00, -0.00, -0.00, -0.00
117, 23636.34, 8147.50, 187500.00, -93557.16, -41465.03, 187500.00, -187500.02, 187500.00, -0.00, -0.00, -0.00
118, 31870.08, -24115.12, 187500.00, -88799.48, -36059.24, 187500.00, -187500.02, 187500.00, -0.00, -0.00, -0.00
119, 27753.80, 941.19, 187500.00, -90953.16, -38846.70, 187500.00, -187500.02, 187500.00, -0.00, -0.00, -0.00
120, 19130.21, 35625.15, 187500.00, -95880.09, -44446.35, 187500.00, -187500.02, 187500.00, -0.00, -0.00, -0.00
121, 21931.87, 16208.59, 187500.00, -94451.02, -42508.03, 187500.00, -187500.02, 187500.00, -0.00, -0.00, -0.00
122, 31075.70, -21858.15, 187500.00, -89227.27, -36474.11, 187500.00, -187500.02, 187500.00, -0.00, -0.00, -0.00
123, 29247.90, -6267.90, 187500.00, -90083.72, -37767.94, 187500.00, -187500.02, 187500.00, -0.00, -0.00, -0.00
124, 19969.88, 33032.93, 187500.00, -95330.21, -43813.22, 187500.00, -187500.02, 187500.00, -0.00, -0.00, -0.00
125, 20415.93, 23474.14, 187500.00, -95233.76, -43407.00, 187500.00, -187500.02, 187500.00, -0.00, -0.00, -0.00
126, 29765.73, -17544.02, 187500.00, -89958.98, -37222.74, 187500.00, -187500.02, 187500.00, -0.00, -0.00, -0.00
127, 30449.69, -12607.21, 187500.00, -89389.80, -36865.76, 187500.00, -187500.02, 187500.00, -0.00, -0.00, -0.00
128, 21183.20, 28529.77, 187500.00, -94593.61, -42963.45, 187500.00, -187500.02, 187500.00, -0.00, -0.00, -0.00
129, 19185.57, 29609.98, 187500.00, -95877.05, -44167.85, 187500.00, -187500.02, 187500.00, -0.00, -0.00, -0.00
130, 28109.17, -11380.59, 187500.00, -90876.69, -38211.89, 187500.00, -187500.02, 187500.00, -0.00, -0.00, -0.00
131, 31263.07, -17600.39, 187500.00, -88927.91, -36219.04, 187500.00, -187500.02, 187500.00, -0.00, -0.00, -0.00
132, 22703.83, 22574.14, 187500.00, -93683.40, -41959.99, 187500.00, -187500.02, 187500.00, -0.00, -0.00, -0.00
133, 18439.50, 34230.98, 187500.00, -96209.86, -44731.14, 187500.00, -187500.02, 187500.00, -0.00, -0.00, -0.00
134, 26281.40, -3978.07, 187500.00, -91854.85, -39473.22, 187500.00, -187500.02, 187500.00, -0.00, -0.00, -0.00
135, 31681.76, -20983.77, 187500.00, -88646.63, -35916.32, 187500.00, -187500.02, 187500.00, -0.00, -0.00, -0.00
136, 24404.33, 15537.64, 187500.00, -92637.90, -40834.76, 187500.00, -187500.02, 187500.00, -0.00, -0.00, -0.00
137, 18130.15, 37034.74, 187500.00, -96280.98, -44966.21, 187500.00, -187500.02, 187500.00, -0.00, -0.00, -0.00
138, 24373.88, 4103.31, 187500.00, -92870.91, -40756.86, 187500.00, -187500.02, 187500.00, -0.00, -0.00, -0.00
139, 31606.55, -22642.18, 187500.00, -88684.61, -35951.98, 187500.00, -187500.02, 187500.00, -0.00, -0.00, -0.00
140, 26072.33, 7699.86, 187500.00, -91679.05, -39732.66, 187500.00, -187500.02, 187500.00, -0.00, -0.00, -0.00
141, 18219.71, 37552.88, 187500.00, -96188.98, -44923.56, 187500.00, -187500.02, 187500.00, -0.00, -0.00, -0.00
142, 22514.62, 12020.01, 187500.00, -93889.08, -41981.96, 187500.00, -187500.02, 187500.00, -0.00, -0.00, -0.00
143, 31081.69, -22280.67, 187500.00, -88967.23, -36231.08, 187500.00, -187500.02, 187500.00, -0.00, -0.00, -0.00
144, 27703.51, -111.71, 187500.00, -90705.90, -38567.13, 187500.00, -187500.02, 187500.00, -0.00, -0.00, -0.00
145, 18817.33, 36137.25, 187500.00, -95757.80, -44481.13, 187500.00, -187500.02, 187500.00, -0.00, -0.00, -0.00
146, 20857.60, 19677.49, 187500.00, -94746.83, -43029.27, 187500.00, -187500.02, 187500.00, -0.00, -0.00, -0.00
147, 30136.10, -19677.45, 187500.00, -89452.73, -36736.63, 187500.00, -187500.02, 187500.00, -0.00, -0.00, -0.00
148, 29111.11, -7377.66, 187500.00, -89857.14, -37494.11, 187500.00, -187500.02, 187500.00, -0.00, -0.00, -0.00
149, 19803.33, 32713.54, 187500.00, -95112.64, -43738.81, 187500.00, -187500.02, 187500.00, -0.00, -0.00, -0.00
150, 19473.11, 26349.11, 187500.00, -95444.34, -43895.56, 187500.00, -187500.02, 187500.00, -0.00, -0.00, -0.00
151, 28758.74, -15065.81, 187500.00, -90182.55, -37582.20, 187500.00, -187500.02, 187500.00, -0.00, -0.00, -0.00
152, 30235.99, -13623.90, 187500.00, -89162.34, -36646.82, 187500.00, -187500.02, 187500.00, -0.00, -0.00, -0.00
153, 21152.97, 27478.85, 187500.00, -94260.73, -42813.74, 187500.00, -187500.02, 187500.00, -0.00, -0.00, -0.00
154, 18425.79, 31760.40, 187500.00, -95943.95, -44590.16, 187500.00, -187500.02, 187500.00, -0.00, -0.00, -0.00
155, 27027.26, -8834.06, 187500.00, -91117.87, -38688.88, 187500.00, -187500.02, 187500.00, -0.00, -0.00, -0.00
156, 30888.01, -18567.35, 187500.00, -88760.09, -36095.25, 187500.00, -187500.02, 187500.00, -0.00, -0.00, -0.00
157, 22687.33, 20798.92, 187500.00, -93306.05, -41710.28, 187500.00, -187500.02, 187500.00, -0.00, -0.00, -0.00
158, 17735.37, 35542.49, 187500.00, -96238.80, -45044.04, 187500.00, -187500.02, 187500.00, -0.00, -0.00, -0.00
159, 25140.88, -1464.42, 187500.00, -92115.65, -39912.97, 187500.00, -187500.02, 187500.00, -0.00, -0.00, -0.00
160, 31152.32, -21750.75, 187500.00, -88556.18, -35785.41, 187500.00, -187500.02, 187500.00, -0.00, -0.00, -0.00
161, 24343.98, 13242.76, 187500.00, -92295.13, -40566.94, 187500.00, -187500.02, 187500.00, -0.00, -0.00, -0.00
162, 17513.08, 37552.05, 187500.00, -96274.23, -45319.81, 187500.00, -187500.02, 187500.00, -0.00, -0.00, -0.00
163, 23220.62, 6519.53, 187500.00, -93145.88, -41353.05, 187500.00, -187500.02, 187500.00, -0.00, -0.00, -0.00
164, 30938.28, -22931.23, 187500.00, -88648.83, -35963.31, 187500.00, -187500.02, 187500.00, -0.00, -0.00, -0.00
165, 26013.70, 5214.42, 187500.00, -91287.13, -39405.36, 187500.00, -187500.02, 187500.00, -0.00, -0.00, -0.00
166, 17755.85, 37420.37, 187500.00, -96028.66, -45108.86, 187500.00, -187500.02, 187500.00, -0.00, -0.00, -0.00
167, 21353.76, 14444.21, 187500.00, -94114.38, -42600.75, 187500.00, -187500.02, 187500.00, -0.00, -0.00, -0.00
168, 30216.03, -21951.69, 187500.00, -89003.50, -36397.94, 187500.00, -187500.02, 187500.00, -0.00, -0.00, -0.00
169, 27511.35, -2680.24, 187500.00, -90369.82, -38301.37, 187500.00, -187500.02, 187500.00, -0.00, -0.00, -0.00
170, 18409.28, 35203.53, 187500.00, -95544.14, -44569.87, 187500.00, -187500.02, 187500.00, -0.00, -0.00, -0.00
171, 19687.93, 21716.02, 187500.00, -94954.34, -43631.32, 187500.00, -187500.02, 187500.00, -0.00, -0.00, -0.00
172, 29020.45, -18887.56, 187500.00, -89618.38, -37073.52, 187500.00, -187500.02, 187500.00, -0.00, -0.00, -0.00
173, 28771.50, -9944.83, 187500.00, -89572.06, -37249.16, 187500.00, -187500.02, 187500.00, -0.00, -0.00, -0.00
174, 19454.35, 30972.74, 187500.00, -94817.33, -43710.15, 187500.00, -187500.02, 187500.00, -0.00, -0.00, -0.00
175, 18311.04, 27962.99, 187500.00, -95591.61, -44464.91, 187500.00, -187500.02, 187500.00, -0.00, -0.00, -0.00
176, 27421.21, -13803.90, 187500.00, -90423.33, -38055.45, 187500.00, -187500.02, 187500.00, -0.00, -0.00, -0.00
177, 29636.80, -16027.70, 187500.00, -88990.63, -36505.45, 187500.00, -187500.02, 187500.00, -0.00, -0.00, -0.00
178, 20782.63, 25041.69, 187500.00, -93930.27, -42671.51, 187500.00, -187500.02, 187500.00, -0.00, -0.00, -0.00
179, 17277.90, 32760.86, 187500.00, -96044.59, -45105.86, 187500.00, -187500.02, 187500.00, -0.00, -0.00, -0.00
180, 25529.94, -7244.11, 187500.00, -91406.49, -39294.66, 187500.00, -187500.02, 187500.00, -0.00, -0.00, -0.00
181, 30100.74, -20596.15, 187500.00, -88642.03, -36048.71, 187500.00, -187500.02, 187500.00, -0.00, -0.00, -0.00
182, 22257.24, 17807.50, 187500.00, -92990.27, -41554.33, 187500.00, -187500.02, 187500.00, -0.00, -0.00, -0.00
183, 16633.47, 35913.53, 187500.00, -96279.71, -45490.96, 187500.00, -187500.02, 187500.00, -0.00, -0.00, -0.00
184, 23485.00, 353.63, 187500.00, -92466.48, -40663.54, 187500.00, -187500.02, 187500.00, -0.00, -0.00, -0.00
185, 30061.69, -23343.36, 187500.00, -88596.37, -35989.08, 187500.00, -187500.02, 187500.00, -0.00, -0.00, -0.00
186, 23788.31, 9821.09, 187500.00, -92016.92, -40366.85, 187500.00, -187500.02, 187500.00, -0.00, -0.00, -0.00
187, 16402.40, 37058.88, 187500.00, -96278.93, -45501.20, 187500.00, -187500.02, 187500.00, -0.00, -0.00, -0.00
188, 21443.01, 8286.57, 187500.00, -93508.66, -41930.95, 187500.00, -187500.02, 187500.00, -0.00, -0.00, -0.00
189, 29606.47, -23940.51, 187500.00, -88750.77, -36121.45, 187500.00, -187500.02, 187500.00, -0.00, -0.00, -0.00
190, 25322.47, 1668.54, 187500.00, -91023.23, -39110.72, 187500.00, -187500.02, 187500.00, -0.00, -0.00, -0.00
191, 16664.21, 36218.18, 187500.00, -95985.09, -45150.16, 187500.00, -187500.02, 187500.00, -0.00, -0.00, -0.00
192, 19525.14, 16084.85, 187500.00, -94477.40, -43124.00, 187500.00, -187500.02, 187500.00, -0.00, -0.00, -0.00
193, 28623.29, -22321.97, 187500.00, -89232.43, -36666.05, 187500.00, -187500.02, 187500.00, -0.00, -0.00, -0.00
194, 26651.79, -6149.43, 187500.00, -90183.19, -38032.88, 187500.00, -187500.02, 187500.00, -0.00, -0.00, -0.00
195, 17349.67, 33320.88, 187500.00, -95472.79, -44518.68, 187500.00, -187500.02, 187500.00, -0.00, -0.00, -0.00
196, 17839.87, 23108.60, 187500.00, -95318.83, -44160.96, 187500.00, -187500.02, 187500.00, -0.00, -0.00, -0.00
197, 27181.98, -18535.43, 187500.00, -89970.77, -37545.74, 187500.00, -187500.02, 187500.00, -0.00, -0.00, -0.00
198, 27714.60, -13062.09, 187500.00, -89478.19, -37142.92, 187500.00, -187500.02, 187500.00, -0.00, -0.00, -0.00
199, 18434.00, 28547.63, 187500.00, -94702.69, -43593.43, 187500.00, -187500.02, 187500.00, -0.00, -0.00, -0.00
200, 16478.42, 28981.32, 187500.00, -95942.70, -44919.67, 187500.00, -187500.02, 187500.00, -0.00, -0.00, -0.00
201, 25372.16, -12852.14, 187500.00, -90892.47, -38627.14, 187500.00, -187500.02, 187500.00, -0.00, -0.00, -0.00
202, 28360.65, -18697.48, 187500.00, -89014.55, -36491.81, 187500.00, -187500.02, 187500.00, -0.00, -0.00, -0.00
203, 19727.94, 22114.21, 187500.00, -93843.30, -42485.64, 187500.00, -187500.02, 187500.00, -0.00, -0.00, -0.00
204, 15526.82, 33365.25, 187500.00, -96332.98, -45345.90, 187500.00, -187500.02, 187500.00, -0.00, -0.00, -0.00
205, 23377.33, -5787.56, 187500.00, -91919.42, -39801.44, 187500.00, -187500.02, 187500.00, -0.00, -0.00, -0.00
206, 28643.54, -22670.30, 187500.00, -88760.49, -36078.82, 187500.00, -187500.02, 187500.00, -0.00, -0.00, -0.00
207, 21263.73, 14625.44, 187500.00, -92836.83, -41194.04, 187500.00, -187500.02, 187500.00, -0.00, -0.00, -0.00
208, 15010.40, 35916.86, 187500.00, -96486.94, -45464.25, 187500.00, -187500.02, 187500.00, -0.00, -0.00, -0.00
209, 21331.43, 2052.02, 187500.00, -92963.16, -40963.37, 187500.00, -187500.02, 187500.00, -0.00, -0.00, -0.00
210, 28475.29, -24691.66, 187500.00, -88761.59, -35904.54, 187500.00, -187500.02, 187500.00, -0.00, -0.00, -0.00
211, 22775.67, 6548.21, 187500.00, -91879.28, -39884.25, 187500.00, -187500.02, 187500.00, -0.00, -0.00, -0.00
212, 14932.62, 36534.13, 187500.00, -96410.07, -45272.38, 187500.00, -187500.02, 187500.00, -0.00, -0.00, -0.00
213, 19311.04, 10216.80, 187500.00, -94005.45, -42133.24, 187500.00, -187500.02, 187500.00, -0.00, -0.00, -0.00
214, 27835.70, -24424.96, 187500.00, -89044.41, -36119.66, 187500.00, -187500.02, 187500.00, -0.00, -0.00, -0.00
215, 24278.98, -1422.82, 187500.00, -90913.75, -38609.87, 187500.00, -187500.02, 187500.00, -0.00, -0.00, -0.00
216, 15363.18, 35164.30, 187500.00, -96027.20, -44745.82, 187500.00, -187500.02, 187500.00, -0.00, -0.00, -0.00
217, 17474.68, 17967.31, 187500.00, -94932.80, -43176.08, 187500.00, -187500.02, 187500.00, -0.00, -0.00, -0.00
218, 26728.51, -21910.34, 187500.00, -89578.39, -36619.02, 187500.00, -187500.02, 187500.00, -0.00, -0.00, -0.00
219, 25581.30, -8885.24, 187500.00, -90067.91, -37435.35, 187500.00, -187500.02, 187500.00, -0.00, -0.00, -0.00
220, 16281.23, 31686.81, 187500.00, -95406.97, -43894.15, 187500.00, -187500.02, 187500.00, -0.00, -0.00, -0.00
221, 15642.06, 24951.14, 187500.00, -95699.57, -43988.16, 187500.00, -187500.02, 187500.00, -0.00, -0.00, -0.00
222, 24431.08, -16935.78, 187500.00, -90390.74, -37444.56, 187500.00, -187500.02, 187500.00, -0.00, -0.00, -0.00
223, 25960.88, -15088.41, 187500.00, -89438.76, -36514.90, 187500.00, -187500.02, 187500.00, -0.00, -0.00, -0.00
224, 17104.54, 26530.85, 187500.00, -94591.15, -42808.17, 187500.00, -187500.02, 187500.00, -0.00, -0.00, -0.00
225, 14253.68, 30539.37, 187500.00, -96208.52, -44520.92, 187500.00, -187500.02, 187500.00, -0.00, -0.00, -0.00
226, 22238.13, -10457.98, 187500.00, -91290.02, -38407.70, 187500.00, -187500.02, 187500.00, -0.00, -0.00, -0.00
227, 25697.42, -19727.80, 187500.00, -88990.72, -35803.27, 187500.00, -187500.02, 187500.00, -0.00, -0.00, -0.00
228, 17644.94, 20182.33, 187500.00, -93626.42, -41541.25, 187500.00, -187500.02, 187500.00, -0.00, -0.00, -0.00
229, 12655.36, 34739.80, 187500.00, -96528.82, -44825.57, 187500.00, -187500.02, 187500.00, -0.00, -0.00, -0.00
230, 19456.10, -2738.25, 187500.00, -92335.63, -39525.28, 187500.00, -187500.02, 187500.00, -0.00, -0.00, -0.00
231, 24945.35, -22773.97, 187500.00, -88837.70, -35396.29, 187500.00, -187500.02, 187500.00, -0.00, -0.00, -0.00
232, 18235.29, 12784.10, 187500.00, -92663.20, -40182.54, 187500.00, -187500.02, 187500.00, -0.00, -0.00, -0.00
233, 11474.16, 37006.66, 187500.00, -96606.60, -44751.12, 187500.00, -187500.02, 187500.00, -0.00, -0.00, -0.00
234, 16740.85, 5434.38, 187500.00, -93434.55, -40671.43, 187500.00, -187500.02, 187500.00, -0.00, -0.00, -0.00
235, 24545.75, -24199.70, 187500.00, -88914.56, -35289.18, 187500.00, -187500.02, 187500.00, -0.00, -0.00, -0.00
236, 19728.23, 4631.24, 187500.00, -91632.94, -38802.49, 187500.00, -187500.02, 187500.00, -0.00, -0.00, -0.00
237, 11555.29, 36907.96, 187500.00, -96384.25, -44406.81, 187500.00, -187500.02, 187500.00, -0.00, -0.00, -0.00
238, 15248.83, 13125.39, 187500.00, -94404.91, -41738.95, 187500.00, -187500.02, 187500.00, -0.00, -0.00, -0.00
239, 24093.50, -23560.50, 187500.00, -89281.96, -35539.27, 187500.00, -187500.02, 187500.00, -0.00, -0.00, -0.00
240, 21326.63, -3504.46, 187500.00, -90710.33, -37510.72, 187500.00, -187500.02, 187500.00, -0.00, -0.00, -0.00
241, 12239.68, 34660.02, 187500.00, -95935.38, -43748.55, 187500.00, -187500.02, 187500.00, -0.00, -0.00, -0.00
242, 13623.92, 20488.68, 187500.00, -95276.52, -42665.72, 187500.00, -187500.02, 187500.00, -0.00, -0.00, -0.00
243, 22967.47, -20565.59, 187500.00, -89896.41, -36083.80, 187500.00, -187500.02, 187500.00, -0.00, -0.00, -0.00
244, 22608.36, -10948.15, 187500.00, -89938.74, -36367.54, 187500.00, -187500.02, 187500.00, -0.00, -0.00, -0.00
245, 13287.13, 30414.17, 187500.00, -95250.86, -42776.61, 187500.00, -187500.02, 187500.00, -0.00, -0.00, -0.00
246, 12272.29, 26817.38, 187500.00, -95959.50, -43355.99, 187500.00, -187500.02, 187500.00, -0.00, -0.00, -0.00
247, 21421.20, -15518.64, 187500.00, -90738.53, -36927.74, 187500.00, -187500.02, 187500.00, -0.00, -0.00, -0.00
248, 23568.97, -17150.92, 187500.00, -89340.50, -35455.86, 187500.00, -187500.02, 187500.00, -0.00, -0.00, -0.00
249, 14660.04, 24471.92, 187500.00, -94374.96, -41585.02, 187500.00, -187500.02, 187500.00, -0.00, -0.00, -0.00
250, 11294.18, 31753.69, 187500.00, -96413.77, -43774.39, 187500.00, -187500.02, 187500.00, -0.00, -0.00, -0.00
251, 19634.64, -8903.33, 187500.00, -91689.29, -37893.40, 187500.00, -187500.02, 187500.00, -0.00, -0.00, -0.00
252, 24144.11, -21862.22, 187500.00, -88954.77, -34765.77, 187500.00, -187500.02, 187500.00, -0.00, -0.00, -0.00
253, 16221.24, 17147.56, 187500.00, -93401.92, -40223.57, 187500.00, -187500.02, 187500.00, -0.00, -0.00, -0.00
254, 10704.65, 34898.52, 187500.00, -96643.82, -43871.82, 187500.00, -187500.02, 187500.00, -0.00, -0.00, -0.00
255, 17683.56, -1327.11, 187500.00, -92719.08, -38925.90, 187500.00, -187500.02, 187500.00, -0.00, -0.00, -0.00
0, 24212.95, -24764.99, 187500.00, -88864.23, -34393.05, 187500.00, -187500.02, 187500.00, -0.00, -0.00, -0.00
1, 17869.17, 9078.99, 187500.00, -92366.13, -38752.11, 187500.00, -187500.02, 187500.00, -0.00, -0.00, -0.00
2, 10567.01, 36146.10, 187500.00, -96608.64, -43622.87, 187500.00, -187500.02, 187500.00, -0.00, -0.00, -0.00
3, 15688.76, 6545.98, 187500.00, -93780.80, -39943.48, 187500.00, -187500.02, 187500.00, -0.00, -0.00, -0.00
4, 23776.11, -25668.90, 187500.00, -89065.35, -34319.67, 187500.00, -187500.02, 187500.00, -0.00, -0.00, -0.00
5, 19403.46, 737.79, 187500.00, -91427.26, -37362.23, 187500.00, -187500.02, 187500.00, -0.00, -0.00, -0.00
6, 10834.90, 35300.40, 187500.00, -96358.39, -43112.11, 187500.00, -187500.02, 187500.00, -0.00, -0.00, -0.00
7, 13825.98, 14307.44, 187500.00, -94755.30, -40881.25, 187500.00, -187500.02, 187500.00, -0.00, -0.00, -0.00
8, 22904.97, -24217.27, 187500.00, -89495.87, -34557.54, 187500.00, -187500.02, 187500.00, -0.00, -0.00, -0.00
9, 20835.22, -7289.66, 187500.00, -90529.13, -36032.31, 187500.00, -187500.02, 187500.00, -0.00, -0.00, -0.00
10, 11562.04, 32321.13, 187500.00, -95839.63, -42292.85, 187500.00, -187500.02, 187500.00, -0.00, -0.00, -0.00
11, 12171.37, 21302.20, 187500.00, -95619.40, -41705.61, 187500.00, -187500.02, 187500.00, -0.00, -0.00, -0.00
12, 21538.19, -20674.63, 187500.00, -90238.93, -35190.79, 187500.00, -187500.02, 187500.00, -0.00, -0.00, -0.00
13, 21966.36, -14595.98, 187500.00, -89836.71, -34955.91, 187500.00, -187500.02, 187500.00, -0.00, -0.00, -0.00
14, 12681.62, 27244.67, 187500.00, -95122.96, -41254.03, 187500.00, -187500.02, 187500.00, -0.00, -0.00, -0.00
15, 10899.67, 26945.52, 187500.00, -96277.77, -42309.77, 187500.00, -187500.02, 187500.00, -0.00, -0.00, -0.00
16, 19871.66, -15352.34, 187500.00, -91171.55, -36076.83, 187500.00, -187500.02, 187500.00, -0.00, -0.00, -0.00
17, 22746.95, -20683.21, 187500.00, -89384.55, -34175.08, 187500.00, -187500.02, 187500.00, -0.00, -0.00, -0.00
18, 14090.09, 20443.82, 187500.00, -94274.89, -40066.37, 187500.00, -187500.02, 187500.00, -0.00, -0.00, -0.00
19, 10005.45, 30988.75, 187500.00, -96736.88, -42692.19, 187500.00, -187500.02, 187500.00, -0.00, -0.00, -0.00
20, 17973.39, -8772.28, 187500.00, -92248.48, -37155.57, 187500.00, -187500.02, 187500.00, -0.00, -0.00, -0.00
21, 23169.50, -25252.75, 187500.00, -89141.30, -33651.38, 187500.00, -187500.02, 187500.00, -0.00, -0.00, -0.00
22, 15716.23, 12406.38, 187500.00, -93306.44, -38737.63, 187500.00, -187500.02, 187500.00, -0.00, -0.00, -0.00
23, 9569.21, 33128.93, 187500.00, -96928.38, -42766.29, 187500.00, -187500.02, 187500.00, -0.00, -0.00, -0.00
24, 16012.90, -1471.06, 187500.00, -93349.40, -38273.61, 187500.00, -187500.02, 187500.00, -0.00, -0.00, -0.00
25, 23109.71, -28000.01, 187500.00, -89192.63, -33471.67, 187500.00, -187500.02, 187500.00, -0.00, -0.00, -0.00
26, 17315.83, 3647.76, 187500.00, -92388.12, -37446.46, 187500.00, -187500.02, 187500.00, -0.00, -0.00, -0.00
27, 9546.03, 33268.07, 187500.00, -96892.28, -42558.77, 187500.00, -187500.02, 187500.00, -0.00, -0.00, -0.00
28, 14071.96, 6074.33, 187500.00, -94430.88, -39367.88, 187500.00, -187500.02, 187500.00, -0.00, -0.00, -0.00
29, 22588.13, -28595.19, 187500.00, -89506.53, -33606.20, 187500.00, -187500.02, 187500.00, -0.00, -0.00, -0.00
30, 18922.92, -5163.86, 187500.00, -91455.63, -36148.16, 187500.00, -187500.02, 187500.00, -0.00, -0.00, -0.00
31, 9988.68, 31211.82, 187500.00, -96606.18, -42067.57, 187500.00, -187500.02, 187500.00, -0.00, -0.00, -0.00
32, 12267.71, 13095.31, 187500.00, -95455.40, -40402.03, 187500.00, -187500.02, 187500.00, -0.00, -0.00, -0.00
33, 21592.14, -27079.54, 187500.00, -90108.93, -34100.80, 187500.00, -187500.02, 187500.00, -0.00, -0.00, -0.00
34, 20299.76, -13714.18, 187500.00, -90702.75, -35056.45, 187500.00, -187500.02, 187500.00, -0.00, -0.00, -0.00
35, 10871.46, 26837.78, 187500.00, -96086.13, -41302.96, 187500.00, -187500.02, 187500.00, -0.00, -0.00, -0.00
36, 10755.30, 19023.88, 187500.00, -96304.79, -41247.19, 187500.00, -187500.02, 187500.00, -0.00, -0.00, -0.00
37, 20141.13, -23569.58, 187500.00, -90992.65, -34949.45, 187500.00, -187500.02, 187500.00, -0.00, -0.00, -0.00
38, 21372.11, -21267.59, 187500.00, -90148.78, -34228.48, 187500.00, -187500.02, 187500.00, -0.00, -0.00, -0.00
39, 12142.99, 20546.91, 187500.00, -95366.76, -40344.94, 187500.00, -187500.02, 187500.00, -0.00, -0.00, -0.00
40, 9630.34, 23583.03, 187500.00, -96942.58, -41878.03, 187500.00, -187500.02, 187500.00, -0.00, -0.00, -0.00
41, 18477.94, -18513.32, 187500.00, -91987.26, -35959.13, 187500.00, -187500.02, 187500.00, -0.00, -0.00, -0.00
42, 22218.44, -27725.13, 187500.00, -89740.20, -33592.01, 187500.00, -187500.02, 187500.00, -0.00, -0.00, -0.00
43, 13846.30, 12422.12, 187500.00, -94446.27, -39194.59, 187500.00, -187500.02, 187500.00, -0.00, -0.00, -0.00
44, 9092.33, 26079.57, 187500.00, -97306.17, -42258.48, 187500.00, -187500.02, 187500.00, -0.00, -0.00, -0.00
45, 16846.26, -12769.06, 187500.00, -93030.82, -37113.06, 187500.00, -187500.02, 187500.00, -0.00, -0.00, -0.00
46, 22933.63, -33003.63, 187500.00, -89485.70, -33230.27, 187500.00, -187500.02, 187500.00, -0.00, -0.00, -0.00
47, 16072.78, 2632.72, 187500.00, -93330.09, -37932.34, 187500.00, -187500.02, 187500.00, -0.00, -0.00, -0.00
48, 9449.11, 26045.39, 187500.00, -97248.05, -42288.31, 187500.00, -187500.02, 187500.00, -0.00, -0.00, -0.00
49, 15565.51, -6841.44, 187500.00, -93930.23, -38226.67, 187500.00, -187500.02, 187500.00, -0.00, -0.00, -0.00
50, 23457.51, -36600.06, 187500.00, -89403.09, -33149.80, 187500.00, -187500.02, 187500.00, -0.00, -0.00, -0.00
51, 18508.88, -7762.11, 187500.00, -92145.96, -36642.69, 187500.00, -187500.02, 187500.00, -0.00, -0.00, -0.00
52, 10480.15, 23802.80, 187500.00, -96827.77, -41965.22, 187500.00, -187500.02, 187500.00, -0.00, -0.00, -0.00
53, 14516.07, -964.23, 187500.00, -94703.98, -39266.25, 187500.00, -187500.02, 187500.00, -0.00, -0.00, -0.00
54, 23518.35, -37515.70, 187500.00, -89520.32, -33341.54, 187500.00, -187500.02, 187500.00, -0.00, -0.00, -0.00
55, 20614.07, -16999.51, 187500.00, -91024.15, -35384.98, 187500.00, -187500.02, 187500.00, -0.00, -0.00, -0.00
56, 11505.14, 21081.70, 187500.00, -96213.02, -41316.33, 187500.00, -187500.02, 187500.00, -0.00, -0.00, -0.00
57, 13043.32, 6666.32, 187500.00, -95405.00, -40074.69, 187500.00, -187500.02, 187500.00, -0.00, -0.00, -0.00
58, 22313.32, -33531.01, 187500.00, -90000.13, -33752.36, 187500.00, -187500.02, 187500.00, -0.00, -0.00, -0.00
59, 21613.62, -22548.91, 187500.00, -90135.24, -34164.33, 187500.00, -187500.02, 187500.00, -0.00, -0.00, -0.00
60, 12065.72, 19337.30, 187500.00, -95462.17, -40296.82, 187500.00, -187500.02, 187500.00, -0.00, -0.00, -0.00
61, 11018.43, 15809.39, 187500.00, -96081.83, -40668.50, 187500.00, -187500.02, 187500.00, -0.00, -0.00, -0.00
62, 20038.05, -25509.98, 187500.00, -90808.74, -34400.12, 187500.00, -187500.02, 187500.00, -0.00, -0.00, -0.00
63, 21830.90, -25660.90, 187500.00, -89507.98, -33121.68, 187500.00, -187500.02, 187500.00, -0.00, -0.00, -0.00
64, 12729.99, 16400.79, 187500.00, -94579.66, -39051.38, 187500.00, -187500.02, 187500.00, -0.00, -0.00, -0.00
65, 9418.64, 23607.15, 187500.00, -96502.91, -40973.07, 187500.00, -187500.02, 187500.00, -0.00, -0.00, -0.00
66, 17721.65, -16258.23, 187500.00, -91684.93, -35189.47, 187500.00, -187500.02, 187500.00, -0.00, -0.00, -0.00
67, 21962.55, -27792.02, 187500.00, -89025.30, -32325.25, 187500.00, -187500.02, 187500.00, -0.00, -0.00, -0.00
68, 14077.35, 11225.72, 187500.00, -93442.85, -37639.42, 187500.00, -187500.02, 187500.00, -0.00, -0.00, -0.00
69, 8910.92, 27907.94, 187500.00, -96538.57, -41045.94, 187500.00, -187500.02, 187500.00, -0.00, -0.00, -0.00
70, 16162.32, -8472.90, 187500.00, -92450.48, -36129.89, 187500.00, -187500.02, 187500.00, -0.00, -0.00, -0.00
71, 22606.04, -30650.14, 187500.00, -88593.02, -31838.56, 187500.00, -187500.02, 187500.00, -0.00, -0.00, -0.00
72, 16184.65, 3625.14, 187500.00, -92138.41, -36177.06, 187500.00, -187500.02, 187500.00, -0.00, -0.00, -0.00
73, 8995.77, 30301.99, 187500.00, -96318.83, -40811.96, 187500.00, -187500.02, 187500.00, -0.00, -0.00, -0.00
74, 14117.25, 1198.03, 187500.00, -93435.52, -37140.62, 187500.00, -187500.02, 187500.00, -0.00, -0.00, -0.00
75, 21943.91, -29411.16, 187500.00, -88808.93, -31801.93, 187500.00, -187500.02, 187500.00, -0.00, -0.00, -0.00
76, 17398.22, -2507.42, 187500.00, -91286.13, -34913.18, 187500.00, -187500.02, 187500.00, -0.00, -0.00, -0.00
77, 8940.09, 31414.57, 187500.00, -96200.48, -40464.68, 187500.00, -187500.02, 187500.00, -0.00, -0.00, -0.00
78, 11999.29, 10388.26, 187500.00, -94583.10, -38240.64, 187500.00, -187500.02, 187500.00, -0.00, -0.00, -0.00
79, 20922.37, -26875.76, 187500.00, -89392.91, -32174.75, 187500.00, -187500.02, 187500.00, -0.00, -0.00, -0.00
80, 18644.69, -9177.56, 187500.00, -90554.80, -33778.22, 187500.00, -187500.02, 187500.00, -0.00, -0.00, -0.00
81, 9428.19, 29875.41, 187500.00, -95873.54, -39864.11, 187500.00, -187500.02, 187500.00, -0.00, -0.00, -0.00
82, 10235.60, 18386.90, 187500.00, -95571.41, -39158.91, 187500.00, -187500.02, 187500.00, -0.00, -0.00, -0.00
83, 19567.59, -22842.16, 187500.00, -90237.25, -32840.88, 187500.00, -187500.02, 187500.00, -0.00, -0.00, -0.00
84, 19714.69, -15645.42, 187500.00, -90008.17, -32816.43, 187500.00, -187500.02, 187500.00, -0.00, -0.00, -0.00
85, 10227.04, 26423.92, 187500.00, -95411.86, -39067.76, 187500.00, -187500.02, 187500.00, -0.00, -0.00, -0.00
86, 8464.61, 25664.70, 187500.00, -96571.87, -40019.70, 187500.00, -187500.02, 187500.00, -0.00, -0.00, -0.00
87, 17572.56, -16833.48, 187500.00, -91465.86, -33901.63, 187500.00, -187500.02, 187500.00, -0.00, -0.00, -0.00
88, 20295.05, -21268.06, 187500.00, -89814.38, -32221.51, 187500.00, -187500.02, 187500.00, -0.00, -0.00, -0.00
89, 11284.23, 20560.65, 187500.00, -94873.95, -38131.45, 187500.00, -187500.02, 187500.00, -0.00, -0.00, -0.00
90, 7290.80, 30400.34, 187500.00, -97298.86, -40602.90, 187500.00, -187500.02, 187500.00, -0.00, -0.00, -0.00
91, 15695.42, -10426.42, 187500.00, -92707.57, -35085.69, 187500.00, -187500.02, 187500.00, -0.00, -0.00, -0.00
92, 20893.34, -26428.95, 187500.00, -89716.68, -31838.03, 187500.00, -187500.02, 187500.00, -0.00, -0.00, -0.00
93, 13037.86, 12203.18, 187500.00, -94078.29, -37012.72, 187500.00, -187500.02, 187500.00, -0.00, -0.00, -0.00
94, 6810.98, 32671.19, 187500.00, -97730.25, -40927.52, 187500.00, -187500.02, 187500.00, -0.00, -0.00, -0.00
95, 13733.51, -3186.22, 187500.00, -94037.27, -36413.00, 187500.00, -187500.02, 187500.00, -0.00, -0.00, -0.00
96, 21093.29, -29695.61, 187500.00, -89882.30, -31783.69, 187500.00, -187500.02, 187500.00, -0.00, -0.00, -0.00
97, 14937.18, 3018.22, 187500.00, -93228.34, -35824.28, 187500.00, -187500.02, 187500.00, -0.00, -0.00, -0.00
98, 6954.59, 32588.93, 187500.00, -97776.43, -40791.89, 187500.00, -187500.02, 187500.00, -0.00, -0.00, -0.00
99, 11941.26, 4209.79, 187500.00, -95205.71, -37556.92, 187500.00, -187500.02, 187500.00, -0.00, -0.00, -0.00
100, 20913.83, -30575.33, 187500.00, -90218.66, -31953.36, 187500.00, -187500.02, 187500.00, -0.00, -0.00, -0.00
101, 16875.59, -5942.08, 187500.00, -92351.59, -34649.94, 187500.00, -187500.02, 187500.00, -0.00, -0.00, -0.00
102, 7513.54, 30985.42, 187500.00, -97583.33, -40431.60, 187500.00, -187500.02, 187500.00, -0.00, -0.00, -0.00
103, 10113.34, 11962.83, 187500.00, -96336.69, -38662.28, 187500.00, -187500.02, 187500.00, -0.00, -0.00, -0.00
104, 20007.00, -28625.88, 187500.00, -90905.26, -32485.82, 187500.00, -187500.02, 187500.00, -0.00, -0.00, -0.00
105, 18474.59, -13892.48, 187500.00, -91614.41, -33575.20, 187500.00, -187500.02, 187500.00, -0.00, -0.00, -0.00
106, 8436.98, 27843.37, 187500.00, -97125.91, -39712.68, 187500.00, -187500.02, 187500.00, -0.00, -0.00, -0.00
107, 8449.45, 19554.11, 187500.00, -97288.02, -39509.95, 187500.00, -187500.02, 187500.00, -0.00, -0.00, -0.00
108, 18547.39, -23726.04, 187500.00, -91807.38, -33219.86, 187500.00, -187500.02, 187500.00, -0.00, -0.00, -0.00
109, 19676.44, -20165.72, 187500.00, -91066.79, -32667.77, 187500.00, -187500.02, 187500.00, -0.00, -0.00, -0.00
110, 9704.28, 23374.11, 187500.00, -96470.70, -38742.55, 187500.00, -187500.02, 187500.00, -0.00, -0.00, -0.00
111, 7133.27, 26451.99, 187500.00, -98005.27, -40083.20, 187500.00, -187500.02, 187500.00, -0.00, -0.00, -0.00
112, 16716.80, -16340.67, 187500.00, -92854.87, -34114.37, 187500.00, -187500.02, 187500.00, -0.00, -0.00, -0.00
113, 20545.72, -24393.64, 187500.00, -90643.85, -31891.02, 187500.00, -187500.02, 187500.00, -0.00, -0.00, -0.00
114, 11351.49, 17860.38, 187500.00, -95565.55, -37489.21, 187500.00, -187500.02, 187500.00, -0.00, -0.00, -0.00
115, 6241.86, 32159.42, 187500.00, -98461.22, -40363.09, 187500.00, -187500.02, 187500.00, -0.00, -0.00, -0.00
116, 14597.01, -7224.33, 187500.00, -94019.44, -35135.76, 187500.00, -187500.02, 187500.00, -0.00, -0.00, -0.00
117, 20881.83, -26530.20, 187500.00, -90490.07, -31392.44, 187500.00, -187500.02, 187500.00, -0.00, -0.00, -0.00
118, 13115.02, 11508.67, 187500.00, -94596.71, -36142.34, 187500.00, -187500.02, 187500.00, -0.00, -0.00, -0.00
119, 5841.83, 36015.72, 187500.00, -98631.80, -40321.61, 187500.00, -187500.02, 187500.00, -0.00, -0.00, -0.00
120, 12418.88, 2516.76, 187500.00, -95194.22, -36165.55, 187500.00, -187500.02, 187500.00, -0.00, -0.00, -0.00
121, 20675.50, -26755.91, 187500.00, -90647.30, -31221.79, 187500.00, -187500.02, 187500.00, -0.00, -0.00, -0.00
122, 14881.52, 4441.58, 187500.00, -93653.20, -34805.51, 187500.00, -187500.02, 187500.00, -0.00, -0.00, -0.00
123, 5931.97, 37526.36, 187500.00, -98550.78, -40006.18, 187500.00, -187500.02, 187500.00, -0.00, -0.00, -0.00
124, 10283.61, 12155.46, 187500.00, -96340.80, -37188.52, 187500.00, -187500.02, 187500.00, -0.00, -0.00, -0.00
125, 19964.29, -24850.11, 187500.00, -91060.06, -31362.78, 187500.00, -187500.02, 187500.00, -0.00, -0.00, -0.00
126, 16575.61, -2613.21, 187500.00, -92749.95, -33529.45, 187500.00, -187500.02, 187500.00, -0.00, -0.00, -0.00
127, 6557.13, 36851.45, 187500.00, -98193.84, -39418.29, 187500.00, -187500.02, 187500.00, -0.00, -0.00, -0.00
128, 8411.14, 21283.02, 187500.00, -97352.15, -38104.49, 187500.00, -187500.02, 187500.00, -0.00, -0.00, -0.00
129, 18807.25, -20606.34, 187500.00, -91732.25, -31834.94, 187500.00, -187500.02, 187500.00, -0.00, -0.00, -0.00
130, 18106.07, -9009.45, 187500.00, -91971.03, -32418.54, 187500.00, -187500.02, 187500.00, -0.00, -0.00, -0.00
131, 7723.71, 34054.96, 187500.00, -97580.27, -38586.91, 187500.00, -187500.02, 187500.00, -0.00, -0.00, -0.00
132, 6926.67, 29358.12, 187500.00, -98175.77, -38868.41, 187500.00, -187500.02, 187500.00, -0.00, -0.00, -0.00
133, 17297.23, -14260.81, 187500.00, -92602.85, -32583.95, 187500.00, -187500.02, 187500.00, -0.00, -0.00, -0.00
134, 19397.87, -14341.71, 187500.00, -91334.61, -31487.88, 187500.00, -187500.02, 187500.00, -0.00, -0.00, -0.00
135, 9394.57, 29205.44, 187500.00, -96699.37, -37476.14, 187500.00, -187500.02, 187500.00, -0.00, -0.00, -0.00
136, 5993.37, 35652.55, 187500.00, -98684.55, -39313.75, 187500.00, -187500.02, 187500.00, -0.00, -0.00, -0.00
137, 15548.28, -6715.49, 187500.00, -93610.91, -33520.26, 187500.00, -187500.02, 187500.00, -0.00, -0.00, -0.00
138, 20360.16, -18566.21, 187500.00, -90883.91, -30790.35, 187500.00, -187500.02, 187500.00, -0.00, -0.00, -0.00
139, 11436.56, 22548.46, 187500.00, -95621.95, -36186.58, 187500.00, -187500.02, 187500.00, -0.00, -0.00, -0.00
140, 5646.03, 39831.93, 187500.00, -98862.84, -39460.19, 187500.00, -187500.02, 187500.00, -0.00, -0.00, -0.00
141, 13807.95, 1565.87, 187500.00, -94567.12, -34482.93, 187500.00, -187500.02, 187500.00, -0.00, -0.00, -0.00
142, 20989.47, -21342.27, 187500.00, -90585.23, -30319.74, 187500.00, -187500.02, 187500.00, -0.00, -0.00, -0.00
143, 13720.86, 14600.07, 187500.00, -94402.79, -34782.69, 187500.00, -187500.02, 187500.00, -0.00, -0.00, -0.00
144, 5864.61, 41548.74, 187500.00, -98746.25, -39331.27, 187500.00, -187500.02, 187500.00, -0.00, -0.00, -0.00
145, 12063.10, 9867.67, 187500.00, -95552.43, -35531.29, 187500.00, -187500.02, 187500.00, -0.00, -0.00, -0.00
146, 21143.77, -22414.53, 187500.00, -90574.23, -30207.67, 187500.00, -187500.02, 187500.00, -0.00, -0.00, -0.00
147, 16088.65, 5876.59, 187500.00, -93176.09, -33401.82, 187500.00, -187500.02, 187500.00, -0.00, -0.00, -0.00
148, 6722.98, 40694.57, 187500.00, -98313.38, -38906.07, 187500.00, -187500.02, 187500.00, -0.00, -0.00, -0.00
149, 10524.68, 17727.03, 187500.00, -96447.86, -36545.44, 187500.00, -187500.02, 187500.00, -0.00, -0.00, -0.00
150, 20777.76, -21450.21, 187500.00, -90892.56, -30514.71, 187500.00, -187500.02, 187500.00, -0.00, -0.00, -0.00
151, 18311.73, -2696.34, 187500.00, -92071.17, -32189.95, 187500.00, -187500.02, 187500.00, -0.00, -0.00, -0.00
152, 8119.34, 37659.85, 187500.00, -97614.78, -38238.58, 187500.00, -187500.02, 187500.00, -0.00, -0.00, -0.00
153, 9357.24, 24929.15, 187500.00, -97122.64, -37388.23, 187500.00, -187500.02, 187500.00, -0.00, -0.00, -0.00
154, 20086.46, -18053.95, 187500.00, -91332.24, -31032.36, 187500.00, -187500.02, 187500.00, -0.00, -0.00, -0.00
155, 20356.45, -10256.08, 187500.00, -91035.45, -31100.08, 187500.00, -187500.02, 187500.00, -0.00, -0.00, -0.00
156, 10033.59, 32804.67, 187500.00, -96597.02, -37268.22, 187500.00, -187500.02, 187500.00, -0.00, -0.00, -0.00
157, 8586.85, 31176.97, 187500.00, -97530.91, -37990.43, 187500.00, -187500.02, 187500.00, -0.00, -0.00, -0.00
158, 18955.15, -12442.86, 187500.00, -91975.70, -31818.80, 187500.00, -187500.02, 187500.00, -0.00, -0.00, -0.00
159, 22046.33, -16294.02, 187500.00, -90137.14, -30174.45, 187500.00, -187500.02, 187500.00, -0.00, -0.00, -0.00
160, 12352.04, 26397.92, 187500.00, -95307.41, -36007.34, 187500.00, -187500.02, 187500.00, -0.00, -0.00, -0.00
161, 8274.01, 36013.31, 187500.00, -97647.44, -38297.46, 187500.00, -187500.02, 187500.00, -0.00, -0.00, -0.00
162, 17610.07, -5204.09, 187500.00, -92676.61, -32702.97, 187500.00, -187500.02, 187500.00, -0.00, -0.00, -0.00
163, 23297.11, -20539.29, 187500.00, -89442.91, -29480.99, 187500.00, -187500.02, 187500.00, -0.00, -0.00, -0.00
164, 14848.17, 18943.35, 187500.00, -93900.28, -34617.53, 187500.00, -187500.02, 187500.00, -0.00, -0.00, -0.00
165, 8397.53, 39143.02, 187500.00, -97503.45, -38334.58, 187500.00, -187500.02, 187500.00, -0.00, -0.00, -0.00
166, 16126.65, 2979.62, 187500.00, -93414.95, -33654.42, 187500.00, -187500.02, 187500.00, -0.00, -0.00, -0.00
167, 24060.02, -22789.44, 187500.00, -88986.18, -29057.22, 187500.00, -187500.02, 187500.00, -0.00, -0.00, -0.00
168, 17474.24, 10809.10, 187500.00, -92407.88, -33133.26, 187500.00, -187500.02, 187500.00, -0.00, -0.00, -0.00
169, 9112.05, 40170.84, 187500.00, -97025.50, -38023.64, 187500.00, -187500.02, 187500.00, -0.00, -0.00, -0.00
170, 14689.66, 11349.19, 187500.00, -94141.99, -34620.41, 187500.00, -187500.02, 187500.00, -0.00, -0.00, -0.00
171, 24290.04, -22976.83, 187500.00, -88845.97, -28993.72, 187500.00, -187500.02, 187500.00, -0.00, -0.00, -0.00
172, 19975.89, 2471.41, 187500.00, -91025.33, -31753.96, 187500.00, -187500.02, 187500.00, -0.00, -0.00, -0.00
173, 10260.84, 39043.22, 187500.00, -96338.95, -37470.57, 187500.00, -187500.02, 187500.00, -0.00, -0.00, -0.00
174, 13346.36, 19406.95, 187500.00, -94814.80, -35512.05, 187500.00, -187500.02, 187500.00, -0.00, -0.00, -0.00
175, 23880.87, -20765.11, 187500.00, -89050.27, -29272.11, 187500.00, -187500.02, 187500.00, -0.00, -0.00, -0.00
176, 22220.05, -5284.27, 187500.00, -89762.34, -30440.28, 187500.00, -187500.02, 187500.00, -0.00, -0.00, -0.00
177, 11850.00, 35894.22, 187500.00, -95390.38, -36577.54, 187500.00, -187500.02, 187500.00, -0.00, -0.00, -0.00
178, 12241.25, 26684.16, 187500.00, -95333.90, -36201.71, 187500.00, -187500.02, 187500.00, -0.00, -0.00, -0.00
179, 22937.94, -16352.80, 187500.00, -89529.20, -29830.17, 187500.00, -187500.02, 187500.00, -0.00, -0.00, -0.00
180, 24097.28, -12056.37, 187500.00, -88701.93, -29307.58, 187500.00, -187500.02, 187500.00, -0.00, -0.00, -0.00
181, 13854.15, 30802.18, 187500.00, -94216.71, -35408.25, 187500.00, -187500.02, 187500.00, -0.00, -0.00, -0.00
182, 11518.08, 32523.02, 187500.00, -95658.16, -36664.91, 187500.00, -187500.02, 187500.00, -0.00, -0.00, -0.00
183, 21655.73, -10224.63, 187500.00, -90202.41, -30598.46, 187500.00, -187500.02, 187500.00, -0.00, -0.00, -0.00
184, 25561.59, -17530.38, 187500.00, -87908.65, -28439.84, 187500.00, -187500.02, 187500.00, -0.00, -0.00, -0.00
185, 16120.48, 24066.10, 187500.00, -92966.29, -34121.99, 187500.00, -187500.02, 187500.00, -0.00, -0.00, -0.00
186, 11255.13, 36822.46, 187500.00, -95748.86, -36863.23, 187500.00, -187500.02, 187500.00, -0.00, -0.00, -0.00
187, 20135.32, -2743.43, 187500.00, -91017.13, -31514.60, 187500.00, -187500.02, 187500.00, -0.00, -0.00, -0.00
188, 26527.99, -21222.00, 187500.00, -87397.09, -27846.09, 187500.00, -187500.02, 187500.00, -0.00, -0.00, -0.00
189, 18534.49, 16379.13, 187500.00, -91628.91, -32699.08, 187500.00, -187500.02, 187500.00, -0.00, -0.00, -0.00
190, 11424.83, 39207.26, 187500.00, -95607.93, -36774.77, 187500.00, -187500.02, 187500.00, -0.00, -0.00, -0.00
191, 18498.37, 5320.85, 187500.00, -91878.12, -32457.10, 187500.00, -187500.02, 187500.00, -0.00, -0.00, -0.00
192, 26946.55, -22975.45, 187500.00, -87153.52, -27512.31, 187500.00, -187500.02, 187500.00, -0.00, -0.00, -0.00
193, 20908.36, 8121.01, 187500.00, -90298.38, -31243.18, 187500.00, -187500.02, 187500.00, -0.00, -0.00, -0.00
194, 12004.52, 39516.48, 187500.00, -95233.13, -36413.38, 187500.00, -187500.02, 187500.00, -0.00, -0.00, -0.00
195, 16807.35, 13543.59, 187500.00, -92749.32, -33404.57, 187500.00, -187500.02, 187500.00, -0.00, -0.00, -0.00
196, 26675.69, -22478.75, 187500.00, -87285.08, -27567.21, 187500.00, -187500.02, 187500.00, -0.00, -0.00, -0.00
197, 23042.95, -49.35, 187500.00, -89099.95, -29889.42, 187500.00, -187500.02, 187500.00, -0.00, -0.00, -0.00
198, 13009.18, 37740.16, 187500.00, -94608.27, -35760.98, 187500.00, -187500.02, 187500.00, -0.00, -0.00, -0.00
199, 15251.33, 21242.36, 187500.00, -93524.59, -34242.11, 187500.00, -187500.02, 187500.00, -0.00, -0.00, -0.00
200, 25811.12, -19705.54, 187500.00, -87716.09, -27938.70, 187500.00, -187500.02, 187500.00, -0.00, -0.00, -0.00
201, 24865.76, -7598.99, 187500.00, -88054.05, -28665.80, 187500.00, -187500.02, 187500.00, -0.00, -0.00, -0.00
202, 14402.26, 33880.19, 187500.00, -93764.91, -34840.07, 187500.00, -187500.02, 187500.00, -0.00, -0.00, -0.00
203, 13922.10, 27828.01, 187500.00, -94178.31, -34932.04, 187500.00, -187500.02, 187500.00, -0.00, -0.00, -0.00
204, 24401.82, -15011.99, 187500.00, -88451.08, -28635.98, 187500.00, -187500.02, 187500.00, -0.00, -0.00, -0.00
205, 26257.49, -14165.66, 187500.00, -87250.59, -27685.58, 187500.00, -187500.02, 187500.00, -0.00, -0.00, -0.00
206, 16130.31, 28086.33, 187500.00, -92747.73, -33719.37, 187500.00, -187500.02, 187500.00, -0.00, -0.00, -0.00
207, 12986.88, 33000.38, 187500.00, -94615.42, -35392.78, 187500.00, -187500.02, 187500.00, -0.00, -0.00, -0.00
208, 22702.93, -8669.06, 187500.00, -89332.88, -29509.91, 187500.00, -187500.02, 187500.00, -0.00, -0.00, -0.00
209, 27252.59, -19313.98, 187500.00, -86671.16, -26938.25, 187500.00, -187500.02, 187500.00, -0.00, -0.00, -0.00
210, 18120.42, 20816.16, 187500.00, -91608.20, -32451.47, 187500.00, -187500.02, 187500.00, -0.00, -0.00, -0.00
211, 12491.14, 36390.83, 187500.00, -94834.34, -35627.65, 187500.00, -187500.02, 187500.00, -0.00, -0.00, -0.00
212, 20783.72, -1335.83, 187500.00, -90366.73, -30562.90, 187500.00, -187500.02, 187500.00, -0.00, -0.00, -0.00
213, 27728.43, -22692.74, 187500.00, -86401.91, -26521.55, 187500.00, -187500.02, 187500.00, -0.00, -0.00, -0.00
214, 20252.09, 12721.05, 187500.00, -90385.94, -31084.14, 187500.00, -187500.02, 187500.00, -0.00, -0.00, -0.00
215, 12546.37, 37898.70, 187500.00, -94725.44, -35515.71, 187500.00, -187500.02, 187500.00, -0.00, -0.00, -0.00
216, 18843.35, 6511.15, 187500.00, -91392.01, -31621.84, 187500.00, -187500.02, 187500.00, -0.00, -0.00, -0.00
217, 27641.71, -24038.25, 187500.00, -86444.74, -26434.98, 187500.00, -187500.02, 187500.00, -0.00, -0.00, -0.00
218, 22289.34, 4254.72, 187500.00, -89239.25, -29766.20, 187500.00, -187500.02, 187500.00, -0.00, -0.00, -0.00
219, 13029.57, 37262.32, 187500.00, -94408.60, -35161.39, 187500.00, -187500.02, 187500.00, -0.00, -0.00, -0.00
220, 17000.42, 14196.26, 187500.00, -92364.83, -32624.20, 187500.00, -187500.02, 187500.00, -0.00, -0.00, -0.00
221, 27019.55, -23139.82, 187500.00, -86772.87, -26655.26, 187500.00, -187500.02, 187500.00, -0.00, -0.00, -0.00
222, 24175.06, -4000.58, 187500.00, -88176.60, -28519.37, 187500.00, -187500.02, 187500.00, -0.00, -0.00, -0.00
223, 14015.73, 34565.43, 187500.00, -93818.54, -34509.28, 187500.00, -187500.02, 187500.00, -0.00, -0.00, -0.00
224, 15410.75, 21306.22, 187500.00, -93204.20, -33490.82, 187500.00, -187500.02, 187500.00, -0.00, -0.00, -0.00
225, 25901.89, -20009.48, 187500.00, -87390.02, -27196.06, 187500.00, -187500.02, 187500.00, -0.00, -0.00, -0.00
226, 25789.89, -11394.85, 187500.00, -87272.65, -27430.71, 187500.00, -187500.02, 187500.00, -0.00, -0.00, -0.00
227, 15465.15, 29969.71, 187500.00, -92962.63, -33571.63, 187500.00, -187500.02, 187500.00, -0.00, -0.00, -0.00
228, 14173.44, 27245.79, 187500.00, -93836.84, -34157.35, 187500.00, -187500.02, 187500.00, -0.00, -0.00, -0.00
229, 24393.22, -14914.42, 187500.00, -88194.10, -27968.49, 187500.00, -187500.02, 187500.00, -0.00, -0.00, -0.00
230, 27038.23, -17556.15, 187500.00, -86550.78, -26538.83, 187500.00, -187500.02, 187500.00, -0.00, -0.00, -0.00
231, 17223.16, 23682.14, 187500.00, -91938.40, -32451.13, 187500.00, -187500.02, 187500.00, -0.00, -0.00, -0.00
232, 13293.90, 31811.13, 187500.00, -94269.62, -34626.81, 187500.00, -187500.02, 187500.00, -0.00, -0.00, -0.00
233, 22501.23, -8293.10, 187500.00, -89224.12, -29009.90, 187500.00, -187500.02, 187500.00, -0.00, -0.00, -0.00
234, 27765.69, -22097.63, 187500.00, -86128.20, -25970.67, 187500.00, -187500.02, 187500.00, -0.00, -0.00, -0.00
235, 19182.11, 16281.59, 187500.00, -90792.49, -31191.95, 187500.00, -187500.02, 187500.00, -0.00, -0.00, -0.00
236, 12916.98, 34661.18, 187500.00, -94408.49, -34780.03, 187500.00, -187500.02, 187500.00, -0.00, -0.00, -0.00
237, 20519.75, -742.46, 187500.00, -90295.84, -30089.80, 187500.00, -187500.02, 187500.00, -0.00, -0.00, -0.00
238, 27971.06, -24662.11, 187500.00, -86023.62, -25698.65, 187500.00, -187500.02, 187500.00, -0.00, -0.00, -0.00
239, 21148.57, 8282.82, 187500.00, -89700.27, -29916.38, 187500.00, -187500.02, 187500.00, -0.00, -0.00, -0.00
240, 12999.39, 35596.67, 187500.00, -94344.97, -34664.25, 187500.00, -187500.02, 187500.00, -0.00, -0.00, -0.00
241, 18530.27, 7105.71, 187500.00, -91420.27, -31199.03, 187500.00, -187500.02, 187500.00, -0.00, -0.00, -0.00
242, 27644.79, -25142.27, 187500.00, -86257.21, -25756.29, 187500.00, -187500.02, 187500.00, -0.00, -0.00, -0.00
243, 23047.53, 121.64, 187500.00, -88680.37, -28667.45, 187500.00, -187500.02, 187500.00, -0.00, -0.00, -0.00
244, 13520.03, 34469.41, 187500.00, -94081.64, -34293.30, 187500.00, -187500.02, 187500.00, -0.00, -0.00, -0.00
245, 16615.46, 14694.28, 187500.00, -92547.53, -32274.15, 187500.00, -187500.02, 187500.00, -0.00, -0.00, -0.00
246, 26693.88, -23431.53, 187500.00, -86908.77, -26216.27, 187500.00, -187500.02, 187500.00, -0.00, -0.00, -0.00
247, 24673.60, -7648.05, 187500.00, -87888.60, -27592.94, 187500.00, -187500.02, 187500.00, -0.00, -0.00, -0.00
248, 14503.96, 31327.44, 187500.00, -93603.76, -33645.57, 187500.00, -187500.02, 187500.00, -0.00, -0.00, -0.00
249, 15025.07, 21402.09, 187500.00, -93513.59, -33160.64, 187500.00, -187500.02, 187500.00, -0.00, -0.00, -0.00
250, 25294.66, -19673.45, 187500.00, -87829.01, -26963.80, 187500.00, -187500.02, 187500.00, -0.00, -0.00, -0.00
251, 26000.31, -14524.36, 187500.00, -87285.05, -26696.92, 187500.00, -187500.02, 187500.00, -0.00, -0.00, -0.00
252, 15863.48, 26286.01, 187500.00, -92946.62, -32780.20, 187500.00, -187500.02, 187500.00, -0.00, -0.00, -0.00
253, 13758.93, 26939.53, 187500.00, -94305.83, -33856.28, 187500.00, -187500.02, 187500.00, -0.00, -0.00, -0.00
254, 23561.96, -14045.30, 187500.00, -88910.41, -27896.21, 187500.00, -187500.02, 187500.00, -0.00, -0.00, -0.00
255, 26941.96, -19996.18, 187500.00, -86888.76, -26014.23, 187500.00, -187500.02, 187500.00, -0.00, -0.00, -0.00
0, 17516.14, 19871.57, 187500.00, -92114.73, -31721.79, 187500.00, -187500.02, 187500.00, -0.00, -0.00, -0.00
1, 12886.09, 30950.93, 187500.00, -94874.52, -34324.39, 187500.00, -187500.02, 187500.00, -0.00, -0.00, -0.00
2, 21523.14, -7212.64, 187500.00, -90169.93, -29034.85, 187500.00, -187500.02, 187500.00, -0.00, -0.00, -0.00
3, 27315.19, -23822.29, 187500.00, -86832.81, -25680.83, 187500.00, -187500.02, 187500.00, -0.00, -0.00, -0.00
4, 19208.04, 12481.73, 187500.00, -91286.69, -30633.13, 187500.00, -187500.02, 187500.00, -0.00, -0.00, -0.00
5, 12342.59, 33345.76, 187500.00, -95267.96, -34582.11, 187500.00, -187500.02, 187500.00, -0.00, -0.00, -0.00
6, 19293.09, 470.68, 187500.00, -91522.39, -30270.99, 187500.00, -187500.02, 187500.00, -0.00, -0.00, -0.00
7, 27164.90, -25675.72, 187500.00, -87046.25, -25632.11, 187500.00, -187500.02, 187500.00, -0.00, -0.00, -0.00
8, 20919.56, 4724.71, 187500.00, -90430.80, -29507.45, 187500.00, -187500.02, 187500.00, -0.00, -0.00, -0.00
9, 12300.12, 33935.16, 187500.00, -95347.15, -34522.34, 187500.00, -187500.02, 187500.00, -0.00, -0.00, -0.00
10, 17076.78, 8344.17, 187500.00, -92842.52, -31499.66, 187500.00, -187500.02, 187500.00, -0.00, -0.00, -0.00
11, 26416.32, -25377.61, 187500.00, -87582.38, -25946.55, 187500.00, -187500.02, 187500.00, -0.00, -0.00, -0.00
12, 22512.83, -2982.26, 187500.00, -89614.40, -28429.41, 187500.00, -187500.02, 187500.00, -0.00, -0.00, -0.00
13, 12719.82, 32661.02, 187500.00, -95133.47, -34175.13, 187500.00, -187500.02, 187500.00, -0.00, -0.00, -0.00
14, 15027.90, 16021.15, 187500.00, -94013.83, -32604.09, 187500.00, -187500.02, 187500.00, -0.00, -0.00, -0.00
15, 25197.52, -22748.96, 187500.00, -88308.38, -26486.68, 187500.00, -187500.02, 187500.00, -0.00, -0.00, -0.00
16, 23940.21, -10041.54, 187500.00, -88837.81, -27383.03, 187500.00, -187500.02, 187500.00, -0.00, -0.00, -0.00
17, 13649.14, 29474.08, 187500.00, -94609.09, -33489.86, 187500.00, -187500.02, 187500.00, -0.00, -0.00, -0.00
18, 13324.46, 22759.51, 187500.00, -94980.09, -33503.68, 187500.00, -187500.02, 187500.00, -0.00, -0.00, -0.00
19, 23530.44, -18198.63, 187500.00, -89299.17, -27336.45, 187500.00, -187500.02, 187500.00, -0.00, -0.00, -0.00
20, 25007.58, -16260.42, 187500.00, -88297.23, -26601.88, 187500.00, -187500.02, 187500.00, -0.00, -0.00, -0.00
21, 14974.39, 24390.02, 187500.00, -93867.09, -32609.65, 187500.00, -187500.02, 187500.00, -0.00, -0.00, -0.00
22, 12084.51, 28176.81, 187500.00, -95645.37, -34150.13, 187500.00, -187500.02, 187500.00, -0.00, -0.00, -0.00
23, 21603.32, -11978.03, 187500.00, -90386.74, -28365.17, 187500.00, -187500.02, 187500.00, -0.00, -0.00, -0.00
24, 25714.59, -21100.56, 187500.00, -87933.08, -26047.63, 187500.00, -187500.02, 187500.00, -0.00, -0.00, -0.00
25, 16583.16, 17881.24, 187500.00, -92964.05, -31579.86, 187500.00, -187500.02, 187500.00, -0.00, -0.00, -0.00
26, 11253.12, 31971.42, 187500.00, -96083.64, -34591.34, 187500.00, -187500.02, 187500.00, -0.00, -0.00, -0.00
27, 19471.34, -4689.78, 187500.00, -91576.57, -29547.69, 187500.00, -187500.02, 187500.00, -0.00, -0.00, -0.00
28, 25995.79, -24273.03, 187500.00, -87778.94, -25746.04, 187500.00, -187500.02, 187500.00, -0.00, -0.00, -0.00
29, 18369.27, 10406.37, 187500.00, -91939.38, -30443.88, 187500.00, -187500.02, 187500.00, -0.00, -0.00, -0.00
30, 10942.09, 33792.93, 187500.00, -96212.84, -34749.03, 187500.00, -187500.02, 187500.00, -0.00, -0.00, -0.00
31, 17317.59, 2999.58, 187500.00, -92766.95, -30793.80, 187500.00, -187500.02, 187500.00, -0.00, -0.00, -0.00
32, 25789.40, -25595.85, 187500.00, -87904.71, -25788.03, 187500.00, -187500.02, 187500.00, -0.00, -0.00, -0.00
33, 20260.94, 2438.51, 187500.00, -90850.09, -29270.05, 187500.00, -187500.02, 187500.00, -0.00, -0.00, -0.00
34, 11262.31, 33518.09, 187500.00, -95974.45, -34571.57, 187500.00, -187500.02, 187500.00, -0.00, -0.00, -0.00
35, 15353.46, 10536.92, 187500.00, -93843.48, -31989.28, 187500.00, -187500.02, 187500.00, -0.00, -0.00, -0.00
36, 25101.32, -24933.13, 187500.00, -88309.68, -26185.11, 187500.00, -187500.02, 187500.00, -0.00, -0.00, -0.00
37, 22011.66, -5557.43, 187500.00, -89870.37, -28227.57, 187500.00, -187500.02, 187500.00, -0.00, -0.00, -0.00
38, 12080.85, 31129.90, 187500.00, -95471.88, -34120.23, 187500.00, -187500.02, 187500.00, -0.00, -0.00, -0.00
39, 13693.93, 17413.37, 187500.00, -94739.63, -32999.87, 187500.00, -187500.02, 187500.00, -0.00, -0.00, -0.00
40, 24023.79, -22150.15, 187500.00, -88928.70, -26809.93, 187500.00, -187500.02, 187500.00, -0.00, -0.00, -0.00
41, 23621.75, -12818.32, 187500.00, -88981.33, -27252.34, 187500.00, -187500.02, 187500.00, -0.00, -0.00, -0.00
42, 13413.59, 26934.50, 187500.00, -94705.92, -33361.88, 187500.00, -187500.02, 187500.00, -0.00, -0.00, -0.00
43, 12401.40, 23312.38, 187500.00, -95456.12, -33805.58, 187500.00, -187500.02, 187500.00, -0.00, -0.00, -0.00
44, 22573.03, -17434.23, 187500.00, -89775.58, -27664.35, 187500.00, -187500.02, 187500.00, -0.00, -0.00, -0.00
45, 24938.82, -18913.98, 187500.00, -88270.41, -26422.02, 187500.00, -187500.02, 187500.00, -0.00, -0.00, -0.00
46, 15121.89, 21139.99, 187500.00, -93743.98, -32350.66, 187500.00, -187500.02, 187500.00, -0.00, -0.00, -0.00
47, 11487.19, 27943.35, 187500.00, -95966.18, -34363.04, 187500.00, -187500.02, 187500.00, -0.00, -0.00, -0.00
48, 20759.94, -11189.33, 187500.00, -90849.35, -28733.48, 187500.00, -187500.02, 187500.00, -0.00, -0.00, -0.00
49, 25716.98, -23549.10, 187500.00, -87921.23, -25921.27, 187500.00, -187500.02, 187500.00, -0.00, -0.00, -0.00
50, 17001.81, 14182.74, 187500.00, -92724.13, -31222.50, 187500.00, -187500.02, 187500.00, -0.00, -0.00, -0.00
51, 11018.11, 31074.15, 187500.00, -96228.41, -34624.95, 187500.00, -187500.02, 187500.00, -0.00, -0.00, -0.00
52, 18788.14, -3895.71, 187500.00, -92001.54, -29863.20, 187500.00, -187500.02, 187500.00, -0.00, -0.00, -0.00
53, 26057.64, -26337.06, 187500.00, -87795.77, -25613.98, 187500.00, -187500.02, 187500.00, -0.00, -0.00, -0.00
54, 19007.90, 6520.92, 187500.00, -91625.32, -29952.63, 187500.00, -187500.02, 187500.00, -0.00, -0.00, -0.00
55, 11011.23, 32370.26, 187500.00, -96227.41, -34576.98, 187500.00, -187500.02, 187500.00, -0.00, -0.00, -0.00
56, 16801.63, 3837.19, 187500.00, -93133.57, -30963.63, 187500.00, -187500.02, 187500.00, -0.00, -0.00, -0.00
57, 25832.45, -27045.88, 187500.00, -87983.26, -25625.76, 187500.00, -187500.02, 187500.00, -0.00, -0.00, -0.00
58, 20951.32, -1363.88, 187500.00, -90574.23, -28707.22, 187500.00, -187500.02, 187500.00, -0.00, -0.00, -0.00
59, 11502.16, 31736.57, 187500.00, -95954.47, -34235.18, 187500.00, -187500.02, 187500.00, -0.00, -0.00, -0.00
60, 14915.27, 11431.82, 187500.00, -94222.19, -32026.12, 187500.00, -187500.02, 187500.00, -0.00, -0.00, -0.00
61, 25054.14, -25593.39, 187500.00, -88495.38, -25980.75, 187500.00, -187500.02, 187500.00, -0.00, -0.00, -0.00
62, 22726.29, -8935.69, 187500.00, -89629.06, -27541.95, 187500.00, -187500.02, 187500.00, -0.00, -0.00, -0.00
63, 12496.26, 29167.42, 187500.00, -95385.87, -33561.16, 187500.00, -187500.02, 187500.00, -0.00, -0.00, -0.00
64, 13330.11, 18367.41, 187500.00, -95107.66, -32869.29, 187500.00, -187500.02, 187500.00, -0.00, -0.00, -0.00
65, 23780.91, -21998.70, 187500.00, -89274.92, -26610.71, 187500.00, -187500.02, 187500.00, -0.00, -0.00, -0.00
66, 24239.71, -15726.93, 187500.00, -88829.52, -26497.70, 187500.00, -187500.02, 187500.00, -0.00, -0.00, -0.00
67, 14007.03, 24689.67, 187500.00, -94513.21, -32550.26, 187500.00, -187500.02, 187500.00, -0.00, -0.00, -0.00
68, 12180.72, 24184.63, 187500.00, -95719.53, -33440.76, 187500.00, -187500.02, 187500.00, -0.00, -0.00, -0.00
69, 22220.00, -16587.77, 187500.00, -90167.18, -27404.60, 187500.00, -187500.02, 187500.00, -0.00, -0.00, -0.00
70, 25411.94, -21360.58, 187500.00, -88207.76, -25669.99, 187500.00, -187500.02, 187500.00, -0.00, -0.00, -0.00
71, 15760.73, 18509.01, 187500.00, -93548.24, -31464.13, 187500.00, -187500.02, 187500.00, -0.00, -0.00, -0.00
72, 11356.72, 28439.82, 187500.00, -96192.18, -33902.32, 187500.00, -187500.02, 187500.00, -0.00, -0.00, -0.00
73, 20356.27, -9865.46, 187500.00, -91248.38, -28437.39, 187500.00, -187500.02, 187500.00, -0.00, -0.00, -0.00
74, 26115.53, -25424.97, 187500.00, -87865.27, -25140.86, 187500.00, -187500.02, 187500.00, -0.00, -0.00, -0.00
75, 17736.94, 11239.24, 187500.00, -92464.18, -30242.85, 187500.00, -187500.02, 187500.00, -0.00, -0.00, -0.00
76, 11064.87, 31042.01, 187500.00, -96346.72, -34044.97, 187500.00, -187500.02, 187500.00, -0.00, -0.00, -0.00
77, 18367.17, -2332.83, 187500.00, -92401.15, -29573.01, 187500.00, -187500.02, 187500.00, -0.00, -0.00, -0.00
78, 26266.34, -27604.16, 187500.00, -87856.19, -24965.58, 187500.00, -187500.02, 187500.00, -0.00, -0.00, -0.00
79, 19799.55, 3468.57, 187500.00, -91324.93, -28950.40, 187500.00, -187500.02, 187500.00, -0.00, -0.00, -0.00
80, 11324.56, 31850.99, 187500.00, -96168.16, -33844.27, 187500.00, -187500.02, 187500.00, -0.00, -0.00, -0.00
81, 16494.47, 5525.78, 187500.00, -93447.03, -30614.40, 187500.00, -187500.02, 187500.00, -0.00, -0.00, -0.00
82, 25925.47, -27593.76, 187500.00, -88097.54, -25059.57, 187500.00, -187500.02, 187500.00, -0.00, -0.00, -0.00
83, 21774.26, -4348.17, 187500.00, -90240.85, -27693.25, 187500.00, -187500.02, 187500.00, -0.00, -0.00, -0.00
84, 12030.22, 30691.67, 187500.00, -95761.40, -33390.91, 187500.00, -187500.02, 187500.00, -0.00, -0.00, -0.00
85, 14708.70, 13114.01, 187500.00, -94466.80, -31631.90, 187500.00, -187500.02, 187500.00, -0.00, -0.00, -0.00
86, 25010.82, -25278.01, 187500.00, -88673.26, -25508.01, 187500.00, -187500.02, 187500.00, -0.00, -0.00, -0.00
87, 23475.01, -11579.19, 187500.00, -89342.18, -26603.04, 187500.00, -187500.02, 187500.00, -0.00, -0.00, -0.00
88, 13142.80, 27687.78, 187500.00, -95148.51, -32706.12, 187500.00, -187500.02, 187500.00, -0.00, -0.00, -0.00
89, 13180.17, 20006.80, 187500.00, -95344.36, -32509.38, 187500.00, -187500.02, 187500.00, -0.00, -0.00, -0.00
90, 23595.39, -20850.04, 187500.00, -89541.11, -26272.15, 187500.00, -187500.02, 187500.00, -0.00, -0.00, -0.00
91, 24857.96, -17902.34, 187500.00, -88630.72, -25683.32, 187500.00, -187500.02, 187500.00, -0.00, -0.00, -0.00
92, 14698.91, 22723.63, 187500.00, -94289.00, -31732.21, 187500.00, -187500.02, 187500.00, -0.00, -0.00, -0.00
93, 12115.25, 25452.33, 187500.00, -95942.60, -33082.55, 187500.00, -187500.02, 187500.00, -0.00, -0.00, -0.00
94, 21889.73, -14940.26, 187500.00, -90567.97, -27210.54, 187500.00, -187500.02, 187500.00, -0.00, -0.00, -0.00
95, 25875.63, -23102.03, 187500.00, -88155.08, -24992.13, 187500.00, -187500.02, 187500.00, -0.00, -0.00, -0.00
96, 16593.35, 16145.54, 187500.00, -93275.21, -30563.93, 187500.00, -187500.02, 187500.00, -0.00, -0.00, -0.00
97, 11513.52, 29199.13, 187500.00, -96318.18, -33409.13, 187500.00, -187500.02, 187500.00, -0.00, -0.00, -0.00
98, 20031.05, -8024.30, 187500.00, -91695.16, -28261.12, 187500.00, -187500.02, 187500.00, -0.00, -0.00, -0.00
99, 26470.19, -26835.17, 187500.00, -87939.54, -24564.28, 187500.00, -187500.02, 187500.00, -0.00, -0.00, -0.00
100, 18691.00, 8448.38, 187500.00, -92162.99, -29278.73, 187500.00, -187500.02, 187500.00, -0.00, -0.00, -0.00
101, 11467.96, 31029.00, 187500.00, -96372.16, -33404.28, 187500.00, -187500.02, 187500.00, -0.00, -0.00, -0.00
102, 18182.18, -606.76, 187500.00, -92795.86, -29304.28, 187500.00, -187500.02, 187500.00, -0.00, -0.00, -0.00
103, 26608.54, -28668.55, 187500.00, -87963.37, -24396.62, 187500.00, -187500.02, 187500.00, -0.00, -0.00, -0.00
104, 20805.32, 215.36, 187500.00, -91055.88, -27971.96, 187500.00, -187500.02, 187500.00, -0.00, -0.00, -0.00
105, 11904.61, 30901.96, 187500.00, -96172.80, -33111.76, 187500.00, -187500.02, 187500.00, -0.00, -0.00, -0.00
106, 16394.51, 6945.60, 187500.00, -93877.46, -30308.94, 187500.00, -187500.02, 187500.00, -0.00, -0.00, -0.00
107, 26193.14, -28378.91, 187500.00, -88331.27, -24555.54, 187500.00, -187500.02, 187500.00, -0.00, -0.00, -0.00
108, 22848.78, -7909.14, 187500.00, -90002.91, -26676.56, 187500.00, -187500.02, 187500.00, -0.00, -0.00, -0.00
109, 12932.72, 28789.92, 187500.00, -95626.62, -32432.94, 187500.00, -187500.02, 187500.00, -0.00, -0.00, -0.00
110, 14884.23, 14023.84, 187500.00, -94785.90, -31131.69, 187500.00, -187500.02, 187500.00, -0.00, -0.00, -0.00
111, 25316.88, -25751.60, 187500.00, -88948.12, -24994.77, 187500.00, -187500.02, 187500.00, -0.00, -0.00, -0.00
112, 24650.35, -15349.81, 187500.00, -89111.98, -25549.50, 187500.00, -187500.02, 187500.00, -0.00, -0.00, -0.00
113, 14407.13, 24714.90, 187500.00, -94851.79, -31522.13, 187500.00, -187500.02, 187500.00, -0.00, -0.00, -0.00
114, 13725.49, 20150.50, 187500.00, -95482.52, -31753.60, 187500.00, -187500.02, 187500.00, -0.00, -0.00, -0.00
115, 23993.43, -21109.66, 187500.00, -89811.36, -25708.21, 187500.00, -187500.02, 187500.00, -0.00, -0.00, -0.00
116, 26077.64, -21672.94, 187500.00, -88435.34, -24640.00, 187500.00, -187500.02, 187500.00, -0.00, -0.00, -0.00
117, 16218.67, 18824.62, 187500.00, -93897.15, -30407.38, 187500.00, -187500.02, 187500.00, -0.00, -0.00, -0.00
118, 12943.20, 24771.79, 187500.00, -95959.52, -32136.26, 187500.00, -187500.02, 187500.00, -0.00, -0.00, -0.00
119, 22343.16, -14962.41, 187500.00, -90839.12, -26584.92, 187500.00, -187500.02, 187500.00, -0.00, -0.00, -0.00
120, 27065.19, -26546.70, 187500.00, -88005.14, -23946.56, 187500.00, -187500.02, 187500.00, -0.00, -0.00, -0.00
121, 18331.31, 11579.83, 187500.00, -92767.02, -29064.46, 187500.00, -187500.02, 187500.00, -0.00, -0.00, -0.00
122, 12698.25, 27687.53, 187500.00, -96125.88, -32168.85, 187500.00, -187500.02, 187500.00, -0.00, -0.00, -0.00
123, 20573.19, -7750.00, 187500.00, -91930.84, -27513.14, 187500.00, -187500.02, 187500.00, -0.00, -0.00, -0.00
124, 27507.71, -29402.96, 187500.00, -87914.86, -23575.14, 187500.00, -187500.02, 187500.00, -0.00, -0.00, -0.00
125, 20425.31, 3758.54, 187500.00, -91712.31, -27753.11, 187500.00, -187500.02, 187500.00, -0.00, -0.00, -0.00
126, 12856.01, 28883.17, 187500.00, -96098.98, -31975.26, 187500.00, -187500.02, 187500.00, -0.00, -0.00, -0.00
127, 18787.20, 167.95, 187500.00, -93007.05, -28419.48, 187500.00, -187500.02, 187500.00, -0.00, -0.00, -0.00
128, 27477.02, -29900.24, 187500.00, -88054.09, -23440.90, 187500.00, -187500.02, 187500.00, -0.00, -0.00, -0.00
129, 22495.82, -3991.33, 187500.00, -90654.49, -26450.29, 187500.00, -187500.02, 187500.00, -0.00, -0.00, -0.00
130, 13499.63, 28293.48, 187500.00, -95788.02, -31527.29, 187500.00, -187500.02, 187500.00, -0.00, -0.00, -0.00
131, 17142.51, 7771.21, 187500.00, -93996.55, -29271.02, 187500.00, -187500.02, 187500.00, -0.00, -0.00, -0.00
132, 26905.78, -28415.37, 187500.00, -88515.16, -23644.52, 187500.00, -187500.02, 187500.00, -0.00, -0.00, -0.00
133, 24432.11, -11424.33, 187500.00, -89679.53, -25199.87, 187500.00, -187500.02, 187500.00, -0.00, -0.00, -0.00
134, 14644.10, 25803.54, 187500.00, -95195.92, -30766.68, 187500.00, -187500.02, 187500.00, -0.00, -0.00, -0.00
135, 15789.25, 14669.40, 187500.00, -94811.96, -29944.23, 187500.00, -187500.02, 187500.00, -0.00, -0.00, -0.00
136, 25950.22, -24885.25, 187500.00, -89168.23, -24061.12, 187500.00, -187500.02, 187500.00, -0.00, -0.00, -0.00
137, 26083.19, -18102.03, 187500.00, -88890.36, -24139.48, 187500.00, -187500.02, 187500.00, -0.00, -0.00, -0.00
138, 16194.80, 21416.28, 187500.00, -94391.23, -29804.35, 187500.00, -187500.02, 187500.00, -0.00, -0.00, -0.00
139, 14783.76, 20342.41, 187500.00, -95422.63, -30453.40, 187500.00, -187500.02, 187500.00, -0.00, -0.00, -0.00
140, 24583.74, -19538.42, 187500.00, -90045.59, -24773.55, 187500.00, -187500.02, 187500.00, -0.00, -0.00, -0.00
141, 27421.54, -23469.69, 187500.00, -88249.16, -23277.71, 187500.00, -187500.02, 187500.00, -0.00, -0.00, -0.00
142, 18108.96, 15706.70, 187500.00, -93368.35, -28660.37, 187500.00, -187500.02, 187500.00, -0.00, -0.00, -0.00
143, 14191.35, 24940.23, 187500.00, -95778.27, -30756.42, 187500.00, -187500.02, 187500.00, -0.00, -0.00, -0.00
144, 22974.46, -12600.28, 187500.00, -91017.35, -25635.68, 187500.00, -187500.02, 187500.00, -0.00, -0.00, -0.00
145, 28270.55, -27122.34, 187500.00, -87882.67, -22707.29, 187500.00, -187500.02, 187500.00, -0.00, -0.00, -0.00
146, 20171.91, 8959.58, 187500.00, -92267.91, -27428.14, 187500.00, -187500.02, 187500.00, -0.00, -0.00, -0.00
147, 14063.65, 27824.77, 187500.00, -95851.79, -30779.85, 187500.00, -187500.02, 187500.00, -0.00, -0.00, -0.00
148, 21219.92, -4824.60, 187500.00, -92052.26, -26589.81, 187500.00, -187500.02, 187500.00, -0.00, -0.00, -0.00
149, 28619.82, -28812.29, 187500.00, -87772.01, -22425.28, 187500.00, -187500.02, 187500.00, -0.00, -0.00, -0.00
150, 22304.16, 1755.08, 187500.00, -91114.96, -26156.08, 187500.00, -187500.02, 187500.00, -0.00, -0.00, -0.00
151, 14421.55, 28831.18, 187500.00, -95644.54, -30545.38, 187500.00, -187500.02, 187500.00, -0.00, -0.00, -0.00
152, 19556.28, 3159.22, 187500.00, -92999.13, -27497.09, 187500.00, -187500.02, 187500.00, -0.00, -0.00, -0.00
153, 28444.40, -28404.46, 187500.00, -87958.45, -22463.59, 187500.00, -187500.02, 187500.00, -0.00, -0.00, -0.00
154, 24300.23, -5639.75, 187500.00, -90073.21, -24978.03, 187500.00, -187500.02, 187500.00, -0.00, -0.00, -0.00
155, 15180.68, 27692.45, 187500.00, -95245.72, -30101.14, 187500.00, -187500.02, 187500.00, -0.00, -0.00, -0.00
156, 17963.56, 10525.30, 187500.00, -93938.77, -28392.59, 187500.00, -187500.02, 187500.00, -0.00, -0.00, -0.00
157, 27712.38, -26098.81, 187500.00, -88483.36, -22849.27, 187500.00, -187500.02, 187500.00, -0.00, -0.00, -0.00
158, 26059.32, -12634.39, 187500.00, -89193.78, -23952.44, 187500.00, -187500.02, 187500.00, -0.00, -0.00, -0.00
159, 16391.56, 24685.24, 187500.00, -94592.89, -29401.93, 187500.00, -187500.02, 187500.00, -0.00, -0.00, -0.00
160, 16698.05, 16962.65, 187500.00, -94667.99, -29092.58, 187500.00, -187500.02, 187500.00, -0.00, -0.00, -0.00
161, 26553.78, -22003.62, 187500.00, -89233.70, -23487.35, 187500.00, -187500.02, 187500.00, -0.00, -0.00, -0.00
162, 27522.17, -18788.79, 187500.00, -88482.20, -23090.60, 187500.00, -187500.02, 187500.00, -0.00, -0.00, -0.00
163, 17927.35, 19980.36, 187500.00, -93776.34, -28525.29, 187500.00, -187500.02, 187500.00, -0.00, -0.00, -0.00
164, 15705.30, 22269.56, 187500.00, -95242.50, -29637.56, 187500.00, -187500.02, 187500.00, -0.00, -0.00, -0.00
165, 25045.08, -16320.93, 187500.00, -90149.77, -24306.81, 187500.00, -187500.02, 187500.00, -0.00, -0.00, -0.00
166, 28626.57, -23721.32, 187500.00, -87951.36, -22408.54, 187500.00, -187500.02, 187500.00, -0.00, -0.00, -0.00
167, 19765.87, 13860.05, 187500.00, -92769.08, -27453.48, 187500.00, -187500.02, 187500.00, -0.00, -0.00, -0.00
168, 15150.71, 26090.92, 187500.00, -95531.11, -29911.57, 187500.00, -187500.02, 187500.00, -0.00, -0.00, -0.00
169, 23323.08, -9499.31, 187500.00, -91152.13, -25247.84, 187500.00, -187500.02, 187500.00, -0.00, -0.00, -0.00
170, 29255.21, -27087.09, 187500.00, -87688.05, -22014.79, 187500.00, -187500.02, 187500.00, -0.00, -0.00, -0.00
171, 21732.96, 6868.09, 187500.00, -91697.20, -26320.12, 187500.00, -187500.02, 187500.00, -0.00, -0.00, -0.00
172, 15021.20, 28348.96, 187500.00, -95565.53, -29940.85, 187500.00, -187500.02, 187500.00, -0.00, -0.00, -0.00
173, 21542.68, -1913.69, 187500.00, -92128.79, -26170.65, 187500.00, -187500.02, 187500.00, -0.00, -0.00, -0.00
174, 29407.54, -28432.22, 187500.00, -87645.23, -21830.37, 187500.00, -187500.02, 187500.00, -0.00, -0.00, -0.00
175, 23729.84, -469.45, 187500.00, -90588.29, -25125.48, 187500.00, -187500.02, 187500.00, -0.00, -0.00, -0.00
176, 15362.22, 28795.48, 187500.00, -95311.27, -29682.71, 187500.00, -187500.02, 187500.00, -0.00, -0.00, -0.00
177, 19745.33, 5741.81, 187500.00, -93106.84, -27120.24, 187500.00, -187500.02, 187500.00, -0.00, -0.00, -0.00
178, 28980.71, -27862.03, 187500.00, -87933.46, -22001.74, 187500.00, -187500.02, 187500.00, -0.00, -0.00, -0.00
179, 25561.07, -7985.54, 187500.00, -89602.27, -24050.92, 187500.00, -187500.02, 187500.00, -0.00, -0.00, -0.00
180, 16127.54, 27195.01, 187500.00, -94835.79, -29208.39, 187500.00, -187500.02, 187500.00, -0.00, -0.00, -0.00
181, 18158.51, 12874.49, 187500.00, -93929.05, -27930.83, 187500.00, -187500.02, 187500.00, -0.00, -0.00, -0.00
182, 28072.61, -25252.13, 187500.00, -88452.09, -22417.86, 187500.00, -187500.02, 187500.00, -0.00, -0.00, -0.00
183, 27220.45, -14909.75, 187500.00, -88684.16, -23034.75, 187500.00, -187500.02, 187500.00, -0.00, -0.00, -0.00
184, 17351.61, 23805.61, 187500.00, -94086.80, -28458.71, 187500.00, -187500.02, 187500.00, -0.00, -0.00, -0.00
185, 16821.70, 19285.96, 187500.00, -94593.97, -28585.73, 187500.00, -187500.02, 187500.00, -0.00, -0.00, -0.00
186, 26698.93, -20566.94, 187500.00, -89212.78, -23067.60, 187500.00, -187500.02, 187500.00, -0.00, -0.00, -0.00
187, 28529.83, -20775.34, 187500.00, -87972.87, -22182.07, 187500.00, -187500.02, 187500.00, -0.00, -0.00, -0.00
188, 18973.75, 18805.60, 187500.00, -93121.34, -27455.50, 187500.00, -187500.02, 187500.00, -0.00, -0.00, -0.00
189, 15906.26, 24524.74, 187500.00, -95002.20, -28981.07, 187500.00, -187500.02, 187500.00, -0.00, -0.00, -0.00
190, 25073.92, -14225.97, 187500.00, -90058.59, -23815.67, 187500.00, -187500.02, 187500.00, -0.00, -0.00, -0.00
191, 29450.12, -25228.90, 187500.00, -87451.35, -21507.56, 187500.00, -187500.02, 187500.00, -0.00, -0.00, -0.00
192, 20803.53, 12459.85, 187500.00, -92051.72, -26335.34, 187500.00, -187500.02, 187500.00, -0.00, -0.00, -0.00
193, 15368.32, 28239.53, 187500.00, -95200.50, -29180.31, 187500.00, -187500.02, 187500.00, -0.00, -0.00, -0.00
194, 23196.82, -6781.52, 187500.00, -91040.93, -24726.33, 187500.00, -187500.02, 187500.00, -0.00, -0.00, -0.00
195, 29867.09, -27927.16, 187500.00, -87210.45, -21109.23, 187500.00, -187500.02, 187500.00, -0.00, -0.00, -0.00
196, 22750.92, 5270.83, 187500.00, -90928.88, -25139.72, 187500.00, -187500.02, 187500.00, -0.00, -0.00, -0.00
197, 15315.15, 30140.07, 187500.00, -95123.12, -29110.89, 187500.00, -187500.02, 187500.00, -0.00, -0.00, -0.00
198, 21243.63, 1152.77, 187500.00, -92050.80, -25690.54, 187500.00, -187500.02, 187500.00, -0.00, -0.00, -0.00
199, 29725.36, -28595.01, 187500.00, -87259.55, -21008.43, 187500.00, -187500.02, 187500.00, -0.00, -0.00, -0.00
200, 24660.95, -2257.26, 187500.00, -89818.00, -23941.78, 187500.00, -187500.02, 187500.00, -0.00, -0.00, -0.00
201, 15743.12, 30093.11, 187500.00, -94774.27, -28778.59, 187500.00, -187500.02, 187500.00, -0.00, -0.00, -0.00
202, 19429.14, 9093.00, 187500.00, -92953.28, -26573.09, 187500.00, -187500.02, 187500.00, -0.00, -0.00, -0.00
203, 29052.08, -27215.86, 187500.00, -87606.45, -21215.22, 187500.00, -187500.02, 187500.00, -0.00, -0.00, -0.00
204, 26379.62, -9690.73, 187500.00, -88842.21, -22854.37, 187500.00, -187500.02, 187500.00, -0.00, -0.00, -0.00
205, 16588.39, 27986.04, 187500.00, -94225.72, -28234.19, 187500.00, -187500.02, 187500.00, -0.00, -0.00, -0.00
206, 17819.35, 16343.39, 187500.00, -93753.77, -27369.31, 187500.00, -187500.02, 187500.00, -0.00, -0.00, -0.00
207, 27924.26, -23699.84, 187500.00, -88192.25, -21680.95, 187500.00, -187500.02, 187500.00, -0.00, -0.00, -0.00
208, 27917.75, -16378.51, 187500.00, -87956.32, -21829.88, 187500.00, -187500.02, 187500.00, -0.00, -0.00, -0.00
209, 17920.64, 23945.18, 187500.00, -93421.10, -27415.51, 187500.00, -187500.02, 187500.00, -0.00, -0.00, -0.00
210, 16557.77, 22511.54, 187500.00, -94382.67, -28007.58, 187500.00, -187500.02, 187500.00, -0.00, -0.00, -0.00
211, 26379.37, -18315.67, 187500.00, -89037.10, -22431.58, 187500.00, -187500.02, 187500.00, -0.00, -0.00, -0.00
212, 29012.38, -21991.90, 187500.00, -87381.10, -21107.60, 187500.00, -187500.02, 187500.00, -0.00, -0.00, -0.00
213, 19575.37, 18162.71, 187500.00, -92475.58, -26437.51, 187500.00, -187500.02, 187500.00, -0.00, -0.00, -0.00
214, 15720.00, 27182.38, 187500.00, -94786.95, -28434.26, 187500.00, -187500.02, 187500.00, -0.00, -0.00, -0.00
215, 24567.81, -11582.32, 187500.00, -90038.21, -23370.11, 187500.00, -187500.02, 187500.00, -0.00, -0.00, -0.00
216, 29757.05, -26111.87, 187500.00, -86984.83, -20557.84, 187500.00, -187500.02, 187500.00, -0.00, -0.00, -0.00
217, 21469.83, 11093.57, 187500.00, -91417.27, -25316.05, 187500.00, -187500.02, 187500.00, -0.00, -0.00, -0.00
218, 15347.80, 30046.51, 187500.00, -94955.95, -28618.57, 187500.00, -187500.02, 187500.00, -0.00, -0.00, -0.00
219, 22655.68, -4054.85, 187500.00, -91091.78, -24378.78, 187500.00, -187500.02, 187500.00, -0.00, -0.00, -0.00
220, 29969.17, -28478.51, 187500.00, -86905.08, -20320.69, 187500.00, -187500.02, 187500.00, -0.00, -0.00, -0.00
221, 23424.47, 3266.69, 187500.00, -90340.63, -24150.39, 187500.00, -187500.02, 187500.00, -0.00, -0.00, -0.00
222, 15467.47, 30932.22, 187500.00, -94854.14, -28533.92, 187500.00, -187500.02, 187500.00, -0.00, -0.00, -0.00
223, 20733.97, 3764.93, 187500.00, -92144.52, -25418.09, 187500.00, -187500.02, 187500.00, -0.00, -0.00, -0.00
224, 29563.51, -28729.86, 187500.00, -87188.19, -20468.30, 187500.00, -187500.02, 187500.00, -0.00, -0.00, -0.00
225, 25237.49, -4744.52, 187500.00, -89375.95, -23081.28, 187500.00, -187500.02, 187500.00, -0.00, -0.00, -0.00
226, 16064.42, 29658.04, 187500.00, -94509.63, -28204.97, 187500.00, -187500.02, 187500.00, -0.00, -0.00, -0.00
227, 18971.06, 11232.58, 187500.00, -93106.05, -26387.53, 187500.00, -187500.02, 187500.00, -0.00, -0.00, -0.00
228, 28691.06, -26693.32, 187500.00, -87682.36, -20841.91, 187500.00, -187500.02, 187500.00, -0.00, -0.00, -0.00
229, 26842.28, -12225.53, 187500.00, -88502.20, -22075.07, 187500.00, -187500.02, 187500.00, -0.00, -0.00, -0.00
230, 17095.62, 26510.46, 187500.00, -93901.33, -27576.78, 187500.00, -187500.02, 187500.00, -0.00, -0.00, -0.00
231, 17481.43, 17929.81, 187500.00, -93897.41, -27177.82, 187500.00, -187500.02, 187500.00, -0.00, -0.00, -0.00
232, 27320.47, -22552.08, 187500.00, -88473.14, -21525.65, 187500.00, -187500.02, 187500.00, -0.00, -0.00, -0.00
233, 28114.34, -18767.04, 187500.00, -87838.98, -21256.75, 187500.00, -187500.02, 187500.00, -0.00, -0.00, -0.00
234, 18465.31, 21395.94, 187500.00, -93150.16, -26779.38, 187500.00, -187500.02, 187500.00, -0.00, -0.00, -0.00
235, 16363.71, 23152.88, 187500.00, -94502.26, -27789.28, 187500.00, -187500.02, 187500.00, -0.00, -0.00, -0.00
236, 25646.44, -16957.51, 187500.00, -89438.87, -22428.12, 187500.00, -187500.02, 187500.00, -0.00, -0.00, -0.00
237, 29013.10, -24153.63, 187500.00, -87395.45, -20676.88, 187500.00, -187500.02, 187500.00, -0.00, -0.00, -0.00
238, 20116.79, 14764.38, 187500.00, -92236.21, -25819.75, 187500.00, -187500.02, 187500.00, -0.00, -0.00, -0.00
239, 15614.88, 26888.05, 187500.00, -94886.66, -28199.76, 187500.00, -187500.02, 187500.00, -0.00, -0.00, -0.00
240, 23738.54, -10093.98, 187500.00, -90501.80, -23461.93, 187500.00, -187500.02, 187500.00, -0.00, -0.00, -0.00
241, 29410.00, -27754.88, 187500.00, -87212.26, -20369.32, 187500.00, -187500.02, 187500.00, -0.00, -0.00, -0.00
242, 21838.06, 7364.72, 187500.00, -91267.02, -24789.00, 187500.00, -187500.02, 187500.00, -0.00, -0.00, -0.00
243, 15275.76, 29011.67, 187500.00, -95004.16, -28337.54, 187500.00, -187500.02, 187500.00, -0.00, -0.00, -0.00
244, 21723.41, -2447.05, 187500.00, -91580.26, -24530.05, 187500.00, -187500.02, 187500.00, -0.00, -0.00, -0.00
245, 29312.97, -29193.81, 187500.00, -87261.01, -20301.02, 187500.00, -187500.02, 187500.00, -0.00, -0.00, -0.00
246, 23593.12, -320.01, 187500.00, -90246.93, -23685.05, 187500.00, -187500.02, 187500.00, -0.00, -0.00, -0.00
247, 15363.67, 29212.72, 187500.00, -94879.62, -28217.89, 187500.00, -187500.02, 187500.00, -0.00, -0.00, -0.00
248, 19742.07, 5242.89, 187500.00, -92629.56, -25573.41, 187500.00, -187500.02, 187500.00, -0.00, -0.00, -0.00
249, 28615.06, -28594.76, 187500.00, -87685.27, -20623.60, 187500.00, -187500.02, 187500.00, -0.00, -0.00, -0.00
250, 25123.38, -8031.32, 187500.00, -89429.13, -22770.91, 187500.00, -187500.02, 187500.00, -0.00, -0.00, -0.00
251, 15883.17, 27328.47, 187500.00, -94557.02, -27886.79, 187500.00, -187500.02, 187500.00, -0.00, -0.00, -0.00
252, 17943.71, 12288.97, 187500.00, -93601.03, -26549.83, 187500.00, -187500.02, 187500.00, -0.00, -0.00, -0.00
253, 27507.71, -25940.45, 187500.00, -88334.78, -21201.81, 187500.00, -187500.02, 187500.00, -0.00, -0.00, -0.00
254, 26490.19, -15115.72, 187500.00, -88707.41, -21959.72, 187500.00, -187500.02, 187500.00, -0.00, -0.00, -0.00
255, 16871.12, 23524.34, 187500.00, -93962.30, -27276.93, 187500.00, -187500.02, 187500.00, -0.00, -0.00, -0.00
0, 16465.72, 18275.88, 187500.00, -94374.52, -27326.82, 187500.00, -187500.02, 187500.00, -0.00, -0.00, -0.00
1, 26029.14, -21532.24, 187500.00, -89199.48, -22020.58, 187500.00, -187500.02, 187500.00, -0.00, -0.00, -0.00
2, 27585.83, -21281.36, 187500.00, -88176.66, -21353.29, 187500.00, -187500.02, 187500.00, -0.00, -0.00, -0.00
3, 18197.83, 18017.36, 187500.00, -93205.84, -26493.25, 187500.00, -187500.02, 187500.00, -0.00, -0.00, -0.00
4, 15337.41, 23011.59, 187500.00, -94938.05, -27888.14, 187500.00, -187500.02, 187500.00, -0.00, -0.00, -0.00
5, 24337.56, -15742.94, 187500.00, -90173.51, -22978.13, 187500.00, -187500.02, 187500.00, -0.00, -0.00, -0.00
6, 28455.96, -26221.21, 187500.00, -87802.55, -20940.39, 187500.00, -187500.02, 187500.00, -0.00, -0.00, -0.00
7, 19935.88, 10933.11, 187500.00, -92294.26, -25589.84, 187500.00, -187500.02, 187500.00, -0.00, -0.00, -0.00
8, 14728.50, 26053.24, 187500.00, -95232.78, -28200.66, 187500.00, -187500.02, 187500.00, -0.00, -0.00, -0.00
9, 22390.39, -8837.01, 187500.00, -91283.09, -24069.56, 187500.00, -187500.02, 187500.00, -0.00, -0.00, -0.00
10, 28803.66, -29277.07, 187500.00, -87730.57, -20826.24, 187500.00, -187500.02, 187500.00, -0.00, -0.00, -0.00
11, 21860.09, 3068.63, 187500.00, -91313.51, -24632.49, 187500.00, -187500.02, 187500.00, -0.00, -0.00, -0.00
12, 14688.02, 27016.44, 187500.00, -95265.41, -28293.15, 187500.00, -187500.02, 187500.00, -0.00, -0.00, -0.00
13, 20531.44, -1627.63, 187500.00, -92334.23, -25137.17, 187500.00, -187500.02, 187500.00, -0.00, -0.00, -0.00
14, 28590.74, -30297.72, 187500.00, -88000.58, -21064.80, 187500.00, -187500.02, 187500.00, -0.00, -0.00, -0.00
15, 23685.09, -4969.91, 187500.00, -90464.01, -23810.29, 187500.00, -187500.02, 187500.00, -0.00, -0.00, -0.00
16, 15141.54, 26024.94, 187500.00, -95079.31, -28181.28, 187500.00, -187500.02, 187500.00, -0.00, -0.00, -0.00
17, 18819.52, 5325.66, 187500.00, -93330.63, -26165.94, 187500.00, -187500.02, 187500.00, -0.00, -0.00, -0.00
18, 28010.24, -29310.18, 187500.00, -88457.88, -21503.92, 187500.00, -187500.02, 187500.00, -0.00, -0.00, -0.00
19, 25415.63, -12610.83, 187500.00, -89682.88, -23060.16, 187500.00, -187500.02, 187500.00, -0.00, -0.00, -0.00
20, 16028.39, 23262.82, 187500.00, -94688.94, -27876.96, 187500.00, -187500.02, 187500.00, -0.00, -0.00, -0.00
21, 17300.79, 11738.71, 187500.00, -94225.61, -27097.42, 187500.00, -187500.02, 187500.00, -0.00, -0.00, -0.00
22, 26932.58, -26302.55, 187500.00, -89188.91, -22199.28, 187500.00, -187500.02, 187500.00, -0.00, -0.00, -0.00
23, 26844.94, -19345.81, 187500.00, -89087.99, -22461.13, 187500.00, -187500.02, 187500.00, -0.00, -0.00, -0.00
24, 17323.07, 18858.17, 187500.00, -94090.56, -27343.38, 187500.00, -187500.02, 187500.00, -0.00, -0.00, -0.00
25, 16094.24, 17243.83, 187500.00, -94939.92, -27838.20, 187500.00, -187500.02, 187500.00, -0.00, -0.00, -0.00
26, 25449.92, -21503.21, 187500.00, -90121.16, -23081.06, 187500.00, -187500.02, 187500.00, -0.00, -0.00, -0.00
27, 27879.89, -24894.97, 187500.00, -88706.72, -22044.23, 187500.00, -187500.02, 187500.00, -0.00, -0.00, -0.00
28, 18850.48, 12891.99, 187500.00, -93385.74, -26679.33, 187500.00, -187500.02, 187500.00, -0.00, -0.00, -0.00
29, 15186.71, 21345.78, 187500.00, -95478.89, -28389.73, 187500.00, -187500.02, 187500.00, -0.00, -0.00, -0.00
30, 23655.61, -15409.56, 187500.00, -91162.75, -24052.02, 187500.00, -187500.02, 187500.00, -0.00, -0.00, -0.00
31, 28423.88, -28947.45, 187500.00, -88552.29, -21819.26, 187500.00, -187500.02, 187500.00, -0.00, -0.00, -0.00
32, 20487.63, 5968.12, 187500.00, -92613.89, -25922.99, 187500.00, -187500.02, 187500.00, -0.00, -0.00, -0.00
33, 14631.32, 23922.69, 187500.00, -95820.95, -28739.60, 187500.00, -187500.02, 187500.00, -0.00, -0.00, -0.00
34, 21630.47, -8443.84, 187500.00, -92320.91, -25135.77, 187500.00, -187500.02, 187500.00, -0.00, -0.00, -0.00
35, 28456.83, -31124.13, 187500.00, -88650.30, -21824.80, 187500.00, -187500.02, 187500.00, -0.00, -0.00, -0.00
36, 22178.27, -1447.99, 187500.00, -91792.71, -25100.34, 187500.00, -187500.02, 187500.00, -0.00, -0.00, -0.00
37, 14559.63, 24771.41, 187500.00, -95858.56, -28789.02, 187500.00, -187500.02, 187500.00, -0.00, -0.00, -0.00
38, 19639.29, -1057.48, 187500.00, -93378.68, -26121.12, 187500.00, -187500.02, 187500.00, -0.00, -0.00, -0.00
39, 27980.29, -31392.04, 187500.00, -88959.78, -22020.18, 187500.00, -187500.02, 187500.00, -0.00, -0.00, -0.00
40, 23708.85, -8963.90, 187500.00, -91024.50, -24303.43, 187500.00, -187500.02, 187500.00, -0.00, -0.00, -0.00
41, 14777.25, 23759.77, 187500.00, -95714.50, -28655.99, 187500.00, -187500.02, 187500.00, -0.00, -0.00, -0.00
42, 17608.88, 6121.32, 187500.00, -94393.52, -27063.00, 187500.00, -187500.02, 187500.00, -0.00, -0.00, -0.00
43, 26847.71, -29559.29, 187500.00, -89532.08, -22451.32, 187500.00, -187500.02, 187500.00, -0.00, -0.00, -0.00
44, 24937.01, -15873.05, 187500.00, -90308.45, -23519.24, 187500.00, -187500.02, 187500.00, -0.00, -0.00, -0.00
45, 15324.94, 21115.04, 187500.00, -95276.56, -28211.05, 187500.00, -187500.02, 187500.00, -0.00, -0.00, -0.00
46, 15650.20, 12920.38, 187500.00, -95251.22, -27840.48, 187500.00, -187500.02, 187500.00, -0.00, -0.00, -0.00
47, 25127.07, -25483.07, 187500.00, -90296.82, -23057.81, 187500.00, -187500.02, 187500.00, -0.00, -0.00, -0.00
