%OpenBCI Raw EEG Data
%
%Sample Rate = 250.0 Hz
%First Column = SampleIndex
%Other Columns = EEG data in microvolts followed by Accel Data (in G) interleaved with Aux Data
0, 0.00, -86647.90, 0.00, -187500.02, -76417.30, -187500.02, 0.00, 0.00, 0.00, 0.00, 0.00
1, 0.00, -87534.10, 0.00, -187500.02, -78861.51, -187500.02, 0.00, 0.00, 0.00, 0.00, 0.00
2, 0.00, -80424.39, 0.00, -187500.02, -74564.88, -187500.02, 0.00, 0.00, 0.00, 0.00, 0.00
3, 0.00, -78650.35, 0.00, -187500.02, -71583.29, -187500.02, 0.00, 0.00, 0.00, 0.00, 0.00
4, 0.00, -85555.19, 0.00, -187500.02, -75542.41, -187500.02, 0.00, 0.00, 0.00, 0.00, 0.00
5, 0.00, -88263.48, 0.00, -187500.02, -79036.81, -187500.02, 0.00, 0.00, 0.00, 0.00, 0.00
6, 0.00, -81766.73, 0.00, -187500.02, -75602.90, -187500.02, 0.00, 0.00, 0.00, 0.00, 0.00
7, 0.00, -78091.77, 0.00, -187500.02, -71565.09, -187500.02, 0.00, 0.00, 0.00, 0.00, 0.00
8, 0.00, -84213.15, 0.00, -187500.02, -74562.76, -187500.02, 0.00, 0.00, 0.00, 0.00, 0.00
9, 0.00, -88617.49, 0.00, -187500.02, -78935.49, -187500.02, 0.00, 0.00, 0.00, 0.00, 0.00
10, 0.00, -83257.41, 0.00, -187500.02, -76665.23, -187500.02, 0.00, 0.00, 0.00, 0.00, 0.00
11, 0.00, -78054.41, 0.00, -187500.02, -71942.44, -187500.02, 0.00, 0.00, 0.00, 0.00, 0.00
12, 0.00, -82908.77, 0.00, -187500.02, -73730.18, -187500.02, 0.00, 0.00, 0.00, 0.00, 0.00
13, 0.00, -88714.72, 0.00, -187500.02, -78675.91, -187500.02, 0.00, 0.00, 0.00, 0.00, 0.00
14, 0.00, -84785.88, 0.00, -187500.02, -77662.95, -187500.02, 0.00, 0.00, 0.00, 0.00, 0.00
15, 0.00, -78364.63, 0.00, -187500.02, -72574.13, -187500.02, 0.00, 0.00, 0.00, 0.00, 0.00
16, 0.00, -81605.14, 0.00, -187500.02, -72982.40, -187500.02, 0.00, 0.00, 0.00, 0.00, 0.00
17, 0.00, -88276.22, 0.00, -187500.02, -78047.98, -187500.02, 0.00, 0.00, 0.00, 0.00, 0.00
18, 0.00, -85982.60, 0.00, -187500.02, -78308.66, -187500.02, 0.00, 0.00, 0.00, 0.00, 0.00
19, 0.00, -78786.92, 0.00, -187500.02, -73123.15, -187500.02, 0.00, 0.00, 0.00, 0.00, 0.00
20, 0.00, -80142.31, 0.00, -187500.02, -72118.41, -187500.02, 0.00, 0.00, 0.00, 0.00, 0.00
21, 0.00, -87274.26, 0.00, -187500.02, -77020.13, -187500.02, 0.00, 0.00, 0.00, 0.00, 0.00
22, 0.00, -86806.39, 0.00, -187500.02, -78552.56, -187500.02, 0.00, 0.00, 0.00, 0.00, 0.00
23, 0.00, -79449.36, 0.00, -187500.02, -73757.49, -187500.02, 0.00, 0.00, 0.00, 0.00, 0.00
24, 0.00, -78782.74, 0.00, -187500.02, -71394.38, -187500.02, 0.00, 0.00, 0.00, 0.00, 0.00
25, 0.00, -85876.38, 0.00, -187500.02, -75758.80, -187500.02, 0.00, 0.00, 0.00, 0.00, 0.00
26, 0.00, -87312.30, 0.00, -187500.02, -78484.39, -187500.02, 0.00, 0.00, 0.00, 0.00, 0.00
27, 0.00, -80256.59, 0.00, -187500.02, -74360.38, -187500.02, 0.00, 0.00, 0.00, 0.00, 0.00
28, 0.00, -77610.24, 0.00, -187500.02, -70822.59, -187500.02, 0.00, 0.00, 0.00, 0.00, 0.00
29, 0.00, -84194.39, 0.00, -187500.02, -74366.58, -187500.02, 0.00, 0.00, 0.00, 0.00, 0.00
30, 0.00, -87509.11, 0.00, -187500.02, -78151.13, -187500.02, 0.00, 0.00, 0.00, 0.00, 0.00
31, 0.00, -81309.25, 0.00, -187500.02, -75060.55, -187500.02, 0.00, 0.00, 0.00, 0.00, 0.00
32, 0.00, -76897.30, 0.00, -187500.02, -70615.55, -187500.02, 0.00, 0.00, 0.00, 0.00, 0.00
33, 0.00, -82474.34, 0.00, -187500.02, -73065.86, -187500.02, 0.00, 0.00, 0.00, 0.00, 0.00
34, 0.00, -87366.39, 0.00, -187500.02, -77595.15, -187500.02, 0.00, 0.00, 0.00, 0.00, 0.00
35, 0.00, -82393.51, 0.00, -187500.02, -75667.72, -187500.02, 0.00, 0.00, 0.00, 0.00, 0.00
36, 0.00, -76554.09, 0.00, -187500.02, -70670.72, -187500.02, 0.00, 0.00, 0.00, 0.00, 0.00
37, 0.00, -80737.11, 0.00, -187500.02, -71835.76, -187500.02, 0.00, 0.00, 0.00, 0.00, 0.00
38, 0.00, -86876.96, 0.00, -187500.02, -76814.83, -187500.02, 0.00, 0.00, 0.00, 0.00, 0.00
39, 0.00, -83537.43, 0.00, -187500.02, -76259.12, -187500.02, 0.00, 0.00, 0.00, 0.00, 0.00
40, 0.00, -76767.80, 0.00, -187500.02, -71102.87, -187500.02, 0.00, 0.00, 0.00, 0.00, 0.00
41, 0.00, -79288.14, 0.00, -187500.02, -70969.52, -187500.02, 0.00, 0.00, 0.00, 0.00, 0.00
42, 0.00, -86232.52, 0.00, -187500.02, -76023.80, -187500.02, 0.00, 0.00, 0.00, 0.00, 0.00
43, 0.00, -84736.40, 0.00, -187500.02, -76858.75, -187500.02, 0.00, 0.00, 0.00, 0.00, 0.00
44, 0.00, -77476.75, 0.00, -187500.02, -71862.47, -187500.02, 0.00, 0.00, 0.00, 0.00, 0.00
45, 0.00, -78108.62, 0.00, -187500.02, -70394.60, -187500.02, 0.00, 0.00, 0.00, 0.00, 0.00
46, 0.00, -85363.05, 0.00, -187500.02, -75206.53, -187500.02, 0.00, 0.00, 0.00, 0.00, 0.00
47, 0.00, -85787.31, 0.00, -187500.02, -77320.09, -187500.02, 0.00, 0.00, 0.00, 0.00, 0.00
48, 0.00, -78602.86, 0.00, -187500.02, -72870.26, -187500.02, 0.00, 0.00, 0.00, 0.00, 0.00
49, 0.00, -77202.50, 0.00, -187500.02, -70091.65, -187500.02, 0.00, 0.00, 0.00, 0.00, 0.00
50, 0.00, -84246.45, 0.00, -187500.02, -74232.48, -187500.02, 0.00, 0.00, 0.00, 0.00, 0.00
51, 0.00, -86478.72, 0.00, -187500.02, -77430.02, -187500.02, 0.00, 0.00, 0.00, 0.00, 0.00
52, 0.00, -79752.92, 0.00, -187500.02, -73724.68, -187500.02, 0.00, 0.00, 0.00, 0.00, 0.00
53, 0.00, -76521.91, 0.00, -187500.02, -69933.22, -187500.02, 0.00, 0.00, 0.00, 0.00, 0.00
54, 0.00, -82900.88, 0.00, -187500.02, -73196.28, -187500.02, 0.00, 0.00, 0.00, 0.00, 0.00
55, 0.00, -86914.45, 0.00, -187500.02, -77378.97, -187500.02, 0.00, 0.00, 0.00, 0.00, 0.00
56, 0.00, -81201.34, 0.00, -187500.02, -74762.83, -187500.02, 0.00, 0.00, 0.00, 0.00, 0.00
57, 0.00, -76242.83, 0.00, -187500.02, -70122.09, -187500.02, 0.00, 0.00, 0.00, 0.00, 0.00
58, 0.00, -81413.09, 0.00, -187500.02, -72181.24, -187500.02, 0.00, 0.00, 0.00, 0.00, 0.00
59, 0.00, -86974.14, 0.00, -187500.02, -77029.14, -187500.02, 0.00, 0.00, 0.00, 0.00, 0.00
60, 0.00, -82691.48, 0.00, -187500.02, -75720.11, -187500.02, 0.00, 0.00, 0.00, 0.00, 0.00
61, 0.00, -76407.05, 0.00, -187500.02, -70608.38, -187500.02, 0.00, 0.00, 0.00, 0.00, 0.00
62, 0.00, -80059.84, 0.00, -187500.02, -71352.06, -187500.02, 0.00, 0.00, 0.00, 0.00, 0.00
63, 0.00, -86657.02, 0.00, -187500.02, -76475.06, -187500.02, 0.00, 0.00, 0.00, 0.00, 0.00
64, 0.00, -84013.77, 0.00, -187500.02, -76460.69, -187500.02, 0.00, 0.00, 0.00, 0.00, 0.00
65, 0.00, -76958.10, 0.00, -187500.02, -71290.71, -187500.02, 0.00, 0.00, 0.00, 0.00, 0.00
66, 0.00, -78809.16, 0.00, -187500.02, -70696.29, -187500.02, 0.00, 0.00, 0.00, 0.00, 0.00
67, 0.00, -85957.25, 0.00, -187500.02, -75715.46, -187500.02, 0.00, 0.00, 0.00, 0.00, 0.00
68, 0.00, -85182.38, 0.00, -187500.02, -77041.68, -187500.02, 0.00, 0.00, 0.00, 0.00, 0.00
69, 0.00, -77844.71, 0.00, -187500.02, -72174.30, -187500.02, 0.00, 0.00, 0.00, 0.00, 0.00
70, 0.00, -77704.92, 0.00, -187500.02, -70193.57, -187500.02, 0.00, 0.00, 0.00, 0.00, 0.00
71, 0.00, -84908.42, 0.00, -187500.02, -74759.70, -187500.02, 0.00, 0.00, 0.00, 0.00, 0.00
72, 0.00, -86076.59, 0.00, -187500.02, -77355.41, -187500.02, 0.00, 0.00, 0.00, 0.00, 0.00
73, 0.00, -79003.60, 0.00, -187500.02, -73143.00, -187500.02, 0.00, 0.00, 0.00, 0.00, 0.00
74, 0.00, -76836.20, 0.00, -187500.02, -69911.74, -187500.02, 0.00, 0.00, 0.00, 0.00, 0.00
75, 0.00, -83677.55, 0.00, -187500.02, -73764.89, -187500.02, 0.00, 0.00, 0.00, 0.00, 0.00
76, 0.00, -86709.95, 0.00, -187500.02, -77430.82, -187500.02, 0.00, 0.00, 0.00, 0.00, 0.00
77, 0.00, -80312.97, 0.00, -187500.02, -74116.52, -187500.02, 0.00, 0.00, 0.00, 0.00, 0.00
78, 0.00, -76362.85, 0.00, -187500.02, -69951.26, -187500.02, 0.00, 0.00, 0.00, 0.00, 0.00
79, 0.00, -82339.60, 0.00, -187500.02, -72789.70, -187500.02, 0.00, 0.00, 0.00, 0.00, 0.00
80, 0.00, -86993.92, 0.00, -187500.02, -77262.40, -187500.02, 0.00, 0.00, 0.00, 0.00, 0.00
81, 0.00, -81779.64, 0.00, -187500.02, -75124.63, -187500.02, 0.00, 0.00, 0.00, 0.00, 0.00
82, 0.00, -76307.83, 0.00, -187500.02, -70290.69, -187500.02, 0.00, 0.00, 0.00, 0.00, 0.00
83, 0.00, -80952.05, 0.00, -187500.02, -71871.07, -187500.02, 0.00, 0.00, 0.00, 0.00, 0.00
84, 0.00, -86928.86, 0.00, -187500.02, -76872.88, -187500.02, 0.00, 0.00, 0.00, 0.00, 0.00
85, 0.00, -83233.06, 0.00, -187500.02, -76040.61, -187500.02, 0.00, 0.00, 0.00, 0.00, 0.00
86, 0.00, -76690.20, 0.00, -187500.02, -70944.26, -187500.02, 0.00, 0.00, 0.00, 0.00, 0.00
87, 0.00, -79704.71, 0.00, -187500.02, -71187.98, -187500.02, 0.00, 0.00, 0.00, 0.00, 0.00
88, 0.00, -86505.02, 0.00, -187500.02, -76277.78, -187500.02, 0.00, 0.00, 0.00, 0.00, 0.00
89, 0.00, -84585.97, 0.00, -187500.02, -76788.14, -187500.02, 0.00, 0.00, 0.00, 0.00, 0.00
90, 0.00, -77474.52, 0.00, -187500.02, -71809.02, -187500.02, 0.00, 0.00, 0.00, 0.00, 0.00
91, 0.00, -78539.53, 0.00, -187500.02, -70626.95, -187500.02, 0.00, 0.00, 0.00, 0.00, 0.00
92, 0.00, -85794.59, 0.00, -187500.02, -75525.31, -187500.02, 0.00, 0.00, 0.00, 0.00, 0.00
93, 0.00, -85831.91, 0.00, -187500.02, -77402.84, -187500.02, 0.00, 0.00, 0.00, 0.00, 0.00
94, 0.00, -78626.30, 0.00, -187500.02, -72853.77, -187500.02, 0.00, 0.00, 0.00, 0.00, 0.00
95, 0.00, -77727.83, 0.00, -187500.02, -70416.45, -187500.02, 0.00, 0.00, 0.00, 0.00, 0.00
96, 0.00, -84856.77, 0.00, -187500.02, -74729.41, -187500.02, 0.00, 0.00, 0.00, 0.00, 0.00
97, 0.00, -86823.90, 0.00, -187500.02, -77823.90, -187500.02, 0.00, 0.00, 0.00, 0.00, 0.00
98, 0.00, -80069.18, 0.00, -187500.02, -74059.64, -187500.02, 0.00, 0.00, 0.00, 0.00, 0.00
99, 0.00, -77220.49, 0.00, -187500.02, -70481.02, -187500.02, 0.00, 0.00, 0.00, 0.00, 0.00
100, 0.00, -83830.23, 0.00, -187500.02, -74024.52, -187500.02, 0.00, 0.00, 0.00, 0.00, 0.00
101, 0.00, -87616.98, 0.00, -187500.02, -78139.55, -187500.02, 0.00, 0.00, 0.00, 0.00, 0.00
102, 0.00, -81730.70, 0.00, -187500.02, -75364.60, -187500.02, 0.00, 0.00, 0.00, 0.00, 0.00
103, 0.00, -77176.70, 0.00, -187500.02, -70935.20, -187500.02, 0.00, 0.00, 0.00, 0.00, 0.00
104, 0.00, -82618.82, 0.00, -187500.02, -73237.77, -187500.02, 0.00, 0.00, 0.00, 0.00, 0.00
105, 0.00, -87837.10, 0.00, -187500.02, -77966.21, -187500.02, 0.00, 0.00, 0.00, 0.00, 0.00
106, 0.00, -83216.86, 0.00, -187500.02, -76366.56, -187500.02, 0.00, 0.00, 0.00, 0.00, 0.00
107, 0.00, -77227.38, 0.00, -187500.02, -71344.73, -187500.02, 0.00, 0.00, 0.00, 0.00, 0.00
108, 0.00, -81225.32, 0.00, -187500.02, -72372.29, -187500.02, 0.00, 0.00, 0.00, 0.00, 0.00
109, 0.00, -87565.70, 0.00, -187500.02, -77414.80, -187500.02, 0.00, 0.00, 0.00, 0.00, 0.00
110, 0.00, -84538.52, 0.00, -187500.02, -77121.38, -187500.02, 0.00, 0.00, 0.00, 0.00, 0.00
111, 0.00, -77676.80, 0.00, -187500.02, -71988.87, -187500.02, 0.00, 0.00, 0.00, 0.00, 0.00
112, 0.00, -79961.58, 0.00, -187500.02, -71685.20, -187500.02, 0.00, 0.00, 0.00, 0.00, 0.00
113, 0.00, -87005.19, 0.00, -187500.02, -76736.77, -187500.02, 0.00, 0.00, 0.00, 0.00, 0.00
114, 0.00, -85779.91, 0.00, -187500.02, -77765.07, -187500.02, 0.00, 0.00, 0.00, 0.00, 0.00
115, 0.00, -78547.70, 0.00, -187500.02, -72883.27, -187500.02, 0.00, 0.00, 0.00, 0.00, 0.00
116, 0.00, -78886.99, 0.00, -187500.02, -71207.42, -187500.02, 0.00, 0.00, 0.00, 0.00, 0.00
117, 0.00, -86193.24, 0.00, -187500.02, -75955.77, -187500.02, 0.00, 0.00, 0.00, 0.00, 0.00
118, 0.00, -86888.23, 0.00, -187500.02, -78271.58, -187500.02, 0.00, 0.00, 0.00, 0.00, 0.00
119, 0.00, -79734.23, 0.00, -187500.02, -73907.41, -187500.02, 0.00, 0.00, 0.00, 0.00, 0.00
120, 0.00, -78067.48, 0.00, -187500.02, -70984.65, -187500.02, 0.00, 0.00, 0.00, 0.00, 0.00
121, 0.00, -85062.53, 0.00, -187500.02, -75053.29, -187500.02, 0.00, 0.00, 0.00, 0.00, 0.00
122, 0.00, -87614.56, 0.00, -187500.02, -78451.98, -187500.02, 0.00, 0.00, 0.00, 0.00, 0.00
123, 0.00, -81032.85, 0.00, -187500.02, -74916.49, -187500.02, 0.00, 0.00, 0.00, 0.00, 0.00
124, 0.00, -77499.89, 0.00, -187500.02, -70974.30, -187500.02, 0.00, 0.00, 0.00, 0.00, 0.00
125, 0.00, -83714.34, 0.00, -187500.02, -74059.02, -187500.02, 0.00, 0.00, 0.00, 0.00, 0.00
126, 0.00, -88154.31, 0.00, -187500.02, -78499.59, -187500.02, 0.00, 0.00, 0.00, 0.00, 0.00
127, 0.00, -82733.77, 0.00, -187500.02, -76164.48, -187500.02, 0.00, 0.00, 0.00, 0.00, 0.00
128, 0.00, -77617.50, 0.00, -187500.02, -71495.67, -187500.02, 0.00, 0.00, 0.00, 0.00, 0.00
129, 0.00, -82661.73, 0.00, -187500.02, -73454.76, -187500.02, 0.00, 0.00, 0.00, 0.00, 0.00
130, 0.00, -88466.10, 0.00, -187500.02, -78425.70, -187500.02, 0.00, 0.00, 0.00, 0.00, 0.00
131, 0.00, -84507.23, 0.00, -187500.02, -77382.70, -187500.02, 0.00, 0.00, 0.00, 0.00, 0.00
132, 0.00, -78195.81, 0.00, -187500.02, -72358.12, -187500.02, 0.00, 0.00, 0.00, 0.00, 0.00
133, 0.00, -81642.80, 0.00, -187500.02, -72970.04, -187500.02, 0.00, 0.00, 0.00, 0.00, 0.00
134, 0.00, -88405.26, 0.00, -187500.02, -78144.60, -187500.02, 0.00, 0.00, 0.00, 0.00, 0.00
135, 0.00, -86140.63, 0.00, -187500.02, -78428.83, -187500.02, 0.00, 0.00, 0.00, 0.00, 0.00
136, 0.00, -79101.28, 0.00, -187500.02, -73399.57, -187500.02, 0.00, 0.00, 0.00, 0.00, 0.00
137, 0.00, -80636.42, 0.00, -187500.02, -72569.14, -187500.02, 0.00, 0.00, 0.00, 0.00, 0.00
138, 0.00, -87851.90, 0.00, -187500.02, -77564.24, -187500.02, 0.00, 0.00, 0.00, 0.00, 0.00
139, 0.00, -87385.08, 0.00, -187500.02, -79109.30, -187500.02, 0.00, 0.00, 0.00, 0.00, 0.00
140, 0.00, -80067.92, 0.00, -187500.02, -74353.27, -187500.02, 0.00, 0.00, 0.00, 0.00, 0.00
141, 0.00, -79571.85, 0.00, -187500.02, -72145.93, -187500.02, 0.00, 0.00, 0.00, 0.00, 0.00
142, 0.00, -86716.07, 0.00, -187500.02, -76565.83, -187500.02, 0.00, 0.00, 0.00, 0.00, 0.00
143, 0.00, -88161.27, 0.00, -187500.02, -79311.77, -187500.02, 0.00, 0.00, 0.00, 0.00, 0.00
144, 0.00, -81124.85, 0.00, -187500.02, -75237.40, -187500.02, 0.00, 0.00, 0.00, 0.00, 0.00
145, 0.00, -78629.05, 0.00, -187500.02, -71814.34, -187500.02, 0.00, 0.00, 0.00, 0.00, 0.00
146, 0.00, -85319.16, 0.00, -187500.02, -75466.91, -187500.02, 0.00, 0.00, 0.00, 0.00, 0.00
147, 0.00, -88552.52, 0.00, -187500.02, -79233.94, -187500.02, 0.00, 0.00, 0.00, 0.00, 0.00
148, 0.00, -82345.26, 0.00, -187500.02, -76119.31, -187500.02, 0.00, 0.00, 0.00, 0.00, 0.00
149, 0.00, -78132.02, 0.00, -187500.02, -71837.63, -187500.02, 0.00, 0.00, 0.00, 0.00, 0.00
150, 0.00, -83921.03, 0.00, -187500.02, -74491.52, -187500.02, 0.00, 0.00, 0.00, 0.00, 0.00
151, 0.00, -88835.04, 0.00, -187500.02, -79097.99, -187500.02, 0.00, 0.00, 0.00, 0.00, 0.00
152, 0.00, -83871.41, 0.00, -187500.02, -77180.44, -187500.02, 0.00, 0.00, 0.00, 0.00, 0.00
153, 0.00, -78234.88, 0.00, -187500.02, -72322.04, -187500.02, 0.00, 0.00, 0.00, 0.00, 0.00
154, 0.00, -82576.64, 0.00, -187500.02, -73653.16, -187500.02, 0.00, 0.00, 0.00, 0.00, 0.00
155, 0.00, -88687.83, 0.00, -187500.02, -78628.38, -187500.02, 0.00, 0.00, 0.00, 0.00, 0.00
156, 0.00, -85215.84, 0.00, -187500.02, -77962.88, -187500.02, 0.00, 0.00, 0.00, 0.00, 0.00
157, 0.00, -78475.54, 0.00, -187500.02, -72813.09, -187500.02, 0.00, 0.00, 0.00, 0.00, 0.00
158, 0.00, -81131.78, 0.00, -187500.02, -72799.31, -187500.02, 0.00, 0.00, 0.00, 0.00, 0.00
159, 0.00, -88019.18, 0.00, -187500.02, -77824.99, -187500.02, 0.00, 0.00, 0.00, 0.00, 0.00
160, 0.00, -86387.55, 0.00, -187500.02, -78539.67, -187500.02, 0.00, 0.00, 0.00, 0.00, 0.00
161, 0.00, -79131.61, 0.00, -187500.02, -73534.30, -187500.02, 0.00, 0.00, 0.00, 0.00, 0.00
162, 0.00, -79842.35, 0.00, -187500.02, -72103.77, -187500.02, 0.00, 0.00, 0.00, 0.00, 0.00
163, 0.00, -87035.23, 0.00, -187500.02, -76845.95, -187500.02, 0.00, 0.00, 0.00, 0.00, 0.00
164, 0.00, -87341.34, 0.00, -187500.02, -78891.89, -187500.02, 0.00, 0.00, 0.00, 0.00, 0.00
165, 0.00, -80031.40, 0.00, -187500.02, -74312.15, -187500.02, 0.00, 0.00, 0.00, 0.00, 0.00
166, 0.00, -78709.68, 0.00, -187500.02, -71577.91, -187500.02, 0.00, 0.00, 0.00, 0.00, 0.00
167, 0.00, -85747.48, 0.00, -187500.02, -75754.24, -187500.02, 0.00, 0.00, 0.00, 0.00, 0.00
168, 0.00, -87941.05, 0.00, -187500.02, -78933.93, -187500.02, 0.00, 0.00, 0.00, 0.00, 0.00
169, 0.00, -81176.73, 0.00, -187500.02, -75200.56, -187500.02, 0.00, 0.00, 0.00, 0.00, 0.00
170, 0.00, -77960.85, 0.00, -187500.02, -71397.13, -187500.02, 0.00, 0.00, 0.00, 0.00, 0.00
171, 0.00, -84312.72, 0.00, -187500.02, -74653.69, -187500.02, 0.00, 0.00, 0.00, 0.00, 0.00
172, 0.00, -88292.72, 0.00, -187500.02, -78810.64, -187500.02, 0.00, 0.00, 0.00, 0.00, 0.00
173, 0.00, -82517.38, 0.00, -187500.02, -76151.74, -187500.02, 0.00, 0.00, 0.00, 0.00, 0.00
174, 0.00, -77589.02, 0.00, -187500.02, -71480.27, -187500.02, 0.00, 0.00, 0.00, 0.00, 0.00
175, 0.00, -82824.88, 0.00, -187500.02, -73578.72, -187500.02, 0.00, 0.00, 0.00, 0.00, 0.00
176, 0.00, -88215.02, 0.00, -187500.02, -78330.99, -187500.02, 0.00, 0.00, 0.00, 0.00, 0.00
177, 0.00, -83740.96, 0.00, -187500.02, -76831.26, -187500.02, 0.00, 0.00, 0.00, 0.00, 0.00
178, 0.00, -77595.06, 0.00, -187500.02, -71803.99, -187500.02, 0.00, 0.00, 0.00, 0.00, 0.00
179, 0.00, -81319.16, 0.00, -187500.02, -72603.13, -187500.02, 0.00, 0.00, 0.00, 0.00, 0.00
180, 0.00, -87766.34, 0.00, -187500.02, -77645.40, -187500.02, 0.00, 0.00, 0.00, 0.00, 0.00
181, 0.00, -84988.28, 0.00, -187500.02, -77524.03, -187500.02, 0.00, 0.00, 0.00, 0.00, 0.00
182, 0.00, -77966.48, 0.00, -187500.02, -72355.66, -187500.02, 0.00, 0.00, 0.00, 0.00, 0.00
183, 0.00, -79842.69, 0.00, -187500.02, -71749.81, -187500.02, 0.00, 0.00, 0.00, 0.00, 0.00
184, 0.00, -86919.77, 0.00, -187500.02, -76732.59, -187500.02, 0.00, 0.00, 0.00, 0.00, 0.00
185, 0.00, -86035.70, 0.00, -187500.02, -77982.69, -187500.02, 0.00, 0.00, 0.00, 0.00, 0.00
186, 0.00, -78769.55, 0.00, -187500.02, -73169.08, -187500.02, 0.00, 0.00, 0.00, 0.00, 0.00
187, 0.00, -78747.61, 0.00, -187500.02, -71291.18, -187500.02, 0.00, 0.00, 0.00, 0.00, 0.00
188, 0.00, -86012.95, 0.00, -187500.02, -75907.39, -187500.02, 0.00, 0.00, 0.00, 0.00, 0.00
189, 0.00, -87097.75, 0.00, -187500.02, -78448.27, -187500.02, 0.00, 0.00, 0.00, 0.00, 0.00
190, 0.00, -80037.26, 0.00, -187500.02, -74254.93, -187500.02, 0.00, 0.00, 0.00, 0.00, 0.00
191, 0.00, -77995.05, 0.00, -187500.02, -71121.73, -187500.02, 0.00, 0.00, 0.00, 0.00, 0.00
192, 0.00, -84824.95, 0.00, -187500.02, -74945.33, -187500.02, 0.00, 0.00, 0.00, 0.00, 0.00
193, 0.00, -87747.72, 0.00, -187500.02, -78533.84, -187500.02, 0.00, 0.00, 0.00, 0.00, 0.00
194, 0.00, -81281.02, 0.00, -187500.02, -75149.71, -187500.02, 0.00, 0.00, 0.00, 0.00, 0.00
195, 0.00, -77388.20, 0.00, -187500.02, -71015.00, -187500.02, 0.00, 0.00, 0.00, 0.00, 0.00
196, 0.00, -83375.00, 0.00, -187500.02, -73861.59, -187500.02, 0.00, 0.00, 0.00, 0.00, 0.00
197, 0.00, -87983.50, 0.00, -187500.02, -78309.29, -187500.02, 0.00, 0.00, 0.00, 0.00, 0.00
198, 0.00, -82750.65, 0.00, -187500.02, -76176.77, -187500.02, 0.00, 0.00, 0.00, 0.00, 0.00
199, 0.00, -77331.02, 0.00, -187500.02, -71372.45, -187500.02, 0.00, 0.00, 0.00, 0.00, 0.00
200, 0.00, -82049.85, 0.00, -187500.02, -73022.66, -187500.02, 0.00, 0.00, 0.00, 0.00, 0.00
201, 0.00, -88067.77, 0.00, -187500.02, -78044.16, -187500.02, 0.00, 0.00, 0.00, 0.00, 0.00
202, 0.00, -84379.51, 0.00, -187500.02, -77223.48, -187500.02, 0.00, 0.00, 0.00, 0.00, 0.00
203, 0.00, -77827.01, 0.00, -187500.02, -72111.95, -187500.02, 0.00, 0.00, 0.00, 0.00, 0.00
204, 0.00, -80949.84, 0.00, -187500.02, -72440.30, -187500.02, 0.00, 0.00, 0.00, 0.00, 0.00
205, 0.00, -87851.98, 0.00, -187500.02, -77617.57, -187500.02, 0.00, 0.00, 0.00, 0.00, 0.00
206, 0.00, -85897.69, 0.00, -187500.02, -78141.72, -187500.02, 0.00, 0.00, 0.00, 0.00, 0.00
207, 0.00, -78829.15, 0.00, -187500.02, -73169.15, -187500.02, 0.00, 0.00, 0.00, 0.00, 0.00
208, 0.00, -80120.85, 0.00, -187500.02, -72163.70, -187500.02, 0.00, 0.00, 0.00, 0.00, 0.00
209, 0.00, -87484.95, 0.00, -187500.02, -77195.52, -187500.02, 0.00, 0.00, 0.00, 0.00, 0.00
210, 0.00, -87435.28, 0.00, -187500.02, -79056.30, -187500.02, 0.00, 0.00, 0.00, 0.00, 0.00
211, 0.00, -80293.63, 0.00, -187500.02, -74535.04, -187500.02, 0.00, 0.00, 0.00, 0.00, 0.00
212, 0.00, -79585.80, 0.00, -187500.02, -72232.23, -187500.02, 0.00, 0.00, 0.00, 0.00, 0.00
213, 0.00, -86834.78, 0.00, -187500.02, -76704.84, -187500.02, 0.00, 0.00, 0.00, 0.00, 0.00
214, 0.00, -88688.59, 0.00, -187500.02, -79744.02, -187500.02, 0.00, 0.00, 0.00, 0.00, 0.00
215, 0.00, -81888.12, 0.00, -187500.02, -75913.80, -187500.02, 0.00, 0.00, 0.00, 0.00, 0.00
216, 0.00, -79180.88, 0.00, -187500.02, -72427.09, -187500.02, 0.00, 0.00, 0.00, 0.00, 0.00
217, 0.00, -85846.50, 0.00, -187500.02, -76016.29, -187500.02, 0.00, 0.00, 0.00, 0.00, 0.00
218, 0.00, -89530.11, 0.00, -187500.02, -80049.17, -187500.02, 0.00, 0.00, 0.00, 0.00, 0.00
219, 0.00, -83580.45, 0.00, -187500.02, -77217.20, -187500.02, 0.00, 0.00, 0.00, 0.00, 0.00
220, 0.00, -79124.41, 0.00, -187500.02, -72869.34, -187500.02, 0.00, 0.00, 0.00, 0.00, 0.00
221, 0.00, -84673.70, 0.00, -187500.02, -75277.84, -187500.02, 0.00, 0.00, 0.00, 0.00, 0.00
222, 0.00, -89859.13, 0.00, -187500.02, -79981.53, -187500.02, 0.00, 0.00, 0.00, 0.00, 0.00
223, 0.00, -85186.90, 0.00, -187500.02, -78339.69, -187500.02, 0.00, 0.00, 0.00, 0.00, 0.00
224, 0.00, -79339.10, 0.00, -187500.02, -73432.79, -187500.02, 0.00, 0.00, 0.00, 0.00, 0.00
225, 0.00, -83469.21, 0.00, -187500.02, -74597.36, -187500.02, 0.00, 0.00, 0.00, 0.00, 0.00
226, 0.00, -89820.66, 0.00, -187500.02, -79685.84, -187500.02, 0.00, 0.00, 0.00, 0.00, 0.00
227, 0.00, -86757.87, 0.00, -187500.02, -79361.41, -187500.02, 0.00, 0.00, 0.00, 0.00, 0.00
228, 0.00, -79974.41, 0.00, -187500.02, -74278.17, -187500.02, 0.00, 0.00, 0.00, 0.00, 0.00
229, 0.00, -82367.12, 0.00, -187500.02, -74068.74, -187500.02, 0.00, 0.00, 0.00, 0.00, 0.00
230, 0.00, -89430.82, 0.00, -187500.02, -79160.42, -187500.02, 0.00, 0.00, 0.00, 0.00, 0.00
231, 0.00, -88183.30, 0.00, -187500.02, -80175.52, -187500.02, 0.00, 0.00, 0.00, 0.00, 0.00
232, 0.00, -80933.36, 0.00, -187500.02, -75254.86, -187500.02, 0.00, 0.00, 0.00, 0.00, 0.00
233, 0.00, -81384.53, 0.00, -187500.02, -73690.15, -187500.02, 0.00, 0.00, 0.00, 0.00, 0.00
234, 0.00, -88696.46, 0.00, -187500.02, -78466.18, -187500.02, 0.00, 0.00, 0.00, 0.00, 0.00
235, 0.00, -89371.21, 0.00, -187500.02, -80769.97, -187500.02, 0.00, 0.00, 0.00, 0.00, 0.00
236, 0.00, -82230.66, 0.00, -187500.02, -76421.95, -187500.02, 0.00, 0.00, 0.00, 0.00, 0.00
237, 0.00, -80681.13, 0.00, -187500.02, -73594.99, -187500.02, 0.00, 0.00, 0.00, 0.00, 0.00
238, 0.00, -87763.32, 0.00, -187500.02, -77728.91, -187500.02, 0.00, 0.00, 0.00, 0.00, 0.00
239, 0.00, -90275.81, 0.00, -187500.02, -81122.68, -187500.02, 0.00, 0.00, 0.00, 0.00, 0.00
240, 0.00, -83720.71, 0.00, -187500.02, -77612.66, -187500.02, 0.00, 0.00, 0.00, 0.00, 0.00
241, 0.00, -80230.58, 0.00, -187500.02, -73695.15, -187500.02, 0.00, 0.00, 0.00, 0.00, 0.00
242, 0.00, -86496.66, 0.00, -187500.02, -76826.45, -187500.02, 0.00, 0.00, 0.00, 0.00, 0.00
243, 0.00, -90684.02, 0.00, -187500.02, -81067.31, -187500.02, 0.00, 0.00, 0.00, 0.00, 0.00
244, 0.00, -85152.77, 0.00, -187500.02, -78637.01, -187500.02, 0.00, 0.00, 0.00, 0.00, 0.00
245, 0.00, -80103.98, 0.00, -187500.02, -74010.36, -187500.02, 0.00, 0.00, 0.00, 0.00, 0.00
246, 0.00, -85156.32, 0.00, -187500.02, -75962.38, -187500.02, 0.00, 0.00, 0.00, 0.00, 0.00
247, 0.00, -90751.90, 0.00, -187500.02, -80792.48, -187500.02, 0.00, 0.00, 0.00, 0.00, 0.00
248, 0.00, -86617.12, 0.00, -187500.02, -79583.43, -187500.02, 0.00, 0.00, 0.00, 0.00, 0.00
249, 0.00, -80293.66, 0.00, -187500.02, -74514.63, -187500.02, 0.00, 0.00, 0.00, 0.00, 0.00
250, 0.00, -83718.23, 0.00, -187500.02, -75112.09, -187500.02, 0.00, 0.00, 0.00, 0.00, 0.00
251, 0.00, -90338.59, 0.00, -187500.02, -80173.73, -187500.02, 0.00, 0.00, 0.00, 0.00, 0.00
252, 0.00, -87954.29, 0.00, -187500.02, -80363.62, -187500.02, 0.00, 0.00, 0.00, 0.00, 0.00
253, 0.00, -80919.99, 0.00, -187500.02, -75311.67, -187500.02, 0.00, 0.00, 0.00, 0.00, 0.00
254, 0.00, -82477.35, 0.00, -187500.02, -74503.44, -187500.02, 0.00, 0.00, 0.00, 0.00, 0.00
255, 0.00, -89599.27, 0.00, -187500.02, -79427.08, -187500.02, 0.00, 0.00, 0.00, 0.00, 0.00
0, 0.00, -89065.69, 0.00, -187500.02, -80896.93, -187500.02, 0.00, 0.00, 0.00, 0.00, 0.00
1, 0.00, -81763.08, 0.00, -187500.02, -76142.69, -187500.02, 0.00, 0.00, 0.00, 0.00, 0.00
2, 0.00, -81289.78, 0.00, -187500.02, -73938.34, -187500.02, 0.00, 0.00, 0.00, 0.00, 0.00
3, 0.00, -88374.01, 0.00, -187500.02, -78326.68, -187500.02, 0.00, 0.00, 0.00, 0.00, 0.00
4, 0.00, -89636.35, 0.00, -187500.02, -80915.30, -187500.02, 0.00, 0.00, 0.00, 0.00, 0.00
5, 0.00, -82554.49, 0.00, -187500.02, -76761.77, -187500.02, 0.00, 0.00, 0.00, 0.00, 0.00
6, 0.00, -80110.30, 0.00, -187500.02, -73367.95, -187500.02, 0.00, 0.00, 0.00, 0.00, 0.00
7, 0.00, -86725.70, 0.00, -187500.02, -76953.23, -187500.02, 0.00, 0.00, 0.00, 0.00, 0.00
8, 0.00, -89850.32, 0.00, -187500.02, -80611.43, -187500.02, 0.00, 0.00, 0.00, 0.00, 0.00
9, 0.00, -83456.70, 0.00, -187500.02, -77323.42, -187500.02, 0.00, 0.00, 0.00, 0.00, 0.00
10, 0.00, -79219.01, 0.00, -187500.02, -72990.83, -187500.02, 0.00, 0.00, 0.00, 0.00, 0.00
11, 0.00, -84918.86, 0.00, -187500.02, -75544.29, -187500.02, 0.00, 0.00, 0.00, 0.00, 0.00
12, 0.00, -89637.40, 0.00, -187500.02, -79976.70, -187500.02, 0.00, 0.00, 0.00, 0.00, 0.00
13, 0.00, -84471.51, 0.00, -187500.02, -77895.52, -187500.02, 0.00, 0.00, 0.00, 0.00, 0.00
14, 0.00, -78735.67, 0.00, -187500.02, -72914.47, -187500.02, 0.00, 0.00, 0.00, 0.00, 0.00
15, 0.00, -83089.97, 0.00, -187500.02, -74231.93, -187500.02, 0.00, 0.00, 0.00, 0.00, 0.00
16, 0.00, -89044.70, 0.00, -187500.02, -79087.82, -187500.02, 0.00, 0.00, 0.00, 0.00, 0.00
17, 0.00, -85410.05, 0.00, -187500.02, -78281.22, -187500.02, 0.00, 0.00, 0.00, 0.00, 0.00
18, 0.00, -78643.76, 0.00, -187500.02, -73062.53, -187500.02, 0.00, 0.00, 0.00, 0.00, 0.00
19, 0.00, -81402.08, 0.00, -187500.02, -73102.25, -187500.02, 0.00, 0.00, 0.00, 0.00, 0.00
20, 0.00, -88152.08, 0.00, -187500.02, -78048.02, -187500.02, 0.00, 0.00, 0.00, 0.00, 0.00
21, 0.00, -86310.81, 0.00, -187500.02, -78599.10, -187500.02, 0.00, 0.00, 0.00, 0.00, 0.00
22, 0.00, -79056.02, 0.00, -187500.02, -73553.77, -187500.02, 0.00, 0.00, 0.00, 0.00, 0.00
23, 0.00, -79900.48, 0.00, -187500.02, -72242.53, -187500.02, 0.00, 0.00, 0.00, 0.00, 0.00
24, 0.00, -87130.67, 0.00, -187500.02, -77039.73, -187500.02, 0.00, 0.00, 0.00, 0.00, 0.00
25, 0.00, -87296.30, 0.00, -187500.02, -78968.13, -187500.02, 0.00, 0.00, 0.00, 0.00, 0.00
26, 0.00, -79994.63, 0.00, -187500.02, -74382.05, -187500.02, 0.00, 0.00, 0.00, 0.00, 0.00
27, 0.00, -78825.80, 0.00, -187500.02, -71764.34, -187500.02, 0.00, 0.00, 0.00, 0.00, 0.00
28, 0.00, -85918.13, 0.00, -187500.02, -75990.85, -187500.02, 0.00, 0.00, 0.00, 0.00, 0.00
29, 0.00, -88041.48, 0.00, -187500.02, -79139.57, -187500.02, 0.00, 0.00, 0.00, 0.00, 0.00
30, 0.00, -81296.35, 0.00, -187500.02, -75408.91, -187500.02, 0.00, 0.00, 0.00, 0.00, 0.00
31, 0.00, -78198.70, 0.00, -187500.02, -71680.34, -187500.02, 0.00, 0.00, 0.00, 0.00, 0.00
32, 0.00, -84557.72, 0.00, -187500.02, -74922.71, -187500.02, 0.00, 0.00, 0.00, 0.00, 0.00
33, 0.00, -88401.62, 0.00, -187500.02, -78978.37, -187500.02, 0.00, 0.00, 0.00, 0.00, 0.00
34, 0.00, -82545.77, 0.00, -187500.02, -76256.66, -187500.02, 0.00, 0.00, 0.00, 0.00, 0.00
35, 0.00, -77746.79, 0.00, -187500.02, -71688.73, -187500.02, 0.00, 0.00, 0.00, 0.00, 0.00
36, 0.00, -83013.73, 0.00, -187500.02, -73817.70, -187500.02, 0.00, 0.00, 0.00, 0.00, 0.00
37, 0.00, -88360.38, 0.00, -187500.02, -78559.70, -187500.02, 0.00, 0.00, 0.00, 0.00, 0.00
38, 0.00, -83898.14, 0.00, -187500.02, -77077.64, -187500.02, 0.00, 0.00, 0.00, 0.00, 0.00
39, 0.00, -77770.59, 0.00, -187500.02, -72027.69, -187500.02, 0.00, 0.00, 0.00, 0.00, 0.00
40, 0.00, -81591.38, 0.00, -187500.02, -72919.41, -187500.02, 0.00, 0.00, 0.00, 0.00, 0.00
41, 0.00, -88089.90, 0.00, -187500.02, -78019.41, -187500.02, 0.00, 0.00, 0.00, 0.00, 0.00
42, 0.00, -85237.48, 0.00, -187500.02, -77853.74, -187500.02, 0.00, 0.00, 0.00, 0.00, 0.00
43, 0.00, -78242.50, 0.00, -187500.02, -72677.95, -187500.02, 0.00, 0.00, 0.00, 0.00, 0.00
44, 0.00, -80285.92, 0.00, -187500.02, -72191.75, -187500.02, 0.00, 0.00, 0.00, 0.00, 0.00
45, 0.00, -87406.80, 0.00, -187500.02, -77231.96, -187500.02, 0.00, 0.00, 0.00, 0.00, 0.00
46, 0.00, -86377.04, 0.00, -187500.02, -78372.95, -187500.02, 0.00, 0.00, 0.00, 0.00, 0.00
47, 0.00, -79085.25, 0.00, -187500.02, -73503.06, -187500.02, 0.00, 0.00, 0.00, 0.00, 0.00
48, 0.00, -79194.38, 0.00, -187500.02, -71679.78, -187500.02, 0.00, 0.00, 0.00, 0.00, 0.00
49, 0.00, -86458.98, 0.00, -187500.02, -76334.11, -187500.02, 0.00, 0.00, 0.00, 0.00, 0.00
50, 0.00, -87363.78, 0.00, -187500.02, -78749.71, -187500.02, 0.00, 0.00, 0.00, 0.00, 0.00
51, 0.00, -80246.20, 0.00, -187500.02, -74466.11, -187500.02, 0.00, 0.00, 0.00, 0.00, 0.00
52, 0.00, -78313.05, 0.00, -187500.02, -71388.01, -187500.02, 0.00, 0.00, 0.00, 0.00, 0.00
53, 0.00, -85163.63, 0.00, -187500.02, -75269.70, -187500.02, 0.00, 0.00, 0.00, 0.00, 0.00
54, 0.00, -87957.69, 0.00, -187500.02, -78795.57, -187500.02, 0.00, 0.00, 0.00, 0.00, 0.00
55, 0.00, -81464.30, 0.00, -187500.02, -75375.71, -187500.02, 0.00, 0.00, 0.00, 0.00, 0.00
56, 0.00, -77660.62, 0.00, -187500.02, -71288.14, -187500.02, 0.00, 0.00, 0.00, 0.00, 0.00
57, 0.00, -83701.23, 0.00, -187500.02, -74200.52, -187500.02, 0.00, 0.00, 0.00, 0.00, 0.00
58, 0.00, -88202.98, 0.00, -187500.02, -78560.16, -187500.02, 0.00, 0.00, 0.00, 0.00, 0.00
59, 0.00, -82843.99, 0.00, -187500.02, -76298.28, -187500.02, 0.00, 0.00, 0.00, 0.00, 0.00
60, 0.00, -77520.90, 0.00, -187500.02, -71558.46, -187500.02, 0.00, 0.00, 0.00, 0.00, 0.00
61, 0.00, -82260.48, 0.00, -187500.02, -73218.08, -187500.02, 0.00, 0.00, 0.00, 0.00, 0.00
62, 0.00, -88068.13, 0.00, -187500.02, -78099.38, -187500.02, 0.00, 0.00, 0.00, 0.00, 0.00
63, 0.00, -84161.34, 0.00, -187500.02, -77086.60, -187500.02, 0.00, 0.00, 0.00, 0.00, 0.00
64, 0.00, -77653.65, 0.00, -187500.02, -71961.13, -187500.02, 0.00, 0.00, 0.00, 0.00, 0.00
65, 0.00, -80797.69, 0.00, -187500.02, -72313.77, -187500.02, 0.00, 0.00, 0.00, 0.00, 0.00
66, 0.00, -87553.21, 0.00, -187500.02, -77383.46, -187500.02, 0.00, 0.00, 0.00, 0.00, 0.00
67, 0.00, -85436.01, 0.00, -187500.02, -77762.52, -187500.02, 0.00, 0.00, 0.00, 0.00, 0.00
68, 0.00, -78248.74, 0.00, -187500.02, -72658.86, -187500.02, 0.00, 0.00, 0.00, 0.00, 0.00
69, 0.00, -79551.78, 0.00, -187500.02, -71659.69, -187500.02, 0.00, 0.00, 0.00, 0.00, 0.00
70, 0.00, -86737.77, 0.00, -187500.02, -76544.87, -187500.02, 0.00, 0.00, 0.00, 0.00, 0.00
71, 0.00, -86556.39, 0.00, -187500.02, -78285.98, -187500.02, 0.00, 0.00, 0.00, 0.00, 0.00
72, 0.00, -79305.75, 0.00, -187500.02, -73677.85, -187500.02, 0.00, 0.00, 0.00, 0.00, 0.00
73, 0.00, -78610.05, 0.00, -187500.02, -71333.49, -187500.02, 0.00, 0.00, 0.00, 0.00, 0.00
74, 0.00, -85864.49, 0.00, -187500.02, -75801.31, -187500.02, 0.00, 0.00, 0.00, 0.00, 0.00
75, 0.00, -87601.55, 0.00, -187500.02, -78760.48, -187500.02, 0.00, 0.00, 0.00, 0.00, 0.00
76, 0.00, -80714.78, 0.00, -187500.02, -74844.61, -187500.02, 0.00, 0.00, 0.00, 0.00, 0.00
77, 0.00, -78048.91, 0.00, -187500.02, -71357.80, -187500.02, 0.00, 0.00, 0.00, 0.00, 0.00
78, 0.00, -84681.84, 0.00, -187500.02, -74906.59, -187500.02, 0.00, 0.00, 0.00, 0.00, 0.00
79, 0.00, -88129.05, 0.00, -187500.02, -78780.77, -187500.02, 0.00, 0.00, 0.00, 0.00, 0.00
80, 0.00, -81975.34, 0.00, -187500.02, -75738.48, -187500.02, 0.00, 0.00, 0.00, 0.00, 0.00
81, 0.00, -77512.74, 0.00, -187500.02, -71311.09, -187500.02, 0.00, 0.00, 0.00, 0.00, 0.00
82, 0.00, -83148.35, 0.00, -187500.02, -73796.90, -187500.02, 0.00, 0.00, 0.00, 0.00, 0.00
83, 0.00, -88126.91, 0.00, -187500.02, -78381.15, -187500.02, 0.00, 0.00, 0.00, 0.00, 0.00
84, 0.00, -83251.55, 0.00, -187500.02, -76546.81, -187500.02, 0.00, 0.00, 0.00, 0.00, 0.00
85, 0.00, -77392.71, 0.00, -187500.02, -71557.56, -187500.02, 0.00, 0.00, 0.00, 0.00, 0.00
86, 0.00, -81586.73, 0.00, -187500.02, -72742.81, -187500.02, 0.00, 0.00, 0.00, 0.00, 0.00
87, 0.00, -87745.48, 0.00, -187500.02, -77702.71, -187500.02, 0.00, 0.00, 0.00, 0.00, 0.00
88, 0.00, -84419.79, 0.00, -187500.02, -77156.79, -187500.02, 0.00, 0.00, 0.00, 0.00, 0.00
89, 0.00, -77557.22, 0.00, -187500.02, -71966.96, -187500.02, 0.00, 0.00, 0.00, 0.00, 0.00
90, 0.00, -79982.56, 0.00, -187500.02, -71740.42, -187500.02, 0.00, 0.00, 0.00, 0.00, 0.00
91, 0.00, -86902.91, 0.00, -187500.02, -76736.55, -187500.02, 0.00, 0.00, 0.00, 0.00, 0.00
92, 0.00, -85492.29, 0.00, -187500.02, -77623.85, -187500.02, 0.00, 0.00, 0.00, 0.00, 0.00
93, 0.00, -78198.02, 0.00, -187500.02, -72627.90, -187500.02, 0.00, 0.00, 0.00, 0.00, 0.00
94, 0.00, -78668.51, 0.00, -187500.02, -71050.85, -187500.02, 0.00, 0.00, 0.00, 0.00, 0.00
95, 0.00, -85849.38, 0.00, -187500.02, -75726.45, -187500.02, 0.00, 0.00, 0.00, 0.00, 0.00
96, 0.00, -86349.21, 0.00, -187500.02, -77870.39, -187500.02, 0.00, 0.00, 0.00, 0.00, 0.00
97, 0.00, -79105.41, 0.00, -187500.02, -73404.13, -187500.02, 0.00, 0.00, 0.00, 0.00, 0.00
98, 0.00, -77555.86, 0.00, -187500.02, -70533.88, -187500.02, 0.00, 0.00, 0.00, 0.00, 0.00
99, 0.00, -84527.41, 0.00, -187500.02, -74611.88, -187500.02, 0.00, 0.00, 0.00, 0.00, 0.00
100, 0.00, -86910.44, 0.00, -187500.02, -77878.70, -187500.02, 0.00, 0.00, 0.00, 0.00, 0.00
101, 0.00, -80199.55, 0.00, -187500.02, -74218.85, -187500.02, 0.00, 0.00, 0.00, 0.00, 0.00
102, 0.00, -76721.58, 0.00, -187500.02, -70252.89, -187500.02, 0.00, 0.00, 0.00, 0.00, 0.00
103, 0.00, -82932.16, 0.00, -187500.02, -73344.09, -187500.02, 0.00, 0.00, 0.00, 0.00, 0.00
104, 0.00, -87007.29, 0.00, -187500.02, -77501.01, -187500.02, 0.00, 0.00, 0.00, 0.00, 0.00
105, 0.00, -81395.53, 0.00, -187500.02, -75002.70, -187500.02, 0.00, 0.00, 0.00, 0.00, 0.00
106, 0.00, -76429.71, 0.00, -187500.02, -70403.73, -187500.02, 0.00, 0.00, 0.00, 0.00, 0.00
107, 0.00, -81519.34, 0.00, -187500.02, -72389.20, -187500.02, 0.00, 0.00, 0.00, 0.00, 0.00
108, 0.00, -87147.26, 0.00, -187500.02, -77259.96, -187500.02, 0.00, 0.00, 0.00, 0.00, 0.00
109, 0.00, -82947.05, 0.00, -187500.02, -76025.79, -187500.02, 0.00, 0.00, 0.00, 0.00, 0.00
110, 0.00, -76732.89, 0.00, -187500.02, -71011.87, -187500.02, 0.00, 0.00, 0.00, 0.00, 0.00
111, 0.00, -80319.70, 0.00, -187500.02, -71715.30, -187500.02, 0.00, 0.00, 0.00, 0.00, 0.00
112, 0.00, -86930.38, 0.00, -187500.02, -76794.58, -187500.02, 0.00, 0.00, 0.00, 0.00, 0.00
113, 0.00, -84471.69, 0.00, -187500.02, -76935.38, -187500.02, 0.00, 0.00, 0.00, 0.00, 0.00
114, 0.00, -77483.02, 0.00, -187500.02, -71878.27, -187500.02, 0.00, 0.00, 0.00, 0.00, 0.00
115, 0.00, -79244.24, 0.00, -187500.02, -71196.27, -187500.02, 0.00, 0.00, 0.00, 0.00, 0.00
116, 0.00, -86475.68, 0.00, -187500.02, -76256.91, -187500.02, 0.00, 0.00, 0.00, 0.00, 0.00
117, 0.00, -85751.37, 0.00, -187500.02, -77625.23, -187500.02, 0.00, 0.00, 0.00, 0.00, 0.00
118, 0.00, -78450.95, 0.00, -187500.02, -72812.30, -187500.02, 0.00, 0.00, 0.00, 0.00, 0.00
119, 0.00, -78245.74, 0.00, -187500.02, -70812.27, -187500.02, 0.00, 0.00, 0.00, 0.00, 0.00
120, 0.00, -85461.38, 0.00, -187500.02, -75351.02, -187500.02, 0.00, 0.00, 0.00, 0.00, 0.00
121, 0.00, -86609.19, 0.00, -187500.02, -77912.61, -187500.02, 0.00, 0.00, 0.00, 0.00, 0.00
122, 0.00, -79518.09, 0.00, -187500.02, -73707.94, -187500.02, 0.00, 0.00, 0.00, 0.00, 0.00
123, 0.00, -77221.12, 0.00, -187500.02, -70406.79, -187500.02, 0.00, 0.00, 0.00, 0.00, 0.00
124, 0.00, -83919.76, 0.00, -187500.02, -74083.38, -187500.02, 0.00, 0.00, 0.00, 0.00, 0.00
125, 0.00, -86952.71, 0.00, -187500.02, -77716.90, -187500.02, 0.00, 0.00, 0.00, 0.00, 0.00
126, 0.00, -80561.14, 0.00, -187500.02, -74438.99, -187500.02, 0.00, 0.00, 0.00, 0.00, 0.00
127, 0.00, -76434.73, 0.00, -187500.02, -70153.65, -187500.02, 0.00, 0.00, 0.00, 0.00, 0.00
128, 0.00, -82180.21, 0.00, -187500.02, -72754.55, -187500.02, 0.00, 0.00, 0.00, 0.00, 0.00
129, 0.00, -86831.59, 0.00, -187500.02, -77160.52, -187500.02, 0.00, 0.00, 0.00, 0.00, 0.00
130, 0.00, -81645.80, 0.00, -187500.02, -75045.33, -187500.02, 0.00, 0.00, 0.00, 0.00, 0.00
131, 0.00, -76062.78, 0.00, -187500.02, -70171.55, -187500.02, 0.00, 0.00, 0.00, 0.00, 0.00
132, 0.00, -80548.71, 0.00, -187500.02, -71613.80, -187500.02, 0.00, 0.00, 0.00, 0.00, 0.00
133, 0.00, -86486.81, 0.00, -187500.02, -76487.87, -187500.02, 0.00, 0.00, 0.00, 0.00, 0.00
134, 0.00, -82813.48, 0.00, -187500.02, -75642.16, -187500.02, 0.00, 0.00, 0.00, 0.00, 0.00
135, 0.00, -76145.53, 0.00, -187500.02, -70492.13, -187500.02, 0.00, 0.00, 0.00, 0.00, 0.00
136, 0.00, -78931.74, 0.00, -187500.02, -70547.55, -187500.02, 0.00, 0.00, 0.00, 0.00, 0.00
137, 0.00, -85710.02, 0.00, -187500.02, -75535.20, -187500.02, 0.00, 0.00, 0.00, 0.00, 0.00
138, 0.00, -83846.51, 0.00, -187500.02, -76097.23, -187500.02, 0.00, 0.00, 0.00, 0.00, 0.00
139, 0.00, -76676.70, 0.00, -187500.02, -71107.34, -187500.02, 0.00, 0.00, 0.00, 0.00, 0.00
140, 0.00, -77645.73, 0.00, -187500.02, -69874.39, -187500.02, 0.00, 0.00, 0.00, 0.00, 0.00
141, 0.00, -84896.82, 0.00, -187500.02, -74721.84, -187500.02, 0.00, 0.00, 0.00, 0.00, 0.00
142, 0.00, -84937.09, 0.00, -187500.02, -76596.84, -187500.02, 0.00, 0.00, 0.00, 0.00, 0.00
143, 0.00, -77659.73, 0.00, -187500.02, -72006.48, -187500.02, 0.00, 0.00, 0.00, 0.00, 0.00
144, 0.00, -76630.61, 0.00, -187500.02, -69468.03, -187500.02, 0.00, 0.00, 0.00, 0.00, 0.00
145, 0.00, -83737.73, 0.00, -187500.02, -73725.23, -187500.02, 0.00, 0.00, 0.00, 0.00, 0.00
146, 0.00, -85609.59, 0.00, -187500.02, -76688.25, -187500.02, 0.00, 0.00, 0.00, 0.00, 0.00
147, 0.00, -78757.27, 0.00, -187500.02, -72840.29, -187500.02, 0.00, 0.00, 0.00, 0.00, 0.00
148, 0.00, -75793.34, 0.00, -187500.02, -69183.36, -187500.02, 0.00, 0.00, 0.00, 0.00, 0.00
149, 0.00, -82296.86, 0.00, -187500.02, -72577.05, -187500.02, 0.00, 0.00, 0.00, 0.00, 0.00
150, 0.00, -85936.58, 0.00, -187500.02, -76519.32, -187500.02, 0.00, 0.00, 0.00, 0.00, 0.00
151, 0.00, -79955.72, 0.00, -187500.02, -73648.02, -187500.02, 0.00, 0.00, 0.00, 0.00, 0.00
152, 0.00, -75290.77, 0.00, -187500.02, -69165.64, -187500.02, 0.00, 0.00, 0.00, 0.00, 0.00
153, 0.00, -80643.39, 0.00, -187500.02, -71381.45, -187500.02, 0.00, 0.00, 0.00, 0.00, 0.00
154, 0.00, -85874.44, 0.00, -187500.02, -76038.60, -187500.02, 0.00, 0.00, 0.00, 0.00, 0.00
155, 0.00, -81272.15, 0.00, -187500.02, -74455.20, -187500.02, 0.00, 0.00, 0.00, 0.00, 0.00
156, 0.00, -75205.59, 0.00, -187500.02, -69425.03, -187500.02, 0.00, 0.00, 0.00, 0.00, 0.00
157, 0.00, -79035.25, 0.00, -187500.02, -70306.00, -187500.02, 0.00, 0.00, 0.00, 0.00, 0.00
158, 0.00, -85376.82, 0.00, -187500.02, -75296.81, -187500.02, 0.00, 0.00, 0.00, 0.00, 0.00
159, 0.00, -82382.36, 0.00, -187500.02, -75018.09, -187500.02, 0.00, 0.00, 0.00, 0.00, 0.00
160, 0.00, -75413.64, 0.00, -187500.02, -69849.84, -187500.02, 0.00, 0.00, 0.00, 0.00, 0.00
161, 0.00, -77520.81, 0.00, -187500.02, -69380.51, -187500.02, 0.00, 0.00, 0.00, 0.00, 0.00
162, 0.00, -84491.80, 0.00, -187500.02, -74300.13, -187500.02, 0.00, 0.00, 0.00, 0.00, 0.00
163, 0.00, -83316.73, 0.00, -187500.02, -75327.19, -187500.02, 0.00, 0.00, 0.00, 0.00, 0.00
164, 0.00, -75925.95, 0.00, -187500.02, -70351.09, -187500.02, 0.00, 0.00, 0.00, 0.00, 0.00
165, 0.00, -76046.48, 0.00, -187500.02, -68532.70, -187500.02, 0.00, 0.00, 0.00, 0.00, 0.00
166, 0.00, -83222.41, 0.00, -187500.02, -73112.95, -187500.02, 0.00, 0.00, 0.00, 0.00, 0.00
167, 0.00, -84017.39, 0.00, -187500.02, -75438.90, -187500.02, 0.00, 0.00, 0.00, 0.00, 0.00
168, 0.00, -76799.05, 0.00, -187500.02, -71067.75, -187500.02, 0.00, 0.00, 0.00, 0.00, 0.00
169, 0.00, -74909.57, 0.00, -187500.02, -67989.83, -187500.02, 0.00, 0.00, 0.00, 0.00, 0.00
170, 0.00, -81743.34, 0.00, -187500.02, -71863.45, -187500.02, 0.00, 0.00, 0.00, 0.00, 0.00
171, 0.00, -84392.00, 0.00, -187500.02, -75278.88, -187500.02, 0.00, 0.00, 0.00, 0.00, 0.00
172, 0.00, -77830.27, 0.00, -187500.02, -71797.87, -187500.02, 0.00, 0.00, 0.00, 0.00, 0.00
173, 0.00, -74194.04, 0.00, -187500.02, -67821.63, -187500.02, 0.00, 0.00, 0.00, 0.00, 0.00
174, 0.00, -80319.25, 0.00, -187500.02, -70796.31, -187500.02, 0.00, 0.00, 0.00, 0.00, 0.00
175, 0.00, -84670.04, 0.00, -187500.02, -75100.38, -187500.02, 0.00, 0.00, 0.00, 0.00, 0.00
176, 0.00, -79180.16, 0.00, -187500.02, -72719.59, -187500.02, 0.00, 0.00, 0.00, 0.00, 0.00
177, 0.00, -73890.30, 0.00, -187500.02, -67949.97, -187500.02, 0.00, 0.00, 0.00, 0.00, 0.00
178, 0.00, -78826.20, 0.00, -187500.02, -69773.18, -187500.02, 0.00, 0.00, 0.00, 0.00, 0.00
179, 0.00, -84581.79, 0.00, -187500.02, -74663.45, -187500.02, 0.00, 0.00, 0.00, 0.00, 0.00
180, 0.00, -80571.42, 0.00, -187500.02, -73568.77, -187500.02, 0.00, 0.00, 0.00, 0.00, 0.00
181, 0.00, -74098.80, 0.00, -187500.02, -68432.01, -187500.02, 0.00, 0.00, 0.00, 0.00, 0.00
182, 0.00, -77337.26, 0.00, -187500.02, -68841.20, -187500.02, 0.00, 0.00, 0.00, 0.00, 0.00
183, 0.00, -84031.20, 0.00, -187500.02, -73903.18, -187500.02, 0.00, 0.00, 0.00, 0.00, 0.00
184, 0.00, -81782.30, 0.00, -187500.02, -74180.09, -187500.02, 0.00, 0.00, 0.00, 0.00, 0.00
185, 0.00, -74664.10, 0.00, -187500.02, -69098.91, -187500.02, 0.00, 0.00, 0.00, 0.00, 0.00
186, 0.00, -76075.63, 0.00, -187500.02, -68171.50, -187500.02, 0.00, 0.00, 0.00, 0.00, 0.00
187, 0.00, -83273.45, 0.00, -187500.02, -73086.67, -187500.02, 0.00, 0.00, 0.00, 0.00, 0.00
188, 0.00, -82945.22, 0.00, -187500.02, -74703.91, -187500.02, 0.00, 0.00, 0.00, 0.00, 0.00
189, 0.00, -75647.78, 0.00, -187500.02, -70003.90, -187500.02, 0.00, 0.00, 0.00, 0.00, 0.00
190, 0.00, -75086.52, 0.00, -187500.02, -67771.25, -187500.02, 0.00, 0.00, 0.00, 0.00, 0.00
191, 0.00, -82299.21, 0.00, -187500.02, -72217.16, -187500.02, 0.00, 0.00, 0.00, 0.00, 0.00
192, 0.00, -83913.07, 0.00, -187500.02, -75071.66, -187500.02, 0.00, 0.00, 0.00, 0.00, 0.00
193, 0.00, -76961.10, 0.00, -187500.02, -71092.72, -187500.02, 0.00, 0.00, 0.00, 0.00, 0.00
194, 0.00, -74416.58, 0.00, -187500.02, -67675.83, -187500.02, 0.00, 0.00, 0.00, 0.00, 0.00
195, 0.00, -81082.36, 0.00, -187500.02, -71282.66, -187500.02, 0.00, 0.00, 0.00, 0.00, 0.00
196, 0.00, -84473.68, 0.00, -187500.02, -75122.73, -187500.02, 0.00, 0.00, 0.00, 0.00, 0.00
197, 0.00, -78328.65, 0.00, -187500.02, -72115.53, -187500.02, 0.00, 0.00, 0.00, 0.00, 0.00
198, 0.00, -74047.39, 0.00, -187500.02, -67817.13, -187500.02, 0.00, 0.00, 0.00, 0.00, 0.00
199, 0.00, -79734.44, 0.00, -187500.02, -70356.54, -187500.02, 0.00, 0.00, 0.00, 0.00, 0.00
200, 0.00, -84680.50, 0.00, -187500.02, -74908.13, -187500.02, 0.00, 0.00, 0.00, 0.00, 0.00
201, 0.00, -79778.02, 0.00, -187500.02, -73066.04, -187500.02, 0.00, 0.00, 0.00, 0.00, 0.00
202, 0.00, -74010.45, 0.00, -187500.02, -68150.40, -187500.02, 0.00, 0.00, 0.00, 0.00, 0.00
203, 0.00, -78284.59, 0.00, -187500.02, -69416.11, -187500.02, 0.00, 0.00, 0.00, 0.00, 0.00
204, 0.00, -84452.40, 0.00, -187500.02, -74387.72, -187500.02, 0.00, 0.00, 0.00, 0.00, 0.00
205, 0.00, -81082.11, 0.00, -187500.02, -73811.34, -187500.02, 0.00, 0.00, 0.00, 0.00, 0.00
206, 0.00, -74311.10, 0.00, -187500.02, -68687.55, -187500.02, 0.00, 0.00, 0.00, 0.00, 0.00
207, 0.00, -76873.93, 0.00, -187500.02, -68603.47, -187500.02, 0.00, 0.00, 0.00, 0.00, 0.00
208, 0.00, -83735.38, 0.00, -187500.02, -73606.82, -187500.02, 0.00, 0.00, 0.00, 0.00, 0.00
209, 0.00, -82100.28, 0.00, -187500.02, -74286.24, -187500.02, 0.00, 0.00, 0.00, 0.00, 0.00
210, 0.00, -74869.31, 0.00, -187500.02, -69256.27, -187500.02, 0.00, 0.00, 0.00, 0.00, 0.00
211, 0.00, -75601.09, 0.00, -187500.02, -67893.66, -187500.02, 0.00, 0.00, 0.00, 0.00, 0.00
212, 0.00, -82780.17, 0.00, -187500.02, -72661.98, -187500.02, 0.00, 0.00, 0.00, 0.00, 0.00
213, 0.00, -82976.89, 0.00, -187500.02, -74575.23, -187500.02, 0.00, 0.00, 0.00, 0.00, 0.00
214, 0.00, -75745.84, 0.00, -187500.02, -70012.84, -187500.02, 0.00, 0.00, 0.00, 0.00, 0.00
215, 0.00, -74516.69, 0.00, -187500.02, -67396.41, -187500.02, 0.00, 0.00, 0.00, 0.00, 0.00
216, 0.00, -81576.98, 0.00, -187500.02, -71629.00, -187500.02, 0.00, 0.00, 0.00, 0.00, 0.00
217, 0.00, -83694.36, 0.00, -187500.02, -74741.21, -187500.02, 0.00, 0.00, 0.00, 0.00, 0.00
218, 0.00, -76980.91, 0.00, -187500.02, -70973.02, -187500.02, 0.00, 0.00, 0.00, 0.00, 0.00
219, 0.00, -73844.17, 0.00, -187500.02, -67247.92, -187500.02, 0.00, 0.00, 0.00, 0.00, 0.00
220, 0.00, -80176.62, 0.00, -187500.02, -70528.78, -187500.02, 0.00, 0.00, 0.00, 0.00, 0.00
221, 0.00, -84064.04, 0.00, -187500.02, -74620.09, -187500.02, 0.00, 0.00, 0.00, 0.00, 0.00
222, 0.00, -78308.91, 0.00, -187500.02, -71907.91, -187500.02, 0.00, 0.00, 0.00, 0.00, 0.00
223, 0.00, -73486.27, 0.00, -187500.02, -67350.45, -187500.02, 0.00, 0.00, 0.00, 0.00, 0.00
224, 0.00, -78679.61, 0.00, -187500.02, -69484.40, -187500.02, 0.00, 0.00, 0.00, 0.00, 0.00
225, 0.00, -84016.02, 0.00, -187500.02, -74176.83, -187500.02, 0.00, 0.00, 0.00, 0.00, 0.00
226, 0.00, -79620.02, 0.00, -187500.02, -72714.45, -187500.02, 0.00, 0.00, 0.00, 0.00, 0.00
227, 0.00, -73501.27, 0.00, -187500.02, -67698.72, -187500.02, 0.00, 0.00, 0.00, 0.00, 0.00
228, 0.00, -77167.67, 0.00, -187500.02, -68513.80, -187500.02, 0.00, 0.00, 0.00, 0.00, 0.00
229, 0.00, -83564.14, 0.00, -187500.02, -73499.87, -187500.02, 0.00, 0.00, 0.00, 0.00, 0.00
230, 0.00, -80810.88, 0.00, -187500.02, -73347.00, -187500.02, 0.00, 0.00, 0.00, 0.00, 0.00
231, 0.00, -73838.49, 0.00, -187500.02, -68219.60, -187500.02, 0.00, 0.00, 0.00, 0.00, 0.00
232, 0.00, -75743.20, 0.00, -187500.02, -67691.27, -187500.02, 0.00, 0.00, 0.00, 0.00, 0.00
233, 0.00, -82802.95, 0.00, -187500.02, -72683.65, -187500.02, 0.00, 0.00, 0.00, 0.00, 0.00
234, 0.00, -81894.04, 0.00, -187500.02, -73862.50, -187500.02, 0.00, 0.00, 0.00, 0.00, 0.00
235, 0.00, -74616.00, 0.00, -187500.02, -69000.86, -187500.02, 0.00, 0.00, 0.00, 0.00, 0.00
236, 0.00, -74569.04, 0.00, -187500.02, -67132.92, -187500.02, 0.00, 0.00, 0.00, 0.00, 0.00
237, 0.00, -81681.83, 0.00, -187500.02, -71658.75, -187500.02, 0.00, 0.00, 0.00, 0.00, 0.00
238, 0.00, -82662.16, 0.00, -187500.02, -74065.92, -187500.02, 0.00, 0.00, 0.00, 0.00, 0.00
239, 0.00, -75535.91, 0.00, -187500.02, -69771.44, -187500.02, 0.00, 0.00, 0.00, 0.00, 0.00
240, 0.00, -73444.95, 0.00, -187500.02, -66625.50, -187500.02, 0.00, 0.00, 0.00, 0.00, 0.00
241, 0.00, -80150.40, 0.00, -187500.02, -70390.87, -187500.02, 0.00, 0.00, 0.00, 0.00, 0.00
242, 0.00, -82853.69, 0.00, -187500.02, -73757.38, -187500.02, 0.00, 0.00, 0.00, 0.00, 0.00
243, 0.00, -76318.04, 0.00, -187500.02, -70259.11, -187500.02, 0.00, 0.00, 0.00, 0.00, 0.00
244, 0.00, -72377.05, 0.00, -187500.02, -66088.61, -187500.02, 0.00, 0.00, 0.00, 0.00, 0.00
245, 0.00, -78284.59, 0.00, -187500.02, -68901.06, -187500.02, 0.00, 0.00, 0.00, 0.00, 0.00
246, 0.00, -82599.84, 0.00, -187500.02, -73095.32, -187500.02, 0.00, 0.00, 0.00, 0.00, 0.00
247, 0.00, -77149.93, 0.00, -187500.02, -70673.33, -187500.02, 0.00, 0.00, 0.00, 0.00, 0.00
248, 0.00, -71647.89, 0.00, -187500.02, -65790.48, -187500.02, 0.00, 0.00, 0.00, 0.00, 0.00
249, 0.00, -76202.44, 0.00, -187500.02, -67325.04, -187500.02, 0.00, 0.00, 0.00, 0.00, 0.00
250, 0.00, -81838.61, 0.00, -187500.02, -72019.24, -187500.02, 0.00, 0.00, 0.00, 0.00, 0.00
251, 0.00, -77878.19, 0.00, -187500.02, -70885.27, -187500.02, 0.00, 0.00, 0.00, 0.00, 0.00
252, 0.00, -71270.34, 0.00, -187500.02, -65671.93, -187500.02, 0.00, 0.00, 0.00, 0.00, 0.00
253, 0.00, -74208.19, 0.00, -187500.02, -65883.58, -187500.02, 0.00, 0.00, 0.00, 0.00, 0.00
254, 0.00, -80753.19, 0.00, -187500.02, -70755.02, -187500.02, 0.00, 0.00, 0.00, 0.00, 0.00
255, 0.00, -78522.16, 0.00, -187500.02, -70961.22, -187500.02, 0.00, 0.00, 0.00, 0.00, 0.00
0, 0.00, -71277.50, 0.00, -187500.02, -65797.27, -187500.02, 0.00, 0.00, 0.00, 0.00, 0.00
1, 0.00, -72337.22, 0.00, -187500.02, -64622.67, -187500.02, 0.00, 0.00, 0.00, 0.00, 0.00
2, 0.00, -79328.51, 0.00, -187500.02, -69317.16, -187500.02, 0.00, 0.00, 0.00, 0.00, 0.00
3, 0.00, -79046.92, 0.00, -187500.02, -70890.43, -187500.02, 0.00, 0.00, 0.00, 0.00, 0.00
4, 0.00, -71671.09, 0.00, -187500.02, -66108.21, -187500.02, 0.00, 0.00, 0.00, 0.00, 0.00
5, 0.00, -70778.23, 0.00, -187500.02, -63663.27, -187500.02, 0.00, 0.00, 0.00, 0.00, 0.00
6, 0.00, -77770.75, 0.00, -187500.02, -67899.99, -187500.02, 0.00, 0.00, 0.00, 0.00, 0.00
7, 0.00, -79402.00, 0.00, -187500.02, -70661.80, -187500.02, 0.00, 0.00, 0.00, 0.00, 0.00
8, 0.00, -72432.32, 0.00, -187500.02, -66621.43, -187500.02, 0.00, 0.00, 0.00, 0.00, 0.00
9, 0.00, -69626.93, 0.00, -187500.02, -63053.40, -187500.02, 0.00, 0.00, 0.00, 0.00, 0.00
10, 0.00, -76100.58, 0.00, -187500.02, -66502.85, -187500.02, 0.00, 0.00, 0.00, 0.00, 0.00
11, 0.00, -79600.62, 0.00, -187500.02, -70358.22, -187500.02, 0.00, 0.00, 0.00, 0.00, 0.00
12, 0.00, -73550.80, 0.00, -187500.02, -67375.58, -187500.02, 0.00, 0.00, 0.00, 0.00, 0.00
13, 0.00, -69103.34, 0.00, -187500.02, -63009.59, -187500.02, 0.00, 0.00, 0.00, 0.00, 0.00
14, 0.00, -74669.33, 0.00, -187500.02, -65482.59, -187500.02, 0.00, 0.00, 0.00, 0.00, 0.00
15, 0.00, -79772.70, 0.00, -187500.02, -70115.54, -187500.02, 0.00, 0.00, 0.00, 0.00, 0.00
16, 0.00, -75046.36, 0.00, -187500.02, -68378.12, -187500.02, 0.00, 0.00, 0.00, 0.00, 0.00
17, 0.00, -69224.42, 0.00, -187500.02, -63475.06, -187500.02, 0.00, 0.00, 0.00, 0.00, 0.00
18, 0.00, -73383.41, 0.00, -187500.02, -64689.43, -187500.02, 0.00, 0.00, 0.00, 0.00, 0.00
19, 0.00, -79666.38, 0.00, -187500.02, -69728.74, -187500.02, 0.00, 0.00, 0.00, 0.00, 0.00
20, 0.00, -76539.61, 0.00, -187500.02, -69301.70, -187500.02, 0.00, 0.00, 0.00, 0.00, 0.00
21, 0.00, -69761.20, 0.00, -187500.02, -64195.66, -187500.02, 0.00, 0.00, 0.00, 0.00, 0.00
22, 0.00, -72130.26, 0.00, -187500.02, -63982.52, -187500.02, 0.00, 0.00, 0.00, 0.00, 0.00
23, 0.00, -79106.58, 0.00, -187500.02, -69027.55, -187500.02, 0.00, 0.00, 0.00, 0.00, 0.00
24, 0.00, -77715.65, 0.00, -187500.02, -69872.94, -187500.02, 0.00, 0.00, 0.00, 0.00, 0.00
25, 0.00, -70521.45, 0.00, -187500.02, -64965.37, -187500.02, 0.00, 0.00, 0.00, 0.00, 0.00
26, 0.00, -71007.00, 0.00, -187500.02, -63449.07, -187500.02, 0.00, 0.00, 0.00, 0.00, 0.00
27, 0.00, -78194.42, 0.00, -187500.02, -68153.66, -187500.02, 0.00, 0.00, 0.00, 0.00, 0.00
28, 0.00, -78745.41, 0.00, -187500.02, -70306.83, -187500.02, 0.00, 0.00, 0.00, 0.00, 0.00
29, 0.00, -71607.52, 0.00, -187500.02, -65907.23, -187500.02, 0.00, 0.00, 0.00, 0.00, 0.00
30, 0.00, -70078.17, 0.00, -187500.02, -63109.90, -187500.02, 0.00, 0.00, 0.00, 0.00, 0.00
31, 0.00, -77030.19, 0.00, -187500.02, -67172.48, -187500.02, 0.00, 0.00, 0.00, 0.00, 0.00
32, 0.00, -79493.87, 0.00, -187500.02, -70482.91, -187500.02, 0.00, 0.00, 0.00, 0.00, 0.00
33, 0.00, -72909.42, 0.00, -187500.02, -66900.58, -187500.02, 0.00, 0.00, 0.00, 0.00, 0.00
34, 0.00, -69478.54, 0.00, -187500.02, -63036.25, -187500.02, 0.00, 0.00, 0.00, 0.00, 0.00
35, 0.00, -75697.11, 0.00, -187500.02, -66177.97, -187500.02, 0.00, 0.00, 0.00, 0.00, 0.00
36, 0.00, -79793.06, 0.00, -187500.02, -70306.43, -187500.02, 0.00, 0.00, 0.00, 0.00, 0.00
37, 0.00, -74217.96, 0.00, -187500.02, -67789.27, -187500.02, 0.00, 0.00, 0.00, 0.00, 0.00
38, 0.00, -69215.02, 0.00, -187500.02, -63196.34, -187500.02, 0.00, 0.00, 0.00, 0.00, 0.00
39, 0.00, -74178.35, 0.00, -187500.02, -65112.75, -187500.02, 0.00, 0.00, 0.00, 0.00, 0.00
40, 0.00, -79748.70, 0.00, -187500.02, -69914.89, -187500.02, 0.00, 0.00, 0.00, 0.00, 0.00
41, 0.00, -75577.95, 0.00, -187500.02, -68636.91, -187500.02, 0.00, 0.00, 0.00, 0.00, 0.00
42, 0.00, -69327.73, 0.00, -187500.02, -63612.19, -187500.02, 0.00, 0.00, 0.00, 0.00, 0.00
43, 0.00, -72760.29, 0.00, -187500.02, -64240.01, -187500.02, 0.00, 0.00, 0.00, 0.00, 0.00
44, 0.00, -79305.77, 0.00, -187500.02, -69262.53, -187500.02, 0.00, 0.00, 0.00, 0.00, 0.00
45, 0.00, -76790.89, 0.00, -187500.02, -69266.45, -187500.02, 0.00, 0.00, 0.00, 0.00, 0.00
46, 0.00, -69768.22, 0.00, -187500.02, -64181.16, -187500.02, 0.00, 0.00, 0.00, 0.00, 0.00
47, 0.00, -71422.90, 0.00, -187500.02, -63467.91, -187500.02, 0.00, 0.00, 0.00, 0.00, 0.00
48, 0.00, -78470.18, 0.00, -187500.02, -68346.52, -187500.02, 0.00, 0.00, 0.00, 0.00, 0.00
49, 0.00, -77811.16, 0.00, -187500.02, -69684.49, -187500.02, 0.00, 0.00, 0.00, 0.00, 0.00
50, 0.00, -70519.70, 0.00, -187500.02, -64889.39, -187500.02, 0.00, 0.00, 0.00, 0.00, 0.00
51, 0.00, -70166.23, 0.00, -187500.02, -62811.89, -187500.02, 0.00, 0.00, 0.00, 0.00, 0.00
52, 0.00, -77360.88, 0.00, -187500.02, -67346.74, -187500.02, 0.00, 0.00, 0.00, 0.00, 0.00
53, 0.00, -78594.07, 0.00, -187500.02, -69926.52, -187500.02, 0.00, 0.00, 0.00, 0.00, 0.00
54, 0.00, -71589.59, 0.00, -187500.02, -65764.95, -187500.02, 0.00, 0.00, 0.00, 0.00, 0.00
55, 0.00, -69327.45, 0.00, -187500.02, -62540.94, -187500.02, 0.00, 0.00, 0.00, 0.00, 0.00
56, 0.00, -76071.45, 0.00, -187500.02, -66290.80, -187500.02, 0.00, 0.00, 0.00, 0.00, 0.00
57, 0.00, -79114.47, 0.00, -187500.02, -69909.99, -187500.02, 0.00, 0.00, 0.00, 0.00, 0.00
58, 0.00, -72833.76, 0.00, -187500.02, -66664.19, -187500.02, 0.00, 0.00, 0.00, 0.00, 0.00
59, 0.00, -68775.06, 0.00, -187500.02, -62479.63, -187500.02, 0.00, 0.00, 0.00, 0.00, 0.00
60, 0.00, -74601.74, 0.00, -187500.02, -65206.14, -187500.02, 0.00, 0.00, 0.00, 0.00, 0.00
61, 0.00, -79303.88, 0.00, -187500.02, -69675.37, -187500.02, 0.00, 0.00, 0.00, 0.00, 0.00
62, 0.00, -74259.63, 0.00, -187500.02, -67647.93, -187500.02, 0.00, 0.00, 0.00, 0.00, 0.00
63, 0.00, -68736.04, 0.00, -187500.02, -62850.18, -187500.02, 0.00, 0.00, 0.00, 0.00, 0.00
64, 0.00, -73223.58, 0.00, -187500.02, -64353.75, -187500.02, 0.00, 0.00, 0.00, 0.00, 0.00
65, 0.00, -79264.23, 0.00, -187500.02, -69315.71, -187500.02, 0.00, 0.00, 0.00, 0.00, 0.00
66, 0.00, -75736.85, 0.00, -187500.02, -68572.52, -187500.02, 0.00, 0.00, 0.00, 0.00, 0.00
67, 0.00, -69139.84, 0.00, -187500.02, -63491.40, -187500.02, 0.00, 0.00, 0.00, 0.00, 0.00
68, 0.00, -71951.96, 0.00, -187500.02, -63631.26, -187500.02, 0.00, 0.00, 0.00, 0.00, 0.00
69, 0.00, -78825.21, 0.00, -187500.02, -68726.96, -187500.02, 0.00, 0.00, 0.00, 0.00, 0.00
70, 0.00, -77053.26, 0.00, -187500.02, -69312.13, -187500.02, 0.00, 0.00, 0.00, 0.00, 0.00
71, 0.00, -69884.80, 0.00, -187500.02, -64305.05, -187500.02, 0.00, 0.00, 0.00, 0.00, 0.00
72, 0.00, -70735.24, 0.00, -187500.02, -63010.97, -187500.02, 0.00, 0.00, 0.00, 0.00, 0.00
73, 0.00, -77841.18, 0.00, -187500.02, -67750.70, -187500.02, 0.00, 0.00, 0.00, 0.00, 0.00
74, 0.00, -77885.91, 0.00, -187500.02, -69550.52, -187500.02, 0.00, 0.00, 0.00, 0.00, 0.00
75, 0.00, -70639.98, 0.00, -187500.02, -64958.41, -187500.02, 0.00, 0.00, 0.00, 0.00, 0.00
76, 0.00, -69562.23, 0.00, -187500.02, -62429.45, -187500.02, 0.00, 0.00, 0.00, 0.00, 0.00
77, 0.00, -76589.79, 0.00, -187500.02, -66658.73, -187500.02, 0.00, 0.00, 0.00, 0.00, 0.00
78, 0.00, -78538.48, 0.00, -187500.02, -69644.14, -187500.02, 0.00, 0.00, 0.00, 0.00, 0.00
79, 0.00, -71722.23, 0.00, -187500.02, -65782.70, -187500.02, 0.00, 0.00, 0.00, 0.00, 0.00
80, 0.00, -68715.90, 0.00, -187500.02, -62127.36, -187500.02, 0.00, 0.00, 0.00, 0.00, 0.00
81, 0.00, -75102.28, 0.00, -187500.02, -65470.18, -187500.02, 0.00, 0.00, 0.00, 0.00, 0.00
82, 0.00, -78819.53, 0.00, -187500.02, -69421.25, -187500.02, 0.00, 0.00, 0.00, 0.00, 0.00
83, 0.00, -72914.63, 0.00, -187500.02, -66578.67, -187500.02, 0.00, 0.00, 0.00, 0.00, 0.00
84, 0.00, -68193.47, 0.00, -187500.02, -62070.08, -187500.02, 0.00, 0.00, 0.00, 0.00, 0.00
85, 0.00, -73521.97, 0.00, -187500.02, -64314.71, -187500.02, 0.00, 0.00, 0.00, 0.00, 0.00
86, 0.00, -78686.16, 0.00, -187500.02, -68907.37, -187500.02, 0.00, 0.00, 0.00, 0.00, 0.00
87, 0.00, -74036.93, 0.00, -187500.02, -67213.84, -187500.02, 0.00, 0.00, 0.00, 0.00, 0.00
88, 0.00, -68020.73, 0.00, -187500.02, -62238.63, -187500.02, 0.00, 0.00, 0.00, 0.00, 0.00
89, 0.00, -71935.78, 0.00, -187500.02, -63240.93, -187500.02, 0.00, 0.00, 0.00, 0.00, 0.00
90, 0.00, -78278.31, 0.00, -187500.02, -68233.91, -187500.02, 0.00, 0.00, 0.00, 0.00, 0.00
91, 0.00, -75305.23, 0.00, -187500.02, -67912.58, -187500.02, 0.00, 0.00, 0.00, 0.00, 0.00
92, 0.00, -68487.40, 0.00, -187500.02, -62838.11, -187500.02, 0.00, 0.00, 0.00, 0.00, 0.00
93, 0.00, -70698.97, 0.00, -187500.02, -62535.84, -187500.02, 0.00, 0.00, 0.00, 0.00, 0.00
94, 0.00, -77718.16, 0.00, -187500.02, -67559.09, -187500.02, 0.00, 0.00, 0.00, 0.00, 0.00
95, 0.00, -76619.95, 0.00, -187500.02, -68613.10, -187500.02, 0.00, 0.00, 0.00, 0.00, 0.00
96, 0.00, -69463.36, 0.00, -187500.02, -63820.02, -187500.02, 0.00, 0.00, 0.00, 0.00, 0.00
97, 0.00, -69683.38, 0.00, -187500.02, -62139.66, -187500.02, 0.00, 0.00, 0.00, 0.00, 0.00
98, 0.00, -76860.80, 0.00, -187500.02, -66766.76, -187500.02, 0.00, 0.00, 0.00, 0.00, 0.00
99, 0.00, -77732.16, 0.00, -187500.02, -69129.07, -187500.02, 0.00, 0.00, 0.00, 0.00, 0.00
100, 0.00, -70634.37, 0.00, -187500.02, -64825.89, -187500.02, 0.00, 0.00, 0.00, 0.00, 0.00
101, 0.00, -68810.20, 0.00, -187500.02, -61855.48, -187500.02, 0.00, 0.00, 0.00, 0.00, 0.00
102, 0.00, -75627.75, 0.00, -187500.02, -65758.36, -187500.02, 0.00, 0.00, 0.00, 0.00, 0.00
103, 0.00, -78252.54, 0.00, -187500.02, -69122.81, -187500.02, 0.00, 0.00, 0.00, 0.00, 0.00
104, 0.00, -71716.17, 0.00, -187500.02, -65624.77, -187500.02, 0.00, 0.00, 0.00, 0.00, 0.00
105, 0.00, -67959.29, 0.00, -187500.02, -61562.16, -187500.02, 0.00, 0.00, 0.00, 0.00, 0.00
106, 0.00, -73949.45, 0.00, -187500.02, -64488.71, -187500.02, 0.00, 0.00, 0.00, 0.00, 0.00
107, 0.00, -78195.23, 0.00, -187500.02, -68660.60, -187500.02, 0.00, 0.00, 0.00, 0.00, 0.00
108, 0.00, -72730.14, 0.00, -187500.02, -66245.90, -187500.02, 0.00, 0.00, 0.00, 0.00, 0.00
109, 0.00, -67477.88, 0.00, -187500.02, -61534.55, -187500.02, 0.00, 0.00, 0.00, 0.00, 0.00
110, 0.00, -72208.90, 0.00, -187500.02, -63238.67, -187500.02, 0.00, 0.00, 0.00, 0.00, 0.00
111, 0.00, -77839.75, 0.00, -187500.02, -67979.19, -187500.02, 0.00, 0.00, 0.00, 0.00, 0.00
112, 0.00, -73835.95, 0.00, -187500.02, -66827.69, -187500.02, 0.00, 0.00, 0.00, 0.00, 0.00
113, 0.00, -67397.68, 0.00, -187500.02, -61733.64, -187500.02, 0.00, 0.00, 0.00, 0.00, 0.00
114, 0.00, -70620.98, 0.00, -187500.02, -62198.46, -187500.02, 0.00, 0.00, 0.00, 0.00, 0.00
115, 0.00, -77253.26, 0.00, -187500.02, -67202.35, -187500.02, 0.00, 0.00, 0.00, 0.00, 0.00
116, 0.00, -74978.25, 0.00, -187500.02, -67388.07, -187500.02, 0.00, 0.00, 0.00, 0.00, 0.00
117, 0.00, -67851.65, 0.00, -187500.02, -62284.03, -187500.02, 0.00, 0.00, 0.00, 0.00, 0.00
118, 0.00, -69180.23, 0.00, -187500.02, -61327.64, -187500.02, 0.00, 0.00, 0.00, 0.00, 0.00
119, 0.00, -76230.29, 0.00, -187500.02, -66128.38, -187500.02, 0.00, 0.00, 0.00, 0.00, 0.00
120, 0.00, -75768.97, 0.00, -187500.02, -67566.68, -187500.02, 0.00, 0.00, 0.00, 0.00, 0.00
121, 0.00, -68467.77, 0.00, -187500.02, -62829.45, -187500.02, 0.00, 0.00, 0.00, 0.00, 0.00
122, 0.00, -67806.85, 0.00, -187500.02, -60545.20, -187500.02, 0.00, 0.00, 0.00, 0.00, 0.00
123, 0.00, -74873.49, 0.00, -187500.02, -64872.85, -187500.02, 0.00, 0.00, 0.00, 0.00, 0.00
124, 0.00, -76329.87, 0.00, -187500.02, -67573.88, -187500.02, 0.00, 0.00, 0.00, 0.00, 0.00
125, 0.00, -69375.77, 0.00, -187500.02, -63513.13, -187500.02, 0.00, 0.00, 0.00, 0.00, 0.00
126, 0.00, -66775.97, 0.00, -187500.02, -60077.91, -187500.02, 0.00, 0.00, 0.00, 0.00, 0.00
127, 0.00, -73340.88, 0.00, -187500.02, -63631.57, -187500.02, 0.00, 0.00, 0.00, 0.00, 0.00
128, 0.00, -76589.30, 0.00, -187500.02, -67325.15, -187500.02, 0.00, 0.00, 0.00, 0.00, 0.00
129, 0.00, -70377.86, 0.00, -187500.02, -64160.39, -187500.02, 0.00, 0.00, 0.00, 0.00, 0.00
130, 0.00, -66021.24, 0.00, -187500.02, -59804.71, -187500.02, 0.00, 0.00, 0.00, 0.00, 0.00
131, 0.00, -71604.84, 0.00, -187500.02, -62297.37, -187500.02, 0.00, 0.00, 0.00, 0.00, 0.00
132, 0.00, -76441.58, 0.00, -187500.02, -66745.21, -187500.02, 0.00, 0.00, 0.00, 0.00, 0.00
133, 0.00, -71460.94, 0.00, -187500.02, -64772.02, -187500.02, 0.00, 0.00, 0.00, 0.00, 0.00
134, 0.00, -65640.79, 0.00, -187500.02, -59798.43, -187500.02, 0.00, 0.00, 0.00, 0.00, 0.00
135, 0.00, -69843.30, 0.00, -187500.02, -61041.16, -187500.02, 0.00, 0.00, 0.00, 0.00, 0.00
136, 0.00, -75910.34, 0.00, -187500.02, -65932.21, -187500.02, 0.00, 0.00, 0.00, 0.00, 0.00
137, 0.00, -72492.27, 0.00, -187500.02, -65248.79, -187500.02, 0.00, 0.00, 0.00, 0.00, 0.00
138, 0.00, -65705.86, 0.00, -187500.02, -60089.15, -187500.02, 0.00, 0.00, 0.00, 0.00, 0.00
139, 0.00, -68195.91, 0.00, -187500.02, -59971.18, -187500.02, 0.00, 0.00, 0.00, 0.00, 0.00
140, 0.00, -75020.61, 0.00, -187500.02, -64933.94, -187500.02, 0.00, 0.00, 0.00, 0.00, 0.00
141, 0.00, -73392.27, 0.00, -187500.02, -65584.48, -187500.02, 0.00, 0.00, 0.00, 0.00, 0.00
142, 0.00, -66096.12, 0.00, -187500.02, -60520.32, -187500.02, 0.00, 0.00, 0.00, 0.00, 0.00
143, 0.00, -66678.72, 0.00, -187500.02, -59046.64, -187500.02, 0.00, 0.00, 0.00, 0.00, 0.00
144, 0.00, -73821.28, 0.00, -187500.02, -63747.98, -187500.02, 0.00, 0.00, 0.00, 0.00, 0.00
145, 0.00, -74122.31, 0.00, -187500.02, -65715.49, -187500.02, 0.00, 0.00, 0.00, 0.00, 0.00
146, 0.00, -66904.67, 0.00, -187500.02, -61210.83, -187500.02, 0.00, 0.00, 0.00, 0.00, 0.00
147, 0.00, -65588.98, 0.00, -187500.02, -58566.39, -187500.02, 0.00, 0.00, 0.00, 0.00, 0.00
148, 0.00, -72560.53, 0.00, -187500.02, -62692.95, -187500.02, 0.00, 0.00, 0.00, 0.00, 0.00
149, 0.00, -74792.87, 0.00, -187500.02, -65851.63, -187500.02, 0.00, 0.00, 0.00, 0.00, 0.00
150, 0.00, -68135.96, 0.00, -187500.02, -62192.30, -187500.02, 0.00, 0.00, 0.00, 0.00, 0.00
151, 0.00, -64915.63, 0.00, -187500.02, -58452.85, -187500.02, 0.00, 0.00, 0.00, 0.00, 0.00
152, 0.00, -71204.32, 0.00, -187500.02, -61651.92, -187500.02, 0.00, 0.00, 0.00, 0.00, 0.00
153, 0.00, -75116.21, 0.00, -187500.02, -65700.83, -187500.02, 0.00, 0.00, 0.00, 0.00, 0.00
154, 0.00, -69394.03, 0.00, -187500.02, -63033.75, -187500.02, 0.00, 0.00, 0.00, 0.00, 0.00
155, 0.00, -64528.01, 0.00, -187500.02, -58488.72, -187500.02, 0.00, 0.00, 0.00, 0.00, 0.00
156, 0.00, -69723.16, 0.00, -187500.02, -60613.55, -187500.02, 0.00, 0.00, 0.00, 0.00, 0.00
157, 0.00, -75055.73, 0.00, -187500.02, -65272.12, -187500.02, 0.00, 0.00, 0.00, 0.00, 0.00
158, 0.00, -70678.09, 0.00, -187500.02, -63809.94, -187500.02, 0.00, 0.00, 0.00, 0.00, 0.00
159, 0.00, -64492.87, 0.00, -187500.02, -58759.71, -187500.02, 0.00, 0.00, 0.00, 0.00, 0.00
160, 0.00, -68131.52, 0.00, -187500.02, -59536.98, -187500.02, 0.00, 0.00, 0.00, 0.00, 0.00
161, 0.00, -74505.42, 0.00, -187500.02, -64486.19, -187500.02, 0.00, 0.00, 0.00, 0.00, 0.00
162, 0.00, -71760.77, 0.00, -187500.02, -64325.12, -187500.02, 0.00, 0.00, 0.00, 0.00, 0.00
163, 0.00, -64785.12, 0.00, -187500.02, -59201.75, -187500.02, 0.00, 0.00, 0.00, 0.00, 0.00
164, 0.00, -66642.39, 0.00, -187500.02, -58627.30, -187500.02, 0.00, 0.00, 0.00, 0.00, 0.00
165, 0.00, -73657.38, 0.00, -187500.02, -63533.22, -187500.02, 0.00, 0.00, 0.00, 0.00, 0.00
166, 0.00, -72799.05, 0.00, -187500.02, -64735.03, -187500.02, 0.00, 0.00, 0.00, 0.00, 0.00
167, 0.00, -65579.99, 0.00, -187500.02, -59952.88, -187500.02, 0.00, 0.00, 0.00, 0.00, 0.00
168, 0.00, -65527.33, 0.00, -187500.02, -58098.82, -187500.02, 0.00, 0.00, 0.00, 0.00, 0.00
169, 0.00, -72732.82, 0.00, -187500.02, -62689.98, -187500.02, 0.00, 0.00, 0.00, 0.00, 0.00
170, 0.00, -73873.54, 0.00, -187500.02, -65209.11, -187500.02, 0.00, 0.00, 0.00, 0.00, 0.00
171, 0.00, -66889.91, 0.00, -187500.02, -61043.82, -187500.02, 0.00, 0.00, 0.00, 0.00, 0.00
172, 0.00, -64913.78, 0.00, -187500.02, -58020.43, -187500.02, 0.00, 0.00, 0.00, 0.00, 0.00
173, 0.00, -71779.65, 0.00, -187500.02, -61930.00, -187500.02, 0.00, 0.00, 0.00, 0.00, 0.00
174, 0.00, -74789.65, 0.00, -187500.02, -65552.84, -187500.02, 0.00, 0.00, 0.00, 0.00, 0.00
175, 0.00, -68520.55, 0.00, -187500.02, -62319.30, -187500.02, 0.00, 0.00, 0.00, 0.00, 0.00
176, 0.00, -64747.95, 0.00, -187500.02, -58337.22, -187500.02, 0.00, 0.00, 0.00, 0.00, 0.00
177, 0.00, -70781.31, 0.00, -187500.02, -61281.78, -187500.02, 0.00, 0.00, 0.00, 0.00, 0.00
178, 0.00, -75437.16, 0.00, -187500.02, -65740.08, -187500.02, 0.00, 0.00, 0.00, 0.00, 0.00
179, 0.00, -70264.72, 0.00, -187500.02, -63600.41, -187500.02, 0.00, 0.00, 0.00, 0.00, 0.00
180, 0.00, -64938.05, 0.00, -187500.02, -58914.70, -187500.02, 0.00, 0.00, 0.00, 0.00, 0.00
181, 0.00, -69619.00, 0.00, -187500.02, -60601.86, -187500.02, 0.00, 0.00, 0.00, 0.00, 0.00
182, 0.00, -75512.51, 0.00, -187500.02, -65501.61, -187500.02, 0.00, 0.00, 0.00, 0.00, 0.00
183, 0.00, -71811.33, 0.00, -187500.02, -64610.66, -187500.02, 0.00, 0.00, 0.00, 0.00, 0.00
184, 0.00, -65365.57, 0.00, -187500.02, -59610.85, -187500.02, 0.00, 0.00, 0.00, 0.00, 0.00
185, 0.00, -68450.09, 0.00, -187500.02, -59993.76, -187500.02, 0.00, 0.00, 0.00, 0.00, 0.00
186, 0.00, -75286.10, 0.00, -187500.02, -65107.70, -187500.02, 0.00, 0.00, 0.00, 0.00, 0.00
187, 0.00, -73333.70, 0.00, -187500.02, -65550.71, -187500.02, 0.00, 0.00, 0.00, 0.00, 0.00
188, 0.00, -66237.31, 0.00, -187500.02, -60563.43, -187500.02, 0.00, 0.00, 0.00, 0.00, 0.00
189, 0.00, -67413.17, 0.00, -187500.02, -59529.27, -187500.02, 0.00, 0.00, 0.00, 0.00, 0.00
190, 0.00, -74618.84, 0.00, -187500.02, -64422.64, -187500.02, 0.00, 0.00, 0.00, 0.00, 0.00
191, 0.00, -74481.95, 0.00, -187500.02, -66133.04, -187500.02, 0.00, 0.00, 0.00, 0.00, 0.00
192, 0.00, -67294.55, 0.00, -187500.02, -61541.23, -187500.02, 0.00, 0.00, 0.00, 0.00, 0.00
193, 0.00, -66516.95, 0.00, -187500.02, -59227.98, -187500.02, 0.00, 0.00, 0.00, 0.00, 0.00
194, 0.00, -73627.16, 0.00, -187500.02, -63578.48, -187500.02, 0.00, 0.00, 0.00, 0.00, 0.00
195, 0.00, -75371.94, 0.00, -187500.02, -66451.40, -187500.02, 0.00, 0.00, 0.00, 0.00, 0.00
196, 0.00, -68581.16, 0.00, -187500.02, -62573.28, -187500.02, 0.00, 0.00, 0.00, 0.00, 0.00
197, 0.00, -65809.32, 0.00, -187500.02, -59089.05, -187500.02, 0.00, 0.00, 0.00, 0.00, 0.00
198, 0.00, -72311.16, 0.00, -187500.02, -62569.71, -187500.02, 0.00, 0.00, 0.00, 0.00, 0.00
199, 0.00, -75921.74, 0.00, -187500.02, -66474.91, -187500.02, 0.00, 0.00, 0.00, 0.00, 0.00
200, 0.00, -70014.55, 0.00, -187500.02, -63631.59, -187500.02, 0.00, 0.00, 0.00, 0.00, 0.00
201, 0.00, -65541.99, 0.00, -187500.02, -59305.95, -187500.02, 0.00, 0.00, 0.00, 0.00, 0.00
202, 0.00, -71070.19, 0.00, -187500.02, -61765.31, -187500.02, 0.00, 0.00, 0.00, 0.00, 0.00
203, 0.00, -76207.98, 0.00, -187500.02, -66389.13, -187500.02, 0.00, 0.00, 0.00, 0.00, 0.00
204, 0.00, -71522.16, 0.00, -187500.02, -64663.91, -187500.02, 0.00, 0.00, 0.00, 0.00, 0.00
205, 0.00, -65669.34, 0.00, -187500.02, -59775.31, -187500.02, 0.00, 0.00, 0.00, 0.00, 0.00
206, 0.00, -69710.87, 0.00, -187500.02, -60917.46, -187500.02, 0.00, 0.00, 0.00, 0.00, 0.00
207, 0.00, -75974.83, 0.00, -187500.02, -65911.41, -187500.02, 0.00, 0.00, 0.00, 0.00, 0.00
208, 0.00, -72920.80, 0.00, -187500.02, -65526.08, -187500.02, 0.00, 0.00, 0.00, 0.00, 0.00
209, 0.00, -66102.60, 0.00, -187500.02, -60425.61, -187500.02, 0.00, 0.00, 0.00, 0.00, 0.00
210, 0.00, -68351.32, 0.00, -187500.02, -60143.18, -187500.02, 0.00, 0.00, 0.00, 0.00, 0.00
211, 0.00, -75258.97, 0.00, -187500.02, -65100.71, -187500.02, 0.00, 0.00, 0.00, 0.00, 0.00
212, 0.00, -73937.69, 0.00, -187500.02, -65964.51, -187500.02, 0.00, 0.00, 0.00, 0.00, 0.00
213, 0.00, -66676.39, 0.00, -187500.02, -61009.15, -187500.02, 0.00, 0.00, 0.00, 0.00, 0.00
214, 0.00, -66989.77, 0.00, -187500.02, -59376.25, -187500.02, 0.00, 0.00, 0.00, 0.00, 0.00
215, 0.00, -74105.89, 0.00, -187500.02, -63986.70, -187500.02, 0.00, 0.00, 0.00, 0.00, 0.00
216, 0.00, -74626.62, 0.00, -187500.02, -66077.66, -187500.02, 0.00, 0.00, 0.00, 0.00, 0.00
217, 0.00, -67444.13, 0.00, -187500.02, -61657.96, -187500.02, 0.00, 0.00, 0.00, 0.00, 0.00
218, 0.00, -65809.05, 0.00, -187500.02, -58806.50, -187500.02, 0.00, 0.00, 0.00, 0.00, 0.00
219, 0.00, -72672.13, 0.00, -187500.02, -62768.75, -187500.02, 0.00, 0.00, 0.00, 0.00, 0.00
220, 0.00, -75048.80, 0.00, -187500.02, -65982.82, -187500.02, 0.00, 0.00, 0.00, 0.00, 0.00
221, 0.00, -68424.41, 0.00, -187500.02, -62376.47, -187500.02, 0.00, 0.00, 0.00, 0.00, 0.00
222, 0.00, -64904.14, 0.00, -187500.02, -58450.59, -187500.02, 0.00, 0.00, 0.00, 0.00, 0.00
223, 0.00, -71028.52, 0.00, -187500.02, -61498.18, -187500.02, 0.00, 0.00, 0.00, 0.00, 0.00
224, 0.00, -75052.33, 0.00, -187500.02, -65548.43, -187500.02, 0.00, 0.00, 0.00, 0.00, 0.00
225, 0.00, -69430.71, 0.00, -187500.02, -62977.13, -187500.02, 0.00, 0.00, 0.00, 0.00, 0.00
226, 0.00, -64298.46, 0.00, -187500.02, -58290.64, -187500.02, 0.00, 0.00, 0.00, 0.00, 0.00
227, 0.00, -69171.77, 0.00, -187500.02, -60115.21, -187500.02, 0.00, 0.00, 0.00, 0.00, 0.00
228, 0.00, -74612.24, 0.00, -187500.02, -64772.45, -187500.02, 0.00, 0.00, 0.00, 0.00, 0.00
229, 0.00, -70384.01, 0.00, -187500.02, -63424.35, -187500.02, 0.00, 0.00, 0.00, 0.00, 0.00
230, 0.00, -64013.79, 0.00, -187500.02, -58316.23, -187500.02, 0.00, 0.00, 0.00, 0.00, 0.00
231, 0.00, -67333.76, 0.00, -187500.02, -58826.28, -187500.02, 0.00, 0.00, 0.00, 0.00, 0.00
232, 0.00, -73815.20, 0.00, -187500.02, -63744.89, -187500.02, 0.00, 0.00, 0.00, 0.00, 0.00
233, 0.00, -71274.80, 0.00, -187500.02, -63717.94, -187500.02, 0.00, 0.00, 0.00, 0.00, 0.00
234, 0.00, -64142.51, 0.00, -187500.02, -58564.00, -187500.02, 0.00, 0.00, 0.00, 0.00, 0.00
235, 0.00, -65615.96, 0.00, -187500.02, -57698.70, -187500.02, 0.00, 0.00, 0.00, 0.00, 0.00
236, 0.00, -72631.16, 0.00, -187500.02, -62521.09, -187500.02, 0.00, 0.00, 0.00, 0.00, 0.00
237, 0.00, -71962.87, 0.00, -187500.02, -63827.50, -187500.02, 0.00, 0.00, 0.00, 0.00, 0.00
238, 0.00, -64638.16, 0.00, -187500.02, -59012.89, -187500.02, 0.00, 0.00, 0.00, 0.00, 0.00
239, 0.00, -64194.52, 0.00, -187500.02, -56870.05, -187500.02, 0.00, 0.00, 0.00, 0.00, 0.00
240, 0.00, -71231.74, 0.00, -187500.02, -61225.74, -187500.02, 0.00, 0.00, 0.00, 0.00, 0.00
241, 0.00, -72463.52, 0.00, -187500.02, -63751.24, -187500.02, 0.00, 0.00, 0.00, 0.00, 0.00
242, 0.00, -65484.17, 0.00, -187500.02, -59650.25, -187500.02, 0.00, 0.00, 0.00, 0.00, 0.00
243, 0.00, -63150.20, 0.00, -187500.02, -56406.57, -187500.02, 0.00, 0.00, 0.00, 0.00, 0.00
244, 0.00, -69829.57, 0.00, -187500.02, -60086.16, -187500.02, 0.00, 0.00, 0.00, 0.00, 0.00
245, 0.00, -72987.61, 0.00, -187500.02, -63745.03, -187500.02, 0.00, 0.00, 0.00, 0.00, 0.00
246, 0.00, -66783.03, 0.00, -187500.02, -60596.56, -187500.02, 0.00, 0.00, 0.00, 0.00, 0.00
247, 0.00, -62722.32, 0.00, -187500.02, -56460.66, -187500.02, 0.00, 0.00, 0.00, 0.00, 0.00
248, 0.00, -68499.20, 0.00, -187500.02, -59129.86, -187500.02, 0.00, 0.00, 0.00, 0.00, 0.00
249, 0.00, -73269.28, 0.00, -187500.02, -63572.58, -187500.02, 0.00, 0.00, 0.00, 0.00, 0.00
250, 0.00, -68233.19, 0.00, -187500.02, -61562.07, -187500.02, 0.00, 0.00, 0.00, 0.00, 0.00
251, 0.00, -62671.72, 0.00, -187500.02, -56768.29, -187500.02, 0.00, 0.00, 0.00, 0.00, 0.00
252, 0.00, -67103.69, 0.00, -187500.02, -58198.40, -187500.02, 0.00, 0.00, 0.00, 0.00, 0.00
253, 0.00, -73116.53, 0.00, -187500.02, -63111.40, -187500.02, 0.00, 0.00, 0.00, 0.00, 0.00
254, 0.00, -69591.53, 0.00, -187500.02, -62357.25, -187500.02, 0.00, 0.00, 0.00, 0.00, 0.00
255, 0.00, -62987.28, 0.00, -187500.02, -57294.89, -187500.02, 0.00, 0.00, 0.00, 0.00, 0.00
0, 0.00, -65739.30, 0.00, -187500.02, -57377.29, -187500.02, 0.00, 0.00, 0.00, 0.00, 0.00
1, 0.00, -72563.46, 0.00, -187500.02, -62405.09, -187500.02, 0.00, 0.00, 0.00, 0.00, 0.00
2, 0.00, -70816.38, 0.00, -187500.02, -62996.09, -187500.02, 0.00, 0.00, 0.00, 0.00, 0.00
3, 0.00, -63677.77, 0.00, -187500.02, -58035.05, -187500.02, 0.00, 0.00, 0.00, 0.00, 0.00
4, 0.00, -64557.27, 0.00, -187500.02, -56804.39, -187500.02, 0.00, 0.00, 0.00, 0.00, 0.00
5, 0.00, -71692.57, 0.00, -187500.02, -61549.21, -187500.02, 0.00, 0.00, 0.00, 0.00, 0.00
6, 0.00, -71852.98, 0.00, -187500.02, -63433.04, -187500.02, 0.00, 0.00, 0.00, 0.00, 0.00
7, 0.00, -64664.80, 0.00, -187500.02, -58918.57, -187500.02, 0.00, 0.00, 0.00, 0.00, 0.00
8, 0.00, -63539.10, 0.00, -187500.02, -56377.36, -187500.02, 0.00, 0.00, 0.00, 0.00, 0.00
9, 0.00, -70521.23, 0.00, -187500.02, -60542.27, -187500.02, 0.00, 0.00, 0.00, 0.00, 0.00
10, 0.00, -72628.73, 0.00, -187500.02, -63646.25, -187500.02, 0.00, 0.00, 0.00, 0.00, 0.00
11, 0.00, -65890.05, 0.00, -187500.02, -59877.39, -187500.02, 0.00, 0.00, 0.00, 0.00, 0.00
12, 0.00, -62867.23, 0.00, -187500.02, -56262.78, -187500.02, 0.00, 0.00, 0.00, 0.00, 0.00
13, 0.00, -69225.83, 0.00, -187500.02, -59571.69, -187500.02, 0.00, 0.00, 0.00, 0.00, 0.00
14, 0.00, -73035.82, 0.00, -187500.02, -63566.01, -187500.02, 0.00, 0.00, 0.00, 0.00, 0.00
15, 0.00, -67248.55, 0.00, -187500.02, -60840.53, -187500.02, 0.00, 0.00, 0.00, 0.00, 0.00
16, 0.00, -62539.11, 0.00, -187500.02, -56384.42, -187500.02, 0.00, 0.00, 0.00, 0.00, 0.00
17, 0.00, -67793.04, 0.00, -187500.02, -58571.76, -187500.02, 0.00, 0.00, 0.00, 0.00, 0.00
18, 0.00, -73060.50, 0.00, -187500.02, -63212.50, -187500.02, 0.00, 0.00, 0.00, 0.00, 0.00
19, 0.00, -68579.93, 0.00, -187500.02, -61681.09, -187500.02, 0.00, 0.00, 0.00, 0.00, 0.00
20, 0.00, -62554.17, 0.00, -187500.02, -56728.37, -187500.02, 0.00, 0.00, 0.00, 0.00, 0.00
21, 0.00, -66368.27, 0.00, -187500.02, -57662.74, -187500.02, 0.00, 0.00, 0.00, 0.00, 0.00
22, 0.00, -72716.26, 0.00, -187500.02, -62629.32, -187500.02, 0.00, 0.00, 0.00, 0.00, 0.00
23, 0.00, -69894.88, 0.00, -187500.02, -62427.28, -187500.02, 0.00, 0.00, 0.00, 0.00, 0.00
24, 0.00, -63000.85, 0.00, -187500.02, -57328.56, -187500.02, 0.00, 0.00, 0.00, 0.00, 0.00
25, 0.00, -65011.12, 0.00, -187500.02, -56895.18, -187500.02, 0.00, 0.00, 0.00, 0.00, 0.00
26, 0.00, -72016.24, 0.00, -187500.02, -61851.84, -187500.02, 0.00, 0.00, 0.00, 0.00, 0.00
27, 0.00, -70946.45, 0.00, -187500.02, -62910.30, -187500.02, 0.00, 0.00, 0.00, 0.00, 0.00
28, 0.00, -63687.74, 0.00, -187500.02, -58043.77, -187500.02, 0.00, 0.00, 0.00, 0.00, 0.00
29, 0.00, -63793.93, 0.00, -187500.02, -56277.27, -187500.02, 0.00, 0.00, 0.00, 0.00, 0.00
30, 0.00, -70972.98, 0.00, -187500.02, -60867.42, -187500.02, 0.00, 0.00, 0.00, 0.00, 0.00
31, 0.00, -71749.45, 0.00, -187500.02, -63133.15, -187500.02, 0.00, 0.00, 0.00, 0.00, 0.00
32, 0.00, -64656.93, 0.00, -187500.02, -58838.20, -187500.02, 0.00, 0.00, 0.00, 0.00, 0.00
33, 0.00, -62808.96, 0.00, -187500.02, -55865.70, -187500.02, 0.00, 0.00, 0.00, 0.00, 0.00
34, 0.00, -69660.57, 0.00, -187500.02, -59777.32, -187500.02, 0.00, 0.00, 0.00, 0.00, 0.00
35, 0.00, -72314.80, 0.00, -187500.02, -63152.86, -187500.02, 0.00, 0.00, 0.00, 0.00, 0.00
36, 0.00, -65910.24, 0.00, -187500.02, -59771.67, -187500.02, 0.00, 0.00, 0.00, 0.00, 0.00
37, 0.00, -62288.68, 0.00, -187500.02, -55870.42, -187500.02, 0.00, 0.00, 0.00, 0.00, 0.00
38, 0.00, -68364.38, 0.00, -187500.02, -58852.01, -187500.02, 0.00, 0.00, 0.00, 0.00, 0.00
39, 0.00, -72850.68, 0.00, -187500.02, -63221.10, -187500.02, 0.00, 0.00, 0.00, 0.00, 0.00
40, 0.00, -67606.38, 0.00, -187500.02, -61014.56, -187500.02, 0.00, 0.00, 0.00, 0.00, 0.00
41, 0.00, -62422.52, 0.00, -187500.02, -56394.05, -187500.02, 0.00, 0.00, 0.00, 0.00, 0.00
42, 0.00, -67306.20, 0.00, -187500.02, -58259.30, -187500.02, 0.00, 0.00, 0.00, 0.00, 0.00
43, 0.00, -73184.80, 0.00, -187500.02, -63198.71, -187500.02, 0.00, 0.00, 0.00, 0.00, 0.00
44, 0.00, -69402.66, 0.00, -187500.02, -62245.49, -187500.02, 0.00, 0.00, 0.00, 0.00, 0.00
45, 0.00, -63021.64, 0.00, -187500.02, -57248.71, -187500.02, 0.00, 0.00, 0.00, 0.00, 0.00
46, 0.00, -66194.31, 0.00, -187500.02, -57689.11, -187500.02, 0.00, 0.00, 0.00, 0.00, 0.00
47, 0.00, -72912.77, 0.00, -187500.02, -62753.30, -187500.02, 0.00, 0.00, 0.00, 0.00, 0.00
48, 0.00, -70793.60, 0.00, -187500.02, -63077.36, -187500.02, 0.00, 0.00, 0.00, 0.00, 0.00
49, 0.00, -63713.40, 0.00, -187500.02, -58059.14, -187500.02, 0.00, 0.00, 0.00, 0.00, 0.00
50, 0.00, -65026.74, 0.00, -187500.02, -57120.20, -187500.02, 0.00, 0.00, 0.00, 0.00, 0.00
51, 0.00, -72130.13, 0.00, -187500.02, -61959.41, -187500.02, 0.00, 0.00, 0.00, 0.00, 0.00
52, 0.00, -71768.14, 0.00, -187500.02, -63485.48, -187500.02, 0.00, 0.00, 0.00, 0.00, 0.00
53, 0.00, -64493.99, 0.00, -187500.02, -58794.99, -187500.02, 0.00, 0.00, 0.00, 0.00, 0.00
54, 0.00, -63816.15, 0.00, -187500.02, -56543.32, -187500.02, 0.00, 0.00, 0.00, 0.00, 0.00
55, 0.00, -70915.47, 0.00, -187500.02, -60896.77, -187500.02, 0.00, 0.00, 0.00, 0.00, 0.00
56, 0.00, -72517.30, 0.00, -187500.02, -63678.46, -187500.02, 0.00, 0.00, 0.00, 0.00, 0.00
57, 0.00, -65605.20, 0.00, -187500.02, -59677.01, -187500.02, 0.00, 0.00, 0.00, 0.00, 0.00
58, 0.00, -63007.73, 0.00, -187500.02, -56291.10, -187500.02, 0.00, 0.00, 0.00, 0.00, 0.00
59, 0.00, -69668.35, 0.00, -187500.02, -59902.74, -187500.02, 0.00, 0.00, 0.00, 0.00, 0.00
60, 0.00, -73106.34, 0.00, -187500.02, -63724.69, -187500.02, 0.00, 0.00, 0.00, 0.00, 0.00
61, 0.00, -67087.13, 0.00, -187500.02, -60756.67, -187500.02, 0.00, 0.00, 0.00, 0.00, 0.00
62, 0.00, -62820.02, 0.00, -187500.02, -56527.43, -187500.02, 0.00, 0.00, 0.00, 0.00, 0.00
63, 0.00, -68561.42, 0.00, -187500.02, -59135.47, -187500.02, 0.00, 0.00, 0.00, 0.00, 0.00
64, 0.00, -73663.30, 0.00, -187500.02, -63815.48, -187500.02, 0.00, 0.00, 0.00, 0.00, 0.00
65, 0.00, -68945.61, 0.00, -187500.02, -62089.68, -187500.02, 0.00, 0.00, 0.00, 0.00, 0.00
66, 0.00, -63231.32, 0.00, -187500.02, -57258.17, -187500.02, 0.00, 0.00, 0.00, 0.00, 0.00
67, 0.00, -67593.51, 0.00, -187500.02, -58641.83, -187500.02, 0.00, 0.00, 0.00, 0.00, 0.00
68, 0.00, -73880.02, 0.00, -187500.02, -63723.86, -187500.02, 0.00, 0.00, 0.00, 0.00, 0.00
69, 0.00, -70707.04, 0.00, -187500.02, -63277.21, -187500.02, 0.00, 0.00, 0.00, 0.00, 0.00
70, 0.00, -64059.74, 0.00, -187500.02, -58278.02, -187500.02, 0.00, 0.00, 0.00, 0.00, 0.00
71, 0.00, -66604.95, 0.00, -187500.02, -58241.45, -187500.02, 0.00, 0.00, 0.00, 0.00, 0.00
72, 0.00, -73602.52, 0.00, -187500.02, -63326.04, -187500.02, 0.00, 0.00, 0.00, 0.00, 0.00
73, 0.00, -72249.71, 0.00, -187500.02, -64223.69, -187500.02, 0.00, 0.00, 0.00, 0.00, 0.00
74, 0.00, -65039.30, 0.00, -187500.02, -59307.80, -187500.02, 0.00, 0.00, 0.00, 0.00, 0.00
75, 0.00, -65632.85, 0.00, -187500.02, -57881.47, -187500.02, 0.00, 0.00, 0.00, 0.00, 0.00
76, 0.00, -72918.01, 0.00, -187500.02, -62677.24, -187500.02, 0.00, 0.00, 0.00, 0.00, 0.00
77, 0.00, -73506.93, 0.00, -187500.02, -64884.03, -187500.02, 0.00, 0.00, 0.00, 0.00, 0.00
78, 0.00, -66437.16, 0.00, -187500.02, -60549.00, -187500.02, 0.00, 0.00, 0.00, 0.00, 0.00
79, 0.00, -65139.08, 0.00, -187500.02, -57949.42, -187500.02, 0.00, 0.00, 0.00, 0.00, 0.00
80, 0.00, -72224.09, 0.00, -187500.02, -62153.16, -187500.02, 0.00, 0.00, 0.00, 0.00, 0.00
81, 0.00, -74719.35, 0.00, -187500.02, -65516.70, -187500.02, 0.00, 0.00, 0.00, 0.00, 0.00
82, 0.00, -68289.74, 0.00, -187500.02, -62072.71, -187500.02, 0.00, 0.00, 0.00, 0.00, 0.00
83, 0.00, -65128.49, 0.00, -187500.02, -58423.08, -187500.02, 0.00, 0.00, 0.00, 0.00, 0.00
84, 0.00, -71619.08, 0.00, -187500.02, -61830.22, -187500.02, 0.00, 0.00, 0.00, 0.00, 0.00
85, 0.00, -75919.48, 0.00, -187500.02, -66182.48, -187500.02, 0.00, 0.00, 0.00, 0.00, 0.00
86, 0.00, -70523.06, 0.00, -187500.02, -63833.52, -187500.02, 0.00, 0.00, 0.00, 0.00, 0.00
87, 0.00, -65762.67, 0.00, -187500.02, -59447.39, -187500.02, 0.00, 0.00, 0.00, 0.00, 0.00
88, 0.00, -71073.18, 0.00, -187500.02, -61702.03, -187500.02, 0.00, 0.00, 0.00, 0.00, 0.00
89, 0.00, -76796.99, 0.00, -187500.02, -66661.37, -187500.02, 0.00, 0.00, 0.00, 0.00, 0.00
90, 0.00, -72722.38, 0.00, -187500.02, -65495.66, -187500.02, 0.00, 0.00, 0.00, 0.00, 0.00
91, 0.00, -66666.24, 0.00, -187500.02, -60648.68, -187500.02, 0.00, 0.00, 0.00, 0.00, 0.00
92, 0.00, -70391.81, 0.00, -187500.02, -61546.13, -187500.02, 0.00, 0.00, 0.00, 0.00, 0.00
93, 0.00, -77057.23, 0.00, -187500.02, -66729.86, -187500.02, 0.00, 0.00, 0.00, 0.00, 0.00
94, 0.00, -74516.87, 0.00, -187500.02, -66764.97, -187500.02, 0.00, 0.00, 0.00, 0.00, 0.00
95, 0.00, -67593.48, 0.00, -187500.02, -61757.84, -187500.02, 0.00, 0.00, 0.00, 0.00, 0.00
96, 0.00, -69418.84, 0.00, -187500.02, -61205.58, -187500.02, 0.00, 0.00, 0.00, 0.00, 0.00
97, 0.00, -76583.16, 0.00, -187500.02, -66247.95, -187500.02, 0.00, 0.00, 0.00, 0.00, 0.00
98, 0.00, -75836.70, 0.00, -187500.02, -67544.42, -187500.02, 0.00, 0.00, 0.00, 0.00, 0.00
99, 0.00, -68569.74, 0.00, -187500.02, -62756.59, -187500.02, 0.00, 0.00, 0.00, 0.00, 0.00
100, 0.00, -68345.91, 0.00, -187500.02, -60788.52, -187500.02, 0.00, 0.00, 0.00, 0.00, 0.00
101, 0.00, -75512.44, 0.00, -187500.02, -65306.48, -187500.02, 0.00, 0.00, 0.00, 0.00, 0.00
102, 0.00, -76699.12, 0.00, -187500.02, -67837.45, -187500.02, 0.00, 0.00, 0.00, 0.00, 0.00
103, 0.00, -69651.97, 0.00, -187500.02, -63665.39, -187500.02, 0.00, 0.00, 0.00, 0.00, 0.00
104, 0.00, -67401.99, 0.00, -187500.02, -60449.48, -187500.02, 0.00, 0.00, 0.00, 0.00, 0.00
105, 0.00, -74198.60, 0.00, -187500.02, -64264.55, -187500.02, 0.00, 0.00, 0.00, 0.00, 0.00
106, 0.00, -77285.80, 0.00, -187500.02, -67900.95, -187500.02, 0.00, 0.00, 0.00, 0.00, 0.00
107, 0.00, -70974.84, 0.00, -187500.02, -64644.91, -187500.02, 0.00, 0.00, 0.00, 0.00, 0.00
108, 0.00, -66946.89, 0.00, -187500.02, -60500.05, -187500.02, 0.00, 0.00, 0.00, 0.00, 0.00
109, 0.00, -72776.54, 0.00, -187500.02, -63227.47, -187500.02, 0.00, 0.00, 0.00, 0.00, 0.00
110, 0.00, -77459.61, 0.00, -187500.02, -67637.90, -187500.02, 0.00, 0.00, 0.00, 0.00, 0.00
111, 0.00, -72378.01, 0.00, -187500.02, -65575.12, -187500.02, 0.00, 0.00, 0.00, 0.00, 0.00
112, 0.00, -66938.78, 0.00, -187500.02, -60840.48, -187500.02, 0.00, 0.00, 0.00, 0.00, 0.00
113, 0.00, -71492.48, 0.00, -187500.02, -62404.05, -187500.02, 0.00, 0.00, 0.00, 0.00, 0.00
114, 0.00, -77543.38, 0.00, -187500.02, -67376.98, -187500.02, 0.00, 0.00, 0.00, 0.00, 0.00
115, 0.00, -73944.46, 0.00, -187500.02, -66580.50, -187500.02, 0.00, 0.00, 0.00, 0.00, 0.00
116, 0.00, -67368.63, 0.00, -187500.02, -61535.00, -187500.02, 0.00, 0.00, 0.00, 0.00, 0.00
117, 0.00, -70292.08, 0.00, -187500.02, -61743.23, -187500.02, 0.00, 0.00, 0.00, 0.00, 0.00
118, 0.00, -77251.07, 0.00, -187500.02, -66876.17, -187500.02, 0.00, 0.00, 0.00, 0.00, 0.00
119, 0.00, -75504.10, 0.00, -187500.02, -67529.20, -187500.02, 0.00, 0.00, 0.00, 0.00, 0.00
120, 0.00, -68385.98, 0.00, -187500.02, -62600.48, -187500.02, 0.00, 0.00, 0.00, 0.00, 0.00
121, 0.00, -69530.87, 0.00, -187500.02, -61557.42, -187500.02, 0.00, 0.00, 0.00, 0.00, 0.00
122, 0.00, -76967.94, 0.00, -187500.02, -66588.33, -187500.02, 0.00, 0.00, 0.00, 0.00, 0.00
123, 0.00, -77120.65, 0.00, -187500.02, -68555.08, -187500.02, 0.00, 0.00, 0.00, 0.00, 0.00
124, 0.00, -69937.38, 0.00, -187500.02, -64069.39, -187500.02, 0.00, 0.00, 0.00, 0.00, 0.00
125, 0.00, -69029.12, 0.00, -187500.02, -61658.56, -187500.02, 0.00, 0.00, 0.00, 0.00, 0.00
126, 0.00, -76293.95, 0.00, -187500.02, -66066.41, -187500.02, 0.00, 0.00, 0.00, 0.00, 0.00
127, 0.00, -78342.03, 0.00, -187500.02, -69200.17, -187500.02, 0.00, 0.00, 0.00, 0.00, 0.00
128, 0.00, -71528.95, 0.00, -187500.02, -65380.44, -187500.02, 0.00, 0.00, 0.00, 0.00, 0.00
129, 0.00, -68649.31, 0.00, -187500.02, -61835.25, -187500.02, 0.00, 0.00, 0.00, 0.00, 0.00
130, 0.00, -75309.53, 0.00, -187500.02, -65369.04, -187500.02, 0.00, 0.00, 0.00, 0.00, 0.00
131, 0.00, -79139.97, 0.00, -187500.02, -69472.05, -187500.02, 0.00, 0.00, 0.00, 0.00, 0.00
132, 0.00, -73245.45, 0.00, -187500.02, -66680.17, -187500.02, 0.00, 0.00, 0.00, 0.00, 0.00
133, 0.00, -68681.41, 0.00, -187500.02, -62304.50, -187500.02, 0.00, 0.00, 0.00, 0.00, 0.00
134, 0.00, -74270.69, 0.00, -187500.02, -64759.42, -187500.02, 0.00, 0.00, 0.00, 0.00, 0.00
135, 0.00, -79655.83, 0.00, -187500.02, -69573.45, -187500.02, 0.00, 0.00, 0.00, 0.00, 0.00
136, 0.00, -75115.94, 0.00, -187500.02, -68027.46, -187500.02, 0.00, 0.00, 0.00, 0.00, 0.00
137, 0.00, -69192.93, 0.00, -187500.02, -63153.76, -187500.02, 0.00, 0.00, 0.00, 0.00, 0.00
138, 0.00, -73313.41, 0.00, -187500.02, -64321.66, -187500.02, 0.00, 0.00, 0.00, 0.00, 0.00
139, 0.00, -79875.79, 0.00, -187500.02, -69510.32, -187500.02, 0.00, 0.00, 0.00, 0.00, 0.00
140, 0.00, -77081.98, 0.00, -187500.02, -69397.56, -187500.02, 0.00, 0.00, 0.00, 0.00, 0.00
141, 0.00, -70297.59, 0.00, -187500.02, -64403.69, -187500.02, 0.00, 0.00, 0.00, 0.00, 0.00
142, 0.00, -72615.09, 0.00, -187500.02, -64179.70, -187500.02, 0.00, 0.00, 0.00, 0.00, 0.00
143, 0.00, -79879.37, 0.00, -187500.02, -69385.00, -187500.02, 0.00, 0.00, 0.00, 0.00, 0.00
144, 0.00, -78921.59, 0.00, -187500.02, -70598.05, -187500.02, 0.00, 0.00, 0.00, 0.00, 0.00
145, 0.00, -71719.01, 0.00, -187500.02, -65802.17, -187500.02, 0.00, 0.00, 0.00, 0.00, 0.00
146, 0.00, -72086.90, 0.00, -187500.02, -64262.98, -187500.02, 0.00, 0.00, 0.00, 0.00, 0.00
147, 0.00, -79529.11, 0.00, -187500.02, -69113.20, -187500.02, 0.00, 0.00, 0.00, 0.00, 0.00
148, 0.00, -80482.20, 0.00, -187500.02, -71587.47, -187500.02, 0.00, 0.00, 0.00, 0.00, 0.00
149, 0.00, -73406.61, 0.00, -187500.02, -67333.64, -187500.02, 0.00, 0.00, 0.00, 0.00, 0.00
150, 0.00, -71696.99, 0.00, -187500.02, -64457.82, -187500.02, 0.00, 0.00, 0.00, 0.00, 0.00
151, 0.00, -78758.83, 0.00, -187500.02, -68571.62, -187500.02, 0.00, 0.00, 0.00, 0.00, 0.00
152, 0.00, -81474.34, 0.00, -187500.02, -72046.63, -187500.02, 0.00, 0.00, 0.00, 0.00, 0.00
153, 0.00, -74932.16, 0.00, -187500.02, -68585.37, -187500.02, 0.00, 0.00, 0.00, 0.00, 0.00
154, 0.00, -71325.42, 0.00, -187500.02, -64660.62, -187500.02, 0.00, 0.00, 0.00, 0.00, 0.00
155, 0.00, -77563.16, 0.00, -187500.02, -67756.27, -187500.02, 0.00, 0.00, 0.00, 0.00, 0.00
156, 0.00, -81964.27, 0.00, -187500.02, -72094.12, -187500.02, 0.00, 0.00, 0.00, 0.00, 0.00
157, 0.00, -76493.50, 0.00, -187500.02, -69735.67, -187500.02, 0.00, 0.00, 0.00, 0.00, 0.00
158, 0.00, -71325.76, 0.00, -187500.02, -65070.38, -187500.02, 0.00, 0.00, 0.00, 0.00, 0.00
159, 0.00, -76334.63, 0.00, -187500.02, -66987.86, -187500.02, 0.00, 0.00, 0.00, 0.00, 0.00
160, 0.00, -82084.59, 0.00, -187500.02, -71863.83, -187500.02, 0.00, 0.00, 0.00, 0.00, 0.00
161, 0.00, -78069.74, 0.00, -187500.02, -70777.58, -187500.02, 0.00, 0.00, 0.00, 0.00, 0.00
162, 0.00, -71681.17, 0.00, -187500.02, -65751.05, -187500.02, 0.00, 0.00, 0.00, 0.00, 0.00
163, 0.00, -75019.09, 0.00, -187500.02, -66272.34, -187500.02, 0.00, 0.00, 0.00, 0.00, 0.00
164, 0.00, -81718.58, 0.00, -187500.02, -71327.79, -187500.02, 0.00, 0.00, 0.00, 0.00, 0.00
165, 0.00, -79377.50, 0.00, -187500.02, -71519.70, -187500.02, 0.00, 0.00, 0.00, 0.00, 0.00
166, 0.00, -72206.34, 0.00, -187500.02, -66431.80, -187500.02, 0.00, 0.00, 0.00, 0.00, 0.00
167, 0.00, -73594.62, 0.00, -187500.02, -65512.20, -187500.02, 0.00, 0.00, 0.00, 0.00, 0.00
168, 0.00, -80764.31, 0.00, -187500.02, -70397.30, -187500.02, 0.00, 0.00, 0.00, 0.00, 0.00
169, 0.00, -80264.62, 0.00, -187500.02, -71847.27, -187500.02, 0.00, 0.00, 0.00, 0.00, 0.00
170, 0.00, -72808.62, 0.00, -187500.02, -67000.34, -187500.02, 0.00, 0.00, 0.00, 0.00, 0.00
171, 0.00, -72141.17, 0.00, -187500.02, -64692.61, -187500.02, 0.00, 0.00, 0.00, 0.00, 0.00
172, 0.00, -79265.23, 0.00, -187500.02, -69056.70, -187500.02, 0.00, 0.00, 0.00, 0.00, 0.00
173, 0.00, -80657.25, 0.00, -187500.02, -71689.66, -187500.02, 0.00, 0.00, 0.00, 0.00, 0.00
174, 0.00, -73509.99, 0.00, -187500.02, -67517.60, -187500.02, 0.00, 0.00, 0.00, 0.00, 0.00
175, 0.00, -70870.45, 0.00, -187500.02, -64038.55, -187500.02, 0.00, 0.00, 0.00, 0.00, 0.00
176, 0.00, -77451.38, 0.00, -187500.02, -67574.38, -187500.02, 0.00, 0.00, 0.00, 0.00, 0.00
177, 0.00, -80657.67, 0.00, -187500.02, -71222.09, -187500.02, 0.00, 0.00, 0.00, 0.00, 0.00
178, 0.00, -74269.39, 0.00, -187500.02, -67953.21, -187500.02, 0.00, 0.00, 0.00, 0.00, 0.00
179, 0.00, -69801.23, 0.00, -187500.02, -63497.53, -187500.02, 0.00, 0.00, 0.00, 0.00, 0.00
180, 0.00, -75354.92, 0.00, -187500.02, -65914.58, -187500.02, 0.00, 0.00, 0.00, 0.00, 0.00
181, 0.00, -80123.05, 0.00, -187500.02, -70307.45, -187500.02, 0.00, 0.00, 0.00, 0.00, 0.00
182, 0.00, -74982.01, 0.00, -187500.02, -68230.77, -187500.02, 0.00, 0.00, 0.00, 0.00, 0.00
183, 0.00, -69054.77, 0.00, -187500.02, -63178.19, -187500.02, 0.00, 0.00, 0.00, 0.00, 0.00
184, 0.00, -73308.82, 0.00, -187500.02, -64431.16, -187500.02, 0.00, 0.00, 0.00, 0.00, 0.00
185, 0.00, -79350.39, 0.00, -187500.02, -69279.14, -187500.02, 0.00, 0.00, 0.00, 0.00, 0.00
186, 0.00, -75780.63, 0.00, -187500.02, -68495.63, -187500.02, 0.00, 0.00, 0.00, 0.00, 0.00
187, 0.00, -68845.54, 0.00, -187500.02, -63205.12, -187500.02, 0.00, 0.00, 0.00, 0.00, 0.00
188, 0.00, -71346.56, 0.00, -187500.02, -63074.70, -187500.02, 0.00, 0.00, 0.00, 0.00, 0.00
189, 0.00, -78208.05, 0.00, -187500.02, -68028.41, -187500.02, 0.00, 0.00, 0.00, 0.00, 0.00
190, 0.00, -76458.21, 0.00, -187500.02, -68613.77, -187500.02, 0.00, 0.00, 0.00, 0.00, 0.00
191, 0.00, -68998.80, 0.00, -187500.02, -63434.00, -187500.02, 0.00, 0.00, 0.00, 0.00, 0.00
192, 0.00, -69457.98, 0.00, -187500.02, -61789.34, -187500.02, 0.00, 0.00, 0.00, 0.00, 0.00
193, 0.00, -76602.84, 0.00, -187500.02, -66454.13, -187500.02, 0.00, 0.00, 0.00, 0.00, 0.00
194, 0.00, -76673.63, 0.00, -187500.02, -68251.92, -187500.02, 0.00, 0.00, 0.00, 0.00, 0.00
195, 0.00, -69253.91, 0.00, -187500.02, -63584.88, -187500.02, 0.00, 0.00, 0.00, 0.00, 0.00
196, 0.00, -67815.41, 0.00, -187500.02, -60755.14, -187500.02, 0.00, 0.00, 0.00, 0.00, 0.00
197, 0.00, -74773.63, 0.00, -187500.02, -64810.49, -187500.02, 0.00, 0.00, 0.00, 0.00, 0.00
198, 0.00, -76885.91, 0.00, -187500.02, -67860.70, -187500.02, 0.00, 0.00, 0.00, 0.00, 0.00
199, 0.00, -69999.94, 0.00, -187500.02, -64014.97, -187500.02, 0.00, 0.00, 0.00, 0.00, 0.00
200, 0.00, -66672.62, 0.00, -187500.02, -60129.07, -187500.02, 0.00, 0.00, 0.00, 0.00, 0.00
201, 0.00, -73047.15, 0.00, -187500.02, -63371.15, -187500.02, 0.00, 0.00, 0.00, 0.00, 0.00
202, 0.00, -77015.73, 0.00, -187500.02, -67473.56, -187500.02, 0.00, 0.00, 0.00, 0.00, 0.00
203, 0.00, -71162.77, 0.00, -187500.02, -64753.76, -187500.02, 0.00, 0.00, 0.00, 0.00, 0.00
204, 0.00, -66208.84, 0.00, -187500.02, -60108.00, -187500.02, 0.00, 0.00, 0.00, 0.00, 0.00
205, 0.00, -71432.64, 0.00, -187500.02, -62189.21, -187500.02, 0.00, 0.00, 0.00, 0.00, 0.00
206, 0.00, -76868.97, 0.00, -187500.02, -66925.05, -187500.02, 0.00, 0.00, 0.00, 0.00, 0.00
207, 0.00, -72368.82, 0.00, -187500.02, -65419.75, -187500.02, 0.00, 0.00, 0.00, 0.00, 0.00
208, 0.00, -66085.37, 0.00, -187500.02, -60300.96, -187500.02, 0.00, 0.00, 0.00, 0.00, 0.00
209, 0.00, -69793.25, 0.00, -187500.02, -61092.55, -187500.02, 0.00, 0.00, 0.00, 0.00, 0.00
210, 0.00, -76323.72, 0.00, -187500.02, -66152.02, -187500.02, 0.00, 0.00, 0.00, 0.00, 0.00
211, 0.00, -73531.67, 0.00, -187500.02, -66026.72, -187500.02, 0.00, 0.00, 0.00, 0.00, 0.00
212, 0.00, -66459.18, 0.00, -187500.02, -60817.71, -187500.02, 0.00, 0.00, 0.00, 0.00, 0.00
213, 0.00, -68411.89, 0.00, -187500.02, -60274.79, -187500.02, 0.00, 0.00, 0.00, 0.00, 0.00
214, 0.00, -75601.47, 0.00, -187500.02, -65323.15, -187500.02, 0.00, 0.00, 0.00, 0.00, 0.00
215, 0.00, -74753.84, 0.00, -187500.02, -66568.97, -187500.02, 0.00, 0.00, 0.00, 0.00, 0.00
216, 0.00, -67453.52, 0.00, -187500.02, -61743.43, -187500.02, 0.00, 0.00, 0.00, 0.00, 0.00
217, 0.00, -67474.69, 0.00, -187500.02, -59897.42, -187500.02, 0.00, 0.00, 0.00, 0.00, 0.00
218, 0.00, -74863.97, 0.00, -187500.02, -64611.98, -187500.02, 0.00, 0.00, 0.00, 0.00, 0.00
219, 0.00, -75968.30, 0.00, -187500.02, -67168.48, -187500.02, 0.00, 0.00, 0.00, 0.00, 0.00
220, 0.00, -68895.59, 0.00, -187500.02, -62968.80, -187500.02, 0.00, 0.00, 0.00, 0.00, 0.00
221, 0.00, -66909.37, 0.00, -187500.02, -59912.30, -187500.02, 0.00, 0.00, 0.00, 0.00, 0.00
222, 0.00, -73945.52, 0.00, -187500.02, -63901.04, -187500.02, 0.00, 0.00, 0.00, 0.00, 0.00
223, 0.00, -76887.95, 0.00, -187500.02, -67531.34, -187500.02, 0.00, 0.00, 0.00, 0.00, 0.00
224, 0.00, -70452.27, 0.00, -187500.02, -64195.41, -187500.02, 0.00, 0.00, 0.00, 0.00, 0.00
225, 0.00, -66629.97, 0.00, -187500.02, -60137.14, -187500.02, 0.00, 0.00, 0.00, 0.00, 0.00
226, 0.00, -72743.59, 0.00, -187500.02, -63100.45, -187500.02, 0.00, 0.00, 0.00, 0.00, 0.00
227, 0.00, -77285.58, 0.00, -187500.02, -67485.88, -187500.02, 0.00, 0.00, 0.00, 0.00, 0.00
228, 0.00, -71894.09, 0.00, -187500.02, -65199.54, -187500.02, 0.00, 0.00, 0.00, 0.00, 0.00
229, 0.00, -66437.63, 0.00, -187500.02, -60398.48, -187500.02, 0.00, 0.00, 0.00, 0.00, 0.00
230, 0.00, -71184.41, 0.00, -187500.02, -62041.45, -187500.02, 0.00, 0.00, 0.00, 0.00, 0.00
231, 0.00, -77144.88, 0.00, -187500.02, -67033.48, -187500.02, 0.00, 0.00, 0.00, 0.00, 0.00
232, 0.00, -73372.44, 0.00, -187500.02, -66172.29, -187500.02, 0.00, 0.00, 0.00, 0.00, 0.00
233, 0.00, -66653.26, 0.00, -187500.02, -61706.04, -187500.02, 0.00, 0.00, 0.00, 0.00, 0.00
234, 0.00, -70332.33, 0.00, -187500.02, -61175.45, -187500.02, 0.00, 0.00, 0.00, 0.00, 0.00
235, 0.00, -79019.80, 0.00, -187500.02, -62018.73, -187500.02, 0.00, 0.00, 0.00, 0.00, 0.00
236, 0.00, -77034.52, 0.00, -187500.02, -62275.02, -187500.02, 0.00, 0.00, 0.00, 0.00, 0.00
237, 0.00, -68006.72, 0.00, -187500.02, -62260.67, -187500.02, 0.00, 0.00, 0.00, 0.00, 0.00
238, 0.00, -68929.91, 0.00, -187500.02, -62718.66, -187500.02, 0.00, 0.00, 0.00, 0.00, 0.00
239, 0.00, -77938.27, 0.00, -187500.02, -63439.23, -187500.02, 0.00, 0.00, 0.00, 0.00, 0.00
240, 0.00, -78359.29, 0.00, -187500.02, -63767.18, -187500.02, 0.00, 0.00, 0.00, 0.00, 0.00
241, 0.00, -69289.89, 0.00, -187500.02, -63662.17, -187500.02, 0.00, 0.00, 0.00, 0.00, 0.00
242, 0.00, -67695.85, 0.00, -187500.02, -64007.39, -187500.02, 0.00, 0.00, 0.00, 0.00, 0.00
243, 0.00, -76139.25, 0.00, -187500.02, -65653.46, -187500.02, 0.00, 0.00, 0.00, 0.00, 0.00
244, 0.00, -78149.92, 0.00, -187500.02, -68081.78, -187500.02, 0.00, 0.00, 0.00, 0.00, 0.00
245, 0.00, -71020.05, 0.00, -187500.02, -64795.07, -187500.02, 0.00, 0.00, 0.00, 0.00, 0.00
246, 0.00, -68255.88, 0.00, -187500.02, -61358.06, -187500.02, 0.00, 0.00, 0.00, 0.00, 0.00
247, 0.00, -74935.61, 0.00, -187500.02, -64946.50, -187500.02, 0.00, 0.00, 0.00, 0.00, 0.00
248, 0.00, -78522.44, 0.00, -187500.02, -68895.20, -187500.02, 0.00, 0.00, 0.00, 0.00, 0.00
249, 0.00, -72435.67, 0.00, -187500.02, -65987.63, -187500.02, 0.00, 0.00, 0.00, 0.00, 0.00
250, 0.00, -67994.72, 0.00, -187500.02, -61628.96, -187500.02, 0.00, 0.00, 0.00, 0.00, 0.00
251, 0.00, -73699.87, 0.00, -187500.02, -64150.20, -187500.02, 0.00, 0.00, 0.00, 0.00, 0.00
252, 0.00, -78867.32, 0.00, -187500.02, -68843.98, -187500.02, 0.00, 0.00, 0.00, 0.00, 0.00
253, 0.00, -74044.24, 0.00, -187500.02, -67122.91, -187500.02, 0.00, 0.00, 0.00, 0.00, 0.00
254, 0.00, -68154.89, 0.00, -187500.02, -62166.03, -187500.02, 0.00, 0.00, 0.00, 0.00, 0.00
255, 0.00, -72401.90, 0.00, -187500.02, -63338.74, -187500.02, 0.00, 0.00, 0.00, 0.00, 0.00
0, 0.00, -78739.07, 0.00, -187500.02, -68415.83, -187500.02, 0.00, 0.00, 0.00, 0.00, 0.00
1, 0.00, -75538.43, 0.00, -187500.02, -67983.72, -187500.02, 0.00, 0.00, 0.00, 0.00, 0.00
2, 0.00, -68700.27, 0.00, -187500.02, -62887.21, -187500.02, 0.00, 0.00, 0.00, 0.00, 0.00
3, 0.00, -71133.02, 0.00, -187500.02, -62683.50, -187500.02, 0.00, 0.00, 0.00, 0.00, 0.00
4, 0.00, -78171.96, 0.00, -187500.02, -67721.80, -187500.02, 0.00, 0.00, 0.00, 0.00, 0.00
5, 0.00, -76830.90, 0.00, -187500.02, -68672.13, -187500.02, 0.00, 0.00, 0.00, 0.00, 0.00
6, 0.00, -69506.26, 0.00, -187500.02, -63715.50, -187500.02, 0.00, 0.00, 0.00, 0.00, 0.00
7, 0.00, -69992.43, 0.00, -187500.02, -62115.99, -187500.02, 0.00, 0.00, 0.00, 0.00, 0.00
8, 0.00, -77266.60, 0.00, -187500.02, -66828.05, -187500.02, 0.00, 0.00, 0.00, 0.00, 0.00
9, 0.00, -77809.13, 0.00, -187500.02, -69049.09, -187500.02, 0.00, 0.00, 0.00, 0.00, 0.00
10, 0.00, -70546.17, 0.00, -187500.02, -64645.63, -187500.02, 0.00, 0.00, 0.00, 0.00, 0.00
11, 0.00, -68966.80, 0.00, -187500.02, -61748.41, -187500.02, 0.00, 0.00, 0.00, 0.00, 0.00
12, 0.00, -76000.38, 0.00, -187500.02, -65774.92, -187500.02, 0.00, 0.00, 0.00, 0.00, 0.00
13, 0.00, -78458.35, 0.00, -187500.02, -69147.27, -187500.02, 0.00, 0.00, 0.00, 0.00, 0.00
14, 0.00, -71760.63, 0.00, -187500.02, -65566.23, -187500.02, 0.00, 0.00, 0.00, 0.00, 0.00
15, 0.00, -68307.17, 0.00, -187500.02, -61679.55, -187500.02, 0.00, 0.00, 0.00, 0.00, 0.00
16, 0.00, -74596.40, 0.00, -187500.02, -64765.72, -187500.02, 0.00, 0.00, 0.00, 0.00, 0.00
17, 0.00, -78736.03, 0.00, -187500.02, -68961.99, -187500.02, 0.00, 0.00, 0.00, 0.00, 0.00
18, 0.00, -72998.09, 0.00, -187500.02, -66418.90, -187500.02, 0.00, 0.00, 0.00, 0.00, 0.00
19, 0.00, -67815.84, 0.00, -187500.02, -61662.14, -187500.02, 0.00, 0.00, 0.00, 0.00, 0.00
20, 0.00, -72947.17, 0.00, -187500.02, -63602.07, -187500.02, 0.00, 0.00, 0.00, 0.00, 0.00
21, 0.00, -78584.51, 0.00, -187500.02, -68457.42, -187500.02, 0.00, 0.00, 0.00, 0.00, 0.00
22, 0.00, -74359.91, 0.00, -187500.02, -67240.51, -187500.02, 0.00, 0.00, 0.00, 0.00, 0.00
23, 0.00, -68043.71, 0.00, -187500.02, -62171.69, -187500.02, 0.00, 0.00, 0.00, 0.00, 0.00
24, 0.00, -71638.61, 0.00, -187500.02, -62817.12, -187500.02, 0.00, 0.00, 0.00, 0.00, 0.00
25, 0.00, -78337.95, 0.00, -187500.02, -67974.23, -187500.02, 0.00, 0.00, 0.00, 0.00, 0.00
26, 0.00, -75815.48, 0.00, -187500.02, -68107.53, -187500.02, 0.00, 0.00, 0.00, 0.00, 0.00
27, 0.00, -68767.55, 0.00, -187500.02, -63073.52, -187500.02, 0.00, 0.00, 0.00, 0.00, 0.00
28, 0.00, -70564.81, 0.00, -187500.02, -62346.19, -187500.02, 0.00, 0.00, 0.00, 0.00, 0.00
29, 0.00, -77889.99, 0.00, -187500.02, -67432.84, -187500.02, 0.00, 0.00, 0.00, 0.00, 0.00
30, 0.00, -77244.16, 0.00, -187500.02, -68928.51, -187500.02, 0.00, 0.00, 0.00, 0.00, 0.00
31, 0.00, -69965.20, 0.00, -187500.02, -64206.43, -187500.02, 0.00, 0.00, 0.00, 0.00, 0.00
32, 0.00, -69793.61, 0.00, -187500.02, -62171.80, -187500.02, 0.00, 0.00, 0.00, 0.00, 0.00
33, 0.00, -77156.50, 0.00, -187500.02, -66760.21, -187500.02, 0.00, 0.00, 0.00, 0.00, 0.00
34, 0.00, -78397.16, 0.00, -187500.02, -69439.88, -187500.02, 0.00, 0.00, 0.00, 0.00, 0.00
35, 0.00, -71360.53, 0.00, -187500.02, -65391.05, -187500.02, 0.00, 0.00, 0.00, 0.00, 0.00
36, 0.00, -69191.72, 0.00, -187500.02, -62090.39, -187500.02, 0.00, 0.00, 0.00, 0.00, 0.00
37, 0.00, -76923.10, 0.00, -187500.02, -63974.63, -187500.02, 0.00, 0.00, 0.00, 0.00, 0.00
38, 0.00, -81176.08, 0.00, -187500.02, -64864.11, -187500.02, 0.00, 0.00, 0.00, 0.00, 0.00
39, 0.00, -73630.16, 0.00, -187500.02, -64821.71, -187500.02, 0.00, 0.00, 0.00, 0.00, 0.00
40, 0.00, -68059.00, 0.00, -187500.02, -64934.57, -187500.02, 0.00, 0.00, 0.00, 0.00, 0.00
41, 0.00, -75006.84, 0.00, -187500.02, -65635.16, -187500.02, 0.00, 0.00, 0.00, 0.00, 0.00
42, 0.00, -81327.29, 0.00, -187500.02, -66210.67, -187500.02, 0.00, 0.00, 0.00, 0.00, 0.00
43, 0.00, -75371.33, 0.00, -187500.02, -66257.88, -187500.02, 0.00, 0.00, 0.00, 0.00, 0.00
44, 0.00, -68063.38, 0.00, -187500.02, -66304.13, -187500.02, 0.00, 0.00, 0.00, 0.00, 0.00
45, 0.00, -73194.65, 0.00, -187500.02, -66899.71, -187500.02, 0.00, 0.00, 0.00, 0.00, 0.00
46, 0.00, -81003.50, 0.00, -187500.02, -67569.12, -187500.02, 0.00, 0.00, 0.00, 0.00, 0.00
47, 0.00, -76996.77, 0.00, -187500.02, -67654.91, -187500.02, 0.00, 0.00, 0.00, 0.00, 0.00
48, 0.00, -68496.27, 0.00, -187500.02, -67654.75, -187500.02, 0.00, 0.00, 0.00, 0.00, 0.00
49, 0.00, -71503.79, 0.00, -187500.02, -68170.34, -187500.02, 0.00, 0.00, 0.00, 0.00, 0.00
50, 0.00, -80295.31, 0.00, -187500.02, -68911.81, -187500.02, 0.00, 0.00, 0.00, 0.00, 0.00
51, 0.00, -78681.42, 0.00, -187500.02, -69141.12, -187500.02, 0.00, 0.00, 0.00, 0.00, 0.00
52, 0.00, -69658.90, 0.00, -187500.02, -69067.11, -187500.02, 0.00, 0.00, 0.00, 0.00, 0.00
53, 0.00, -70296.68, 0.00, -187500.02, -69468.68, -187500.02, 0.00, 0.00, 0.00, 0.00, 0.00
54, 0.00, -79462.21, 0.00, -187500.02, -70223.57, -187500.02, 0.00, 0.00, 0.00, 0.00, 0.00
55, 0.00, -80201.38, 0.00, -187500.02, -70511.81, -187500.02, 0.00, 0.00, 0.00, 0.00, 0.00
56, 0.00, -71300.38, 0.00, -187500.02, -70444.29, -187500.02, 0.00, 0.00, 0.00, 0.00, 0.00
57, 0.00, -69453.88, 0.00, -187500.02, -70732.96, -187500.02, 0.00, 0.00, 0.00, 0.00, 0.00
58, 0.00, -78200.17, 0.00, -187500.02, -71392.90, -187500.02, 0.00, 0.00, 0.00, 0.00, 0.00
59, 0.00, -81195.70, 0.00, -187500.02, -71774.73, -187500.02, 0.00, 0.00, 0.00, 0.00, 0.00
60, 0.00, -72900.39, 0.00, -187500.02, -71665.41, -187500.02, 0.00, 0.00, 0.00, 0.00, 0.00
61, 0.00, -68635.97, 0.00, -187500.02, -71819.62, -187500.02, 0.00, 0.00, 0.00, 0.00, 0.00
62, 0.00, -76430.70, 0.00, -187500.02, -72494.44, -187500.02, 0.00, 0.00, 0.00, 0.00, 0.00
63, 0.00, -81480.42, 0.00, -187500.02, -72963.22, -187500.02, 0.00, 0.00, 0.00, 0.00, 0.00
64, 0.00, -74360.38, 0.00, -187500.02, -72909.60, -187500.02, 0.00, 0.00, 0.00, 0.00, 0.00
65, 0.00, -67920.76, 0.00, -187500.02, -72907.72, -187500.02, 0.00, 0.00, 0.00, 0.00, 0.00
66, 0.00, -74020.28, 0.00, -187500.02, -73431.34, -187500.02, 0.00, 0.00, 0.00, 0.00, 0.00
67, 0.00, -80730.88, 0.00, -187500.02, -73992.36, -187500.02, 0.00, 0.00, 0.00, 0.00, 0.00
68, 0.00, -75215.72, 0.00, -187500.02, -73971.60, -187500.02, 0.00, 0.00, 0.00, 0.00, 0.00
69, 0.00, -67071.86, 0.00, -187500.02, -73844.75, -187500.02, 0.00, 0.00, 0.00, 0.00, 0.00
70, 0.00, -71141.29, 0.00, -187500.02, -74328.06, -187500.02, 0.00, 0.00, 0.00, 0.00, 0.00
71, 0.00, -79120.50, 0.00, -187500.02, -74967.97, -187500.02, 0.00, 0.00, 0.00, 0.00, 0.00
72, 0.00, -75651.45, 0.00, -187500.02, -74993.43, -187500.02, 0.00, 0.00, 0.00, 0.00, 0.00
73, 0.00, -66426.97, 0.00, -187500.02, -74794.21, -187500.02, 0.00, 0.00, 0.00, 0.00, 0.00
74, 0.00, -68157.35, 0.00, -187500.02, -75181.95, -187500.02, 0.00, 0.00, 0.00, 0.00, 0.00
75, 0.00, -76706.58, 0.00, -187500.02, -75834.37, -187500.02, 0.00, 0.00, 0.00, 0.00, 0.00
76, 0.00, -75517.98, 0.00, -187500.02, -75997.76, -187500.02, 0.00, 0.00, 0.00, 0.00, 0.00
77, 0.00, -65908.61, 0.00, -187500.02, -75782.91, -187500.02, 0.00, 0.00, 0.00, 0.00, 0.00
78, 0.00, -65048.76, 0.00, -187500.02, -76004.40, -187500.02, 0.00, 0.00, 0.00, 0.00, 0.00
79, 0.00, -73626.91, 0.00, -187500.02, -76684.63, -187500.02, 0.00, 0.00, 0.00, 0.00, 0.00
80, 0.00, -74815.63, 0.00, -187500.02, -76947.30, -187500.02, 0.00, 0.00, 0.00, 0.00, 0.00
81, 0.00, -65583.32, 0.00, -187500.02, -76783.80, -187500.02, 0.00, 0.00, 0.00, 0.00, 0.00
82, 0.00, -62337.56, 0.00, -187500.02, -76919.68, -187500.02, 0.00, 0.00, 0.00, 0.00, 0.00
83, 0.00, -70454.02, 0.00, -187500.02, -77578.21, -187500.02, 0.00, 0.00, 0.00, 0.00, 0.00
84, 0.00, -74106.87, 0.00, -187500.02, -78018.67, -187500.02, 0.00, 0.00, 0.00, 0.00, 0.00
85, 0.00, -65928.37, 0.00, -187500.02, -77894.40, -187500.02, 0.00, 0.00, 0.00, 0.00, 0.00
86, 0.00, -60494.19, 0.00, -187500.02, -77907.61, -187500.02, 0.00, 0.00, 0.00, 0.00, 0.00
87, 0.00, -67557.20, 0.00, -187500.02, -78508.31, -187500.02, 0.00, 0.00, 0.00, 0.00, 0.00
88, 0.00, -73372.41, 0.00, -187500.02, -79033.11, -187500.02, 0.00, 0.00, 0.00, 0.00, 0.00
89, 0.00, -66846.63, 0.00, -187500.02, -79002.62, -187500.02, 0.00, 0.00, 0.00, 0.00, 0.00
90, 0.00, -59750.05, 0.00, -187500.02, -79005.44, -187500.02, 0.00, 0.00, 0.00, 0.00, 0.00
91, 0.00, -65350.73, 0.00, -187500.02, -79637.50, -187500.02, 0.00, 0.00, 0.00, 0.00, 0.00
92, 0.00, -72829.85, 0.00, -187500.02, -80274.88, -187500.02, 0.00, 0.00, 0.00, 0.00, 0.00
93, 0.00, -68208.40, 0.00, -187500.02, -80327.38, -187500.02, 0.00, 0.00, 0.00, 0.00, 0.00
94, 0.00, -59777.97, 0.00, -187500.02, -80265.20, -187500.02, 0.00, 0.00, 0.00, 0.00, 0.00
95, 0.00, -63303.51, 0.00, -187500.02, -80801.20, -187500.02, 0.00, 0.00, 0.00, 0.00, 0.00
96, 0.00, -71892.28, 0.00, -187500.02, -81524.92, -187500.02, 0.00, 0.00, 0.00, 0.00, 0.00
97, 0.00, -69520.00, 0.00, -187500.02, -81675.44, -187500.02, 0.00, 0.00, 0.00, 0.00, 0.00
98, 0.00, -60406.50, 0.00, -187500.02, -81542.00, -187500.02, 0.00, 0.00, 0.00, 0.00, 0.00
99, 0.00, -61583.59, 0.00, -187500.02, -81941.18, -187500.02, 0.00, 0.00, 0.00, 0.00, 0.00
100, 0.00, -70652.79, 0.00, -187500.02, -82695.69, -187500.02, 0.00, 0.00, 0.00, 0.00, 0.00
101, 0.00, -70752.08, 0.00, -187500.02, -82989.92, -187500.02, 0.00, 0.00, 0.00, 0.00, 0.00
102, 0.00, -61672.73, 0.00, -187500.02, -82870.63, -187500.02, 0.00, 0.00, 0.00, 0.00, 0.00
103, 0.00, -60344.59, 0.00, -187500.02, -83118.87, -187500.02, 0.00, 0.00, 0.00, 0.00, 0.00
104, 0.00, -69326.86, 0.00, -187500.02, -83882.80, -187500.02, 0.00, 0.00, 0.00, 0.00, 0.00
105, 0.00, -71884.82, 0.00, -187500.02, -84252.30, -187500.02, 0.00, 0.00, 0.00, 0.00, 0.00
106, 0.00, -63432.48, 0.00, -187500.02, -84213.34, -187500.02, 0.00, 0.00, 0.00, 0.00, 0.00
107, 0.00, -59731.23, 0.00, -187500.02, -84400.30, -187500.02, 0.00, 0.00, 0.00, 0.00, 0.00
108, 0.00, -67861.55, 0.00, -187500.02, -85082.90, -187500.02, 0.00, 0.00, 0.00, 0.00, 0.00
109, 0.00, -72662.19, 0.00, -187500.02, -85558.90, -187500.02, 0.00, 0.00, 0.00, 0.00, 0.00
110, 0.00, -65352.36, 0.00, -187500.02, -85516.66, -187500.02, 0.00, 0.00, 0.00, 0.00, 0.00
111, 0.00, -59586.06, 0.00, -187500.02, -85631.03, -187500.02, 0.00, 0.00, 0.00, 0.00, 0.00
112, 0.00, -66433.43, 0.00, -187500.02, -86313.25, -187500.02, 0.00, 0.00, 0.00, 0.00, 0.00
113, 0.00, -73122.74, 0.00, -187500.02, -86890.99, -187500.02, 0.00, 0.00, 0.00, 0.00, 0.00
114, 0.00, -67484.02, 0.00, -187500.02, -86900.77, -187500.02, 0.00, 0.00, 0.00, 0.00, 0.00
115, 0.00, -59992.41, 0.00, -187500.02, -86902.75, -187500.02, 0.00, 0.00, 0.00, 0.00, 0.00
116, 0.00, -64905.42, 0.00, -187500.02, -87460.05, -187500.02, 0.00, 0.00, 0.00, 0.00, 0.00
117, 0.00, -72938.95, 0.00, -187500.02, -88116.43, -187500.02, 0.00, 0.00, 0.00, 0.00, 0.00
118, 0.00, -69270.55, 0.00, -187500.02, -88206.28, -187500.02, 0.00, 0.00, 0.00, 0.00, 0.00
119, 0.00, -60528.57, 0.00, -187500.02, -88102.15, -187500.02, 0.00, 0.00, 0.00, 0.00, 0.00
120, 0.00, -63074.25, 0.00, -187500.02, -88543.82, -187500.02, 0.00, 0.00, 0.00, 0.00, 0.00
121, 0.00, -71816.11, 0.00, -187500.02, -89207.95, -187500.02, 0.00, 0.00, 0.00, 0.00, 0.00
122, 0.00, -70373.41, 0.00, -187500.02, -89385.54, -187500.02, 0.00, 0.00, 0.00, 0.00, 0.00
123, 0.00, -61107.19, 0.00, -187500.02, -89221.81, -187500.02, 0.00, 0.00, 0.00, 0.00, 0.00
124, 0.00, -61311.37, 0.00, -187500.02, -89288.94, -187500.02, 0.00, 0.00, 0.00, 0.00, 0.00
125, 0.00, -71469.32, 0.00, -187500.02, -86975.73, -187500.02, 0.00, 0.00, 0.00, 0.00, 0.00
126, 0.00, -76269.85, 0.00, -187500.02, -76837.85, -187500.02, 0.00, 0.00, 0.00, 0.00, 0.00
127, 0.00, -70265.41, 0.00, -187500.02, -67868.12, -187500.02, 0.00, 0.00, 0.00, 0.00, 0.00
128, 0.00, -69092.19, 0.00, -187500.02, -63883.61, -187500.02, 0.00, 0.00, 0.00, 0.00, 0.00
129, 0.00, -76236.41, 0.00, -187500.02, -67428.62, -187500.02, 0.00, 0.00, 0.00, 0.00, 0.00
130, 0.00, -78403.77, 0.00, -187500.02, -70289.22, -187500.02, 0.00, 0.00, 0.00, 0.00, 0.00
131, 0.00, -71548.98, 0.00, -187500.02, -66390.40, -187500.02, 0.00, 0.00, 0.00, 0.00, 0.00
132, 0.00, -68195.48, 0.00, -187500.02, -62358.01, -187500.02, 0.00, 0.00, 0.00, 0.00, 0.00
133, 0.00, -74601.83, 0.00, -187500.02, -65431.36, -187500.02, 0.00, 0.00, 0.00, 0.00, 0.00
134, 0.00, -78593.96, 0.00, -187500.02, -69467.38, -187500.02, 0.00, 0.00, 0.00, 0.00, 0.00
135, 0.00, -72691.16, 0.00, -187500.02, -66746.93, -187500.02, 0.00, 0.00, 0.00, 0.00, 0.00
136, 0.00, -67593.38, 0.00, -187500.02, -61966.75, -187500.02, 0.00, 0.00, 0.00, 0.00, 0.00
137, 0.00, -72793.17, 0.00, -187500.02, -63883.12, -187500.02, 0.00, 0.00, 0.00, 0.00, 0.00
138, 0.00, -78272.27, 0.00, -187500.02, -68576.71, -187500.02, 0.00, 0.00, 0.00, 0.00, 0.00
139, 0.00, -73814.38, 0.00, -187500.02, -67181.63, -187500.02, 0.00, 0.00, 0.00, 0.00, 0.00
140, 0.00, -67483.31, 0.00, -187500.02, -62061.23, -187500.02, 0.00, 0.00, 0.00, 0.00, 0.00
141, 0.00, -71203.96, 0.00, -187500.02, -62734.35, -187500.02, 0.00, 0.00, 0.00, 0.00, 0.00
142, 0.00, -77781.97, 0.00, -187500.02, -67754.02, -187500.02, 0.00, 0.00, 0.00, 0.00, 0.00
143, 0.00, -75033.44, 0.00, -187500.02, -67718.38, -187500.02, 0.00, 0.00, 0.00, 0.00, 0.00
144, 0.00, -67932.02, 0.00, -187500.02, -62572.57, -187500.02, 0.00, 0.00, 0.00, 0.00, 0.00
145, 0.00, -69889.34, 0.00, -187500.02, -61949.71, -187500.02, 0.00, 0.00, 0.00, 0.00, 0.00
146, 0.00, -77134.98, 0.00, -187500.02, -66922.62, -187500.02, 0.00, 0.00, 0.00, 0.00, 0.00
147, 0.00, -76343.19, 0.00, -187500.02, -68275.41, -187500.02, 0.00, 0.00, 0.00, 0.00, 0.00
148, 0.00, -69049.05, 0.00, -187500.02, -63537.89, -187500.02, 0.00, 0.00, 0.00, 0.00, 0.00
149, 0.00, -69027.13, 0.00, -187500.02, -61599.44, -187500.02, 0.00, 0.00, 0.00, 0.00, 0.00
150, 0.00, -76505.52, 0.00, -187500.02, -66259.22, -187500.02, 0.00, 0.00, 0.00, 0.00, 0.00
151, 0.00, -77783.66, 0.00, -187500.02, -68973.99, -187500.02, 0.00, 0.00, 0.00, 0.00, 0.00
152, 0.00, -70717.43, 0.00, -187500.02, -64929.31, -187500.02, 0.00, 0.00, 0.00, 0.00, 0.00
153, 0.00, -68770.50, 0.00, -187500.02, -61854.47, -187500.02, 0.00, 0.00, 0.00, 0.00, 0.00
154, 0.00, -75997.13, 0.00, -187500.02, -65890.68, -187500.02, 0.00, 0.00, 0.00, 0.00, 0.00
155, 0.00, -79151.86, 0.00, -187500.02, -69707.35, -187500.02, 0.00, 0.00, 0.00, 0.00, 0.00
156, 0.00, -72867.40, 0.00, -187500.02, -66626.91, -187500.02, 0.00, 0.00, 0.00, 0.00, 0.00
157, 0.00, -69118.56, 0.00, -187500.02, -62670.64, -187500.02, 0.00, 0.00, 0.00, 0.00, 0.00
158, 0.00, -75537.63, 0.00, -187500.02, -65753.35, -187500.02, 0.00, 0.00, 0.00, 0.00, 0.00
159, 0.00, -80441.11, 0.00, -187500.02, -70449.66, -187500.02, 0.00, 0.00, 0.00, 0.00, 0.00
160, 0.00, -75315.83, 0.00, -187500.02, -68526.76, -187500.02, 0.00, 0.00, 0.00, 0.00, 0.00
161, 0.00, -70033.00, 0.00, -187500.02, -63936.47, -187500.02, 0.00, 0.00, 0.00, 0.00, 0.00
162, 0.00, -75076.65, 0.00, -187500.02, -65775.39, -187500.02, 0.00, 0.00, 0.00, 0.00, 0.00
163, 0.00, -81335.83, 0.00, -187500.02, -70977.63, -187500.02, 0.00, 0.00, 0.00, 0.00, 0.00
164, 0.00, -77809.08, 0.00, -187500.02, -70394.70, -187500.02, 0.00, 0.00, 0.00, 0.00, 0.00
165, 0.00, -71372.27, 0.00, -187500.02, -65494.68, -187500.02, 0.00, 0.00, 0.00, 0.00, 0.00
166, 0.00, -74632.34, 0.00, -187500.02, -65877.56, -187500.02, 0.00, 0.00, 0.00, 0.00, 0.00
167, 0.00, -81821.06, 0.00, -187500.02, -71229.35, -187500.02, 0.00, 0.00, 0.00, 0.00, 0.00
168, 0.00, -80065.73, 0.00, -187500.02, -71974.98, -187500.02, 0.00, 0.00, 0.00, 0.00, 0.00
169, 0.00, -73089.73, 0.00, -187500.02, -67231.52, -187500.02, 0.00, 0.00, 0.00, 0.00, 0.00
170, 0.00, -74515.66, 0.00, -187500.02, -66341.14, -187500.02, 0.00, 0.00, 0.00, 0.00, 0.00
171, 0.00, -82098.83, 0.00, -187500.02, -71436.40, -187500.02, 0.00, 0.00, 0.00, 0.00, 0.00
172, 0.00, -82309.29, 0.00, -187500.02, -73538.35, -187500.02, 0.00, 0.00, 0.00, 0.00, 0.00
173, 0.00, -75194.41, 0.00, -187500.02, -69208.13, -187500.02, 0.00, 0.00, 0.00, 0.00, 0.00
174, 0.00, -74553.95, 0.00, -187500.02, -66996.83, -187500.02, 0.00, 0.00, 0.00, 0.00, 0.00
175, 0.00, -81987.91, 0.00, -187500.02, -71477.32, -187500.02, 0.00, 0.00, 0.00, 0.00, 0.00
176, 0.00, -84065.16, 0.00, -187500.02, -74710.50, -187500.02, 0.00, 0.00, 0.00, 0.00, 0.00
177, 0.00, -77337.39, 0.00, -187500.02, -71088.42, -187500.02, 0.00, 0.00, 0.00, 0.00, 0.00
178, 0.00, -74801.30, 0.00, -187500.02, -67787.56, -187500.02, 0.00, 0.00, 0.00, 0.00, 0.00
179, 0.00, -81714.98, 0.00, -187500.02, -71493.44, -187500.02, 0.00, 0.00, 0.00, 0.00, 0.00
180, 0.00, -85599.31, 0.00, -187500.02, -75682.09, -187500.02, 0.00, 0.00, 0.00, 0.00, 0.00
181, 0.00, -79755.13, 0.00, -187500.02, -73069.33, -187500.02, 0.00, 0.00, 0.00, 0.00, 0.00
182, 0.00, -75408.93, 0.00, -187500.02, -68893.93, -187500.02, 0.00, 0.00, 0.00, 0.00, 0.00
183, 0.00, -81254.94, 0.00, -187500.02, -71450.61, -187500.02, 0.00, 0.00, 0.00, 0.00, 0.00
184, 0.00, -86666.78, 0.00, -187500.02, -76272.27, -187500.02, 0.00, 0.00, 0.00, 0.00, 0.00
185, 0.00, -82042.45, 0.00, -187500.02, -74805.14, -187500.02, 0.00, 0.00, 0.00, 0.00, 0.00
186, 0.00, -76228.86, 0.00, -187500.02, -70038.70, -187500.02, 0.00, 0.00, 0.00, 0.00, 0.00
187, 0.00, -80591.54, 0.00, -187500.02, -71297.05, -187500.02, 0.00, 0.00, 0.00, 0.00, 0.00
188, 0.00, -87207.02, 0.00, -187500.02, -76521.73, -187500.02, 0.00, 0.00, 0.00, 0.00, 0.00
189, 0.00, -84273.36, 0.00, -187500.02, -76408.50, -187500.02, 0.00, 0.00, 0.00, 0.00, 0.00
190, 0.00, -77595.58, 0.00, -187500.02, -71552.49, -187500.02, 0.00, 0.00, 0.00, 0.00, 0.00
191, 0.00, -80180.89, 0.00, -187500.02, -71476.16, -187500.02, 0.00, 0.00, 0.00, 0.00, 0.00
192, 0.00, -87512.71, 0.00, -187500.02, -76731.32, -187500.02, 0.00, 0.00, 0.00, 0.00, 0.00
193, 0.00, -86434.69, 0.00, -187500.02, -77960.73, -187500.02, 0.00, 0.00, 0.00, 0.00, 0.00
194, 0.00, -79300.43, 0.00, -187500.02, -73280.68, -187500.02, 0.00, 0.00, 0.00, 0.00, 0.00
195, 0.00, -79856.34, 0.00, -187500.02, -71800.10, -187500.02, 0.00, 0.00, 0.00, 0.00, 0.00
196, 0.00, -87391.38, 0.00, -187500.02, -76667.09, -187500.02, 0.00, 0.00, 0.00, 0.00, 0.00
197, 0.00, -88296.65, 0.00, -187500.02, -79172.76, -187500.02, 0.00, 0.00, 0.00, 0.00, 0.00
198, 0.00, -81294.79, 0.00, -187500.02, -75075.84, -187500.02, 0.00, 0.00, 0.00, 0.00, 0.00
199, 0.00, -79909.52, 0.00, -187500.02, -72421.93, -187500.02, 0.00, 0.00, 0.00, 0.00, 0.00
200, 0.00, -87234.41, 0.00, -187500.02, -76676.43, -187500.02, 0.00, 0.00, 0.00, 0.00, 0.00
201, 0.00, -90094.96, 0.00, -187500.02, -80375.33, -187500.02, 0.00, 0.00, 0.00, 0.00, 0.00
202, 0.00, -83679.79, 0.00, -187500.02, -77126.84, -187500.02, 0.00, 0.00, 0.00, 0.00, 0.00
203, 0.00, -80355.95, 0.00, -187500.02, -73415.33, -187500.02, 0.00, 0.00, 0.00, 0.00, 0.00
204, 0.00, -86841.48, 0.00, -187500.02, -76669.59, -187500.02, 0.00, 0.00, 0.00, 0.00, 0.00
205, 0.00, -91308.48, 0.00, -187500.02, -81094.79, -187500.02, 0.00, 0.00, 0.00, 0.00, 0.00
206, 0.00, -85905.06, 0.00, -187500.02, -78888.55, -187500.02, 0.00, 0.00, 0.00, 0.00, 0.00
207, 0.00, -80921.09, 0.00, -187500.02, -74400.95, -187500.02, 0.00, 0.00, 0.00, 0.00, 0.00
208, 0.00, -86159.80, 0.00, -187500.02, -76454.85, -187500.02, 0.00, 0.00, 0.00, 0.00, 0.00
209, 0.00, -92015.73, 0.00, -187500.02, -81441.33, -187500.02, 0.00, 0.00, 0.00, 0.00, 0.00
210, 0.00, -87999.75, 0.00, -187500.02, -80464.29, -187500.02, 0.00, 0.00, 0.00, 0.00, 0.00
211, 0.00, -81750.70, 0.00, -187500.02, -75573.52, -187500.02, 0.00, 0.00, 0.00, 0.00, 0.00
212, 0.00, -85295.59, 0.00, -187500.02, -76201.81, -187500.02, 0.00, 0.00, 0.00, 0.00, 0.00
213, 0.00, -92037.87, 0.00, -187500.02, -81295.03, -187500.02, 0.00, 0.00, 0.00, 0.00, 0.00
214, 0.00, -89664.87, 0.00, -187500.02, -81559.32, -187500.02, 0.00, 0.00, 0.00, 0.00, 0.00
215, 0.00, -82589.18, 0.00, -187500.02, -76580.41, -187500.02, 0.00, 0.00, 0.00, 0.00, 0.00
216, 0.00, -84206.59, 0.00, -187500.02, -75763.67, -187500.02, 0.00, 0.00, 0.00, 0.00, 0.00
217, 0.00, -91367.55, 0.00, -187500.02, -80616.88, -187500.02, 0.00, 0.00, 0.00, 0.00, 0.00
218, 0.00, -90759.12, 0.00, -187500.02, -82101.71, -187500.02, 0.00, 0.00, 0.00, 0.00, 0.00
219, 0.00, -83405.35, 0.00, -187500.02, -77402.79, -187500.02, 0.00, 0.00, 0.00, 0.00, 0.00
220, 0.00, -83009.26, 0.00, -187500.02, -75245.13, -187500.02, 0.00, 0.00, 0.00, 0.00, 0.00
221, 0.00, -90214.70, 0.00, -187500.02, -79645.77, -187500.02, 0.00, 0.00, 0.00, 0.00, 0.00
222, 0.00, -91469.52, 0.00, -187500.02, -82280.32, -187500.02, 0.00, 0.00, 0.00, 0.00, 0.00
223, 0.00, -84272.11, 0.00, -187500.02, -78112.98, -187500.02, 0.00, 0.00, 0.00, 0.00, 0.00
224, 0.00, -81775.77, 0.00, -187500.02, -74696.66, -187500.02, 0.00, 0.00, 0.00, 0.00, 0.00
225, 0.00, -88408.86, 0.00, -187500.02, -78222.50, -187500.02, 0.00, 0.00, 0.00, 0.00, 0.00
226, 0.00, -91414.97, 0.00, -187500.02, -81766.39, -187500.02, 0.00, 0.00, 0.00, 0.00, 0.00
227, 0.00, -84957.88, 0.00, -187500.02, -78510.32, -187500.02, 0.00, 0.00, 0.00, 0.00, 0.00
228, 0.00, -80635.93, 0.00, -187500.02, -74139.55, -187500.02, 0.00, 0.00, 0.00, 0.00, 0.00
229, 0.00, -86249.23, 0.00, -187500.02, -76536.64, -187500.02, 0.00, 0.00, 0.00, 0.00, 0.00
230, 0.00, -90809.01, 0.00, -187500.02, -80779.58, -187500.02, 0.00, 0.00, 0.00, 0.00, 0.00
231, 0.00, -85504.00, 0.00, -187500.02, -78633.97, -187500.02, 0.00, 0.00, 0.00, 0.00, 0.00
232, 0.00, -79629.41, 0.00, -187500.02, -73585.61, -187500.02, 0.00, 0.00, 0.00, 0.00, 0.00
233, 0.00, -83803.44, 0.00, -187500.02, -74660.57, -187500.02, 0.00, 0.00, 0.00, 0.00, 0.00
234, 0.00, -89586.62, 0.00, -187500.02, -79292.90, -187500.02, 0.00, 0.00, 0.00, 0.00, 0.00
235, 0.00, -85730.76, 0.00, -187500.02, -78341.77, -187500.02, 0.00, 0.00, 0.00, 0.00, 0.00
236, 0.00, -78718.77, 0.00, -187500.02, -72968.77, -187500.02, 0.00, 0.00, 0.00, 0.00, 0.00
237, 0.00, -81228.49, 0.00, -187500.02, -72732.53, -187500.02, 0.00, 0.00, 0.00, 0.00, 0.00
238, 0.00, -87848.88, 0.00, -187500.02, -77455.25, -187500.02, 0.00, 0.00, 0.00, 0.00, 0.00
239, 0.00, -85795.73, 0.00, -187500.02, -77845.58, -187500.02, 0.00, 0.00, 0.00, 0.00, 0.00
240, 0.00, -78214.14, 0.00, -187500.02, -72585.34, -187500.02, 0.00, 0.00, 0.00, 0.00, 0.00
241, 0.00, -78761.71, 0.00, -187500.02, -70929.34, -187500.02, 0.00, 0.00, 0.00, 0.00, 0.00
242, 0.00, -85703.80, 0.00, -187500.02, -75360.06, -187500.02, 0.00, 0.00, 0.00, 0.00, 0.00
243, 0.00, -85572.55, 0.00, -187500.02, -77032.06, -187500.02, 0.00, 0.00, 0.00, 0.00, 0.00
244, 0.00, -77923.14, 0.00, -187500.02, -72202.28, -187500.02, 0.00, 0.00, 0.00, 0.00, 0.00
245, 0.00, -76494.57, 0.00, -187500.02, -69316.76, -187500.02, 0.00, 0.00, 0.00, 0.00, 0.00
246, 0.00, -83333.76, 0.00, -187500.02, -73199.81, -187500.02, 0.00, 0.00, 0.00, 0.00, 0.00
247, 0.00, -85104.38, 0.00, -187500.02, -76033.62, -187500.02, 0.00, 0.00, 0.00, 0.00, 0.00
248, 0.00, -77915.85, 0.00, -187500.02, -71965.57, -187500.02, 0.00, 0.00, 0.00, 0.00, 0.00
249, 0.00, -74509.74, 0.00, -187500.02, -67941.14, -187500.02, 0.00, 0.00, 0.00, 0.00, 0.00
250, 0.00, -80747.13, 0.00, -187500.02, -70954.59, -187500.02, 0.00, 0.00, 0.00, 0.00, 0.00
251, 0.00, -84229.13, 0.00, -187500.02, -74661.59, -187500.02, 0.00, 0.00, 0.00, 0.00, 0.00
252, 0.00, -78081.57, 0.00, -187500.02, -71730.41, -187500.02, 0.00, 0.00, 0.00, 0.00, 0.00
253, 0.00, -73106.77, 0.00, -187500.02, -67020.38, -187500.02, 0.00, 0.00, 0.00, 0.00, 0.00
254, 0.00, -78298.88, 0.00, -187500.02, -68974.15, -187500.02, 0.00, 0.00, 0.00, 0.00, 0.00
255, 0.00, -83379.07, 0.00, -187500.02, -73432.92, -187500.02, 0.00, 0.00, 0.00, 0.00, 0.00
0, 0.00, -78556.97, 0.00, -187500.02, -71701.27, -187500.02, 0.00, 0.00, 0.00, 0.00, 0.00
1, 0.00, -72274.01, 0.00, -187500.02, -66551.65, -187500.02, 0.00, 0.00, 0.00, 0.00, 0.00
2, 0.00, -75943.31, 0.00, -187500.02, -67203.42, -187500.02, 0.00, 0.00, 0.00, 0.00, 0.00
3, 0.00, -82209.29, 0.00, -187500.02, -72002.99, -187500.02, 0.00, 0.00, 0.00, 0.00, 0.00
4, 0.00, -79126.54, 0.00, -187500.02, -71659.47, -187500.02, 0.00, 0.00, 0.00, 0.00, 0.00
5, 0.00, -71930.30, 0.00, -187500.02, -66369.55, -187500.02, 0.00, 0.00, 0.00, 0.00, 0.00
6, 0.00, -73885.01, 0.00, -187500.02, -65741.38, -187500.02, 0.00, 0.00, 0.00, 0.00, 0.00
7, 0.00, -80852.56, 0.00, -187500.02, -70545.32, -187500.02, 0.00, 0.00, 0.00, 0.00, 0.00
8, 0.00, -79605.11, 0.00, -187500.02, -71502.29, -187500.02, 0.00, 0.00, 0.00, 0.00, 0.00
9, 0.00, -72016.83, 0.00, -187500.02, -66439.09, -187500.02, 0.00, 0.00, 0.00, 0.00, 0.00
10, 0.00, -71930.46, 0.00, -187500.02, -64411.06, -187500.02, 0.00, 0.00, 0.00, 0.00, 0.00
11, 0.00, -79052.62, 0.00, -187500.02, -68824.75, -187500.02, 0.00, 0.00, 0.00, 0.00, 0.00
12, 0.00, -79771.85, 0.00, -187500.02, -71074.37, -187500.02, 0.00, 0.00, 0.00, 0.00, 0.00
13, 0.00, -72400.80, 0.00, -187500.02, -66658.09, -187500.02, 0.00, 0.00, 0.00, 0.00, 0.00
14, 0.00, -70308.84, 0.00, -187500.02, -63410.87, -187500.02, 0.00, 0.00, 0.00, 0.00, 0.00
15, 0.00, -77121.14, 0.00, -187500.02, -67113.48, -187500.02, 0.00, 0.00, 0.00, 0.00, 0.00
16, 0.00, -79734.26, 0.00, -187500.02, -70448.27, -187500.02, 0.00, 0.00, 0.00, 0.00, 0.00
17, 0.00, -72975.83, 0.00, -187500.02, -66889.25, -187500.02, 0.00, 0.00, 0.00, 0.00, 0.00
18, 0.00, -69055.42, 0.00, -187500.02, -62686.74, -187500.02, 0.00, 0.00, 0.00, 0.00, 0.00
19, 0.00, -75058.63, 0.00, -187500.02, -65429.05, -187500.02, 0.00, 0.00, 0.00, 0.00, 0.00
20, 0.00, -79364.36, 0.00, -187500.02, -69593.25, -187500.02, 0.00, 0.00, 0.00, 0.00, 0.00
21, 0.00, -73787.40, 0.00, -187500.02, -67218.66, -187500.02, 0.00, 0.00, 0.00, 0.00, 0.00
22, 0.00, -68284.84, 0.00, -187500.02, -62341.00, -187500.02, 0.00, 0.00, 0.00, 0.00, 0.00
23, 0.00, -72991.98, 0.00, -187500.02, -63872.28, -187500.02, 0.00, 0.00, 0.00, 0.00, 0.00
24, 0.00, -78659.61, 0.00, -187500.02, -68566.97, -187500.02, 0.00, 0.00, 0.00, 0.00, 0.00
25, 0.00, -74522.75, 0.00, -187500.02, -67413.84, -187500.02, 0.00, 0.00, 0.00, 0.00, 0.00
26, 0.00, -67881.55, 0.00, -187500.02, -62233.22, -187500.02, 0.00, 0.00, 0.00, 0.00, 0.00
27, 0.00, -71088.27, 0.00, -187500.02, -62544.27, -187500.02, 0.00, 0.00, 0.00, 0.00, 0.00
