%OpenBCI Raw EEG Data
%
%Sample Rate = 250.0 Hz
%First Column = SampleIndex
%Other Columns = EEG data in microvolts followed by Accel Data (in G) interleaved with Aux Data
0, 102486.52, -187500.02, -187500.02, -187500.02, -187500.02, -187500.02, -187500.02, 23391.12, -0.00, -0.00, -0.00
1, 102511.11, -187500.02, -187500.02, -187500.02, -187500.02, -187500.02, -187500.02, 23389.85, -0.00, -0.00, -0.00
2, 102516.59, -187500.02, -187500.02, -187500.02, -187500.02, -187500.02, -187500.02, 23403.93, -0.00, -0.00, -0.00
3, 102514.59, -187500.02, -187500.02, -187500.02, -187500.02, -187500.02, -187500.02, 23407.37, -0.00, -0.00, -0.00
4, 102509.90, -187500.02, -187500.02, -187500.02, -187500.02, -187500.02, -187500.02, 23394.94, -0.00, -0.00, -0.00
5, 102492.18, -187500.02, -187500.02, -187500.02, -187500.02, -187500.02, -187500.02, 23432.43, -0.00, -0.00, -0.00
6, 102514.87, -187500.02, -187500.02, -187500.02, -187500.02, -187500.02, -187500.02, 23445.26, -0.00, -0.00, -0.00
7, 102518.51, -187500.02, -187500.02, -187500.02, -187500.02, -187500.02, -187500.02, 23436.88, -0.00, -0.00, -0.00
8, 102496.87, -187500.02, -187500.02, -187500.02, -187500.02, -187500.02, -187500.02, 23444.48, -0.00, -0.00, -0.00
9, 102508.72, -187500.02, -187500.02, -187500.02, -187500.02, -187500.02, -187500.02, 23451.92, -0.00, -0.00, -0.00
10, 102525.73, -187500.02, -187500.02, -187500.02, -187500.02, -187500.02, -187500.02, 23460.14, -0.00, -0.00, -0.00
11, 102518.30, -187500.02, -187500.02, -187500.02, -187500.02, -187500.02, -187500.02, 23458.96, -0.00, -0.00, -0.00
12, 102478.12, -187500.02, -187500.02, -187500.02, -187500.02, -187500.02, -187500.02, 23492.93, -0.00, -0.00, -0.00
13, 102484.48, -187500.02, -187500.02, -187500.02, -187500.02, -187500.02, -187500.02, 23512.51, -0.00, -0.00, -0.00
14, 102518.26, -187500.02, -187500.02, -187500.02, -187500.02, -187500.02, -187500.02, 23515.06, -0.00, -0.00, -0.00
15, 102514.77, -187500.02, -187500.02, -187500.02, -187500.02, -187500.02, -187500.02, 23515.58, -0.00, -0.00, -0.00
16, 102489.12, -187500.02, -187500.02, -187500.02, -187500.02, -187500.02, -187500.02, 23531.89, -0.00, -0.00, -0.00
17, 102495.77, -187500.02, -187500.02, -187500.02, -187500.02, -187500.02, -187500.02, 23545.64, -0.00, -0.00, -0.00
18, 102521.23, -187500.02, -187500.02, -187500.02, -187500.02, -187500.02, -187500.02, 23545.15, -0.00, -0.00, -0.00
19, 102519.02, -187500.02, -187500.02, -187500.02, -187500.02, -187500.02, -187500.02, 23547.54, -0.00, -0.00, -0.00
20, 102482.50, -187500.02, -187500.02, -187500.02, -187500.02, -187500.02, -187500.02, 23572.39, -0.00, -0.00, -0.00
21, 102484.04, -187500.02, -187500.02, -187500.02, -187500.02, -187500.02, -187500.02, 23594.63, -0.00, -0.00, -0.00
22, 102525.13, -187500.02, -187500.02, -187500.02, -187500.02, -187500.02, -187500.02, 23585.76, -0.00, -0.00, -0.00
23, 102527.00, -187500.02, -187500.02, -187500.02, -187500.02, -187500.02, -187500.02, 23591.28, -0.00, -0.00, -0.00
24, 102493.72, -187500.02, -187500.02, -187500.02, -187500.02, -187500.02, -187500.02, 23625.03, -0.00, -0.00, -0.00
25, 102502.48, -187500.02, -187500.02, -187500.02, -187500.02, -187500.02, -187500.02, 23625.10, -0.00, -0.00, -0.00
26, 102519.54, -187500.02, -187500.02, -187500.02, -187500.02, -187500.02, -187500.02, 23615.69, -0.00, -0.00, -0.00
27, 102511.09, -187500.02, -187500.02, -187500.02, -187500.02, -187500.02, -187500.02, 23639.07, -0.00, -0.00, -0.00
28, 102504.94, -187500.02, -187500.02, -187500.02, -187500.02, -187500.02, -187500.02, 23639.12, -0.00, -0.00, -0.00
29, 102493.83, -187500.02, -187500.02, -187500.02, -187500.02, -187500.02, -187500.02, 23648.41, -0.00, -0.00, -0.00
30, 102509.01, -187500.02, -187500.02, -187500.02, -187500.02, -187500.02, -187500.02, 23648.05, -0.00, -0.00, -0.00
31, 102514.62, -187500.02, -187500.02, -187500.02, -187500.02, -187500.02, -187500.02, 23673.22, -0.00, -0.00, -0.00
32, 102508.70, -187500.02, -187500.02, -187500.02, -187500.02, -187500.02, -187500.02, 23688.47, -0.00, -0.00, -0.00
33, 102499.91, -187500.02, -187500.02, -187500.02, -187500.02, -187500.02, -187500.02, 23694.32, -0.00, -0.00, -0.00
34, 102512.56, -187500.02, -187500.02, -187500.02, -187500.02, -187500.02, -187500.02, 23688.02, -0.00, -0.00, -0.00
35, 102521.95, -187500.02, -187500.02, -187500.02, -187500.02, -187500.02, -187500.02, 23699.53, -0.00, -0.00, -0.00
36, 102523.07, -187500.02, -187500.02, -187500.02, -187500.02, -187500.02, -187500.02, 23696.27, -0.00, -0.00, -0.00
37, 102509.77, -187500.02, -187500.02, -187500.02, -187500.02, -187500.02, -187500.02, 23700.25, -0.00, -0.00, -0.00
38, 102510.17, -187500.02, -187500.02, -187500.02, -187500.02, -187500.02, -187500.02, 23709.12, -0.00, -0.00, -0.00
39, 102519.94, -187500.02, -187500.02, -187500.02, -187500.02, -187500.02, -187500.02, 23729.97, -0.00, -0.00, -0.00
40, 102511.20, -187500.02, -187500.02, -187500.02, -187500.02, -187500.02, -187500.02, 23749.15, -0.00, -0.00, -0.00
41, 102512.02, -187500.02, -187500.02, -187500.02, -187500.02, -187500.02, -187500.02, 23745.35, -0.00, -0.00, -0.00
42, 102494.05, -187500.02, -187500.02, -187500.02, -187500.02, -187500.02, -187500.02, 23760.93, -0.00, -0.00, -0.00
43, 102507.11, -187500.02, -187500.02, -187500.02, -187500.02, -187500.02, -187500.02, 23781.21, -0.00, -0.00, -0.00
44, 102516.25, -187500.02, -187500.02, -187500.02, -187500.02, -187500.02, -187500.02, 23785.81, -0.00, -0.00, -0.00
45, 102515.65, -187500.02, -187500.02, -187500.02, -187500.02, -187500.02, -187500.02, 23780.15, -0.00, -0.00, -0.00
46, 102506.26, -187500.02, -187500.02, -187500.02, -187500.02, -187500.02, -187500.02, 23789.16, -0.00, -0.00, -0.00
47, 102504.72, -187500.02, -187500.02, -187500.02, -187500.02, -187500.02, -187500.02, 23814.22, -0.00, -0.00, -0.00
48, 102516.72, -187500.02, -187500.02, -187500.02, -187500.02, -187500.02, -187500.02, 23838.45, -0.00, -0.00, -0.00
49, 102524.61, -187500.02, -187500.02, -187500.02, -187500.02, -187500.02, -187500.02, 23827.99, -0.00, -0.00, -0.00
50, 102512.34, -187500.02, -187500.02, -187500.02, -187500.02, -187500.02, -187500.02, 23825.26, -0.00, -0.00, -0.00
51, 102524.12, -187500.02, -187500.02, -187500.02, -187500.02, -187500.02, -187500.02, 23829.95, -0.00, -0.00, -0.00
52, 102523.16, -187500.02, -187500.02, -187500.02, -187500.02, -187500.02, -187500.02, 23844.79, -0.00, -0.00, -0.00
53, 102505.21, -187500.02, -187500.02, -187500.02, -187500.02, -187500.02, -187500.02, 23864.42, -0.00, -0.00, -0.00
54, 102487.62, -187500.02, -187500.02, -187500.02, -187500.02, -187500.02, -187500.02, 23882.88, -0.00, -0.00, -0.00
55, 102502.34, -187500.02, -187500.02, -187500.02, -187500.02, -187500.02, -187500.02, 23906.67, -0.00, -0.00, -0.00
56, 102537.57, -187500.02, -187500.02, -187500.02, -187500.02, -187500.02, -187500.02, 23894.53, -0.00, -0.00, -0.00
57, 102524.16, -187500.02, -187500.02, -187500.02, -187500.02, -187500.02, -187500.02, 23892.18, -0.00, -0.00, -0.00
58, 102509.19, -187500.02, -187500.02, -187500.02, -187500.02, -187500.02, -187500.02, 23897.46, -0.00, -0.00, -0.00
59, 102511.38, -187500.02, -187500.02, -187500.02, -187500.02, -187500.02, -187500.02, 23906.96, -0.00, -0.00, -0.00
60, 102516.36, -187500.02, -187500.02, -187500.02, -187500.02, -187500.02, -187500.02, 23929.58, -0.00, -0.00, -0.00
61, 102513.55, -187500.02, -187500.02, -187500.02, -187500.02, -187500.02, -187500.02, 23938.90, -0.00, -0.00, -0.00
62, 102498.13, -187500.02, -187500.02, -187500.02, -187500.02, -187500.02, -187500.02, 23950.21, -0.00, -0.00, -0.00
63, 102514.38, -187500.02, -187500.02, -187500.02, -187500.02, -187500.02, -187500.02, 23949.80, -0.00, -0.00, -0.00
64, 102528.84, -187500.02, -187500.02, -187500.02, -187500.02, -187500.02, -187500.02, 23945.29, -0.00, -0.00, -0.00
65, 102517.75, -187500.02, -187500.02, -187500.02, -187500.02, -187500.02, -187500.02, 23966.12, -0.00, -0.00, -0.00
66, 102514.28, -187500.02, -187500.02, -187500.02, -187500.02, -187500.02, -187500.02, 23962.97, -0.00, -0.00, -0.00
67, 102501.27, -187500.02, -187500.02, -187500.02, -187500.02, -187500.02, -187500.02, 23977.63, -0.00, -0.00, -0.00
68, 102522.20, -187500.02, -187500.02, -187500.02, -187500.02, -187500.02, -187500.02, 23979.42, -0.00, -0.00, -0.00
69, 102523.23, -187500.02, -187500.02, -187500.02, -187500.02, -187500.02, -187500.02, 23981.74, -0.00, -0.00, -0.00
70, 102495.82, -187500.02, -187500.02, -187500.02, -187500.02, -187500.02, -187500.02, 24002.78, -0.00, -0.00, -0.00
71, 102492.98, -187500.02, -187500.02, -187500.02, -187500.02, -187500.02, -187500.02, 24013.28, -0.00, -0.00, -0.00
72, 102526.71, -187500.02, -187500.02, -187500.02, -187500.02, -187500.02, -187500.02, 23999.96, -0.00, -0.00, -0.00
73, 102522.87, -187500.02, -187500.02, -187500.02, -187500.02, -187500.02, -187500.02, 24002.38, -0.00, -0.00, -0.00
74, 102517.19, -187500.02, -187500.02, -187500.02, -187500.02, -187500.02, -187500.02, 23997.93, -0.00, -0.00, -0.00
75, 102498.23, -187500.02, -187500.02, -187500.02, -187500.02, -187500.02, -187500.02, 23998.93, -0.00, -0.00, -0.00
76, 102493.88, -187500.02, -187500.02, -187500.02, -187500.02, -187500.02, -187500.02, 24024.55, -0.00, -0.00, -0.00
77, 102504.34, -187500.02, -187500.02, -187500.02, -187500.02, -187500.02, -187500.02, 24042.16, -0.00, -0.00, -0.00
78, 102505.70, -187500.02, -187500.02, -187500.02, -187500.02, -187500.02, -187500.02, 24049.76, -0.00, -0.00, -0.00
79, 102497.48, -187500.02, -187500.02, -187500.02, -187500.02, -187500.02, -187500.02, 24049.31, -0.00, -0.00, -0.00
80, 102497.52, -187500.02, -187500.02, -187500.02, -187500.02, -187500.02, -187500.02, 24060.22, -0.00, -0.00, -0.00
81, 102514.13, -187500.02, -187500.02, -187500.02, -187500.02, -187500.02, -187500.02, 24064.11, -0.00, -0.00, -0.00
82, 102486.66, -187500.02, -187500.02, -187500.02, -187500.02, -187500.02, -187500.02, 24089.68, -0.00, -0.00, -0.00
83, 102492.05, -187500.02, -187500.02, -187500.02, -187500.02, -187500.02, -187500.02, 24082.71, -0.00, -0.00, -0.00
84, 102484.87, -187500.02, -187500.02, -187500.02, -187500.02, -187500.02, -187500.02, 24091.78, -0.00, -0.00, -0.00
85, 102494.05, -187500.02, -187500.02, -187500.02, -187500.02, -187500.02, -187500.02, 24111.41, -0.00, -0.00, -0.00
86, 102489.74, -187500.02, -187500.02, -187500.02, -187500.02, -187500.02, -187500.02, 24121.73, -0.00, -0.00, -0.00
87, 102484.76, -187500.02, -187500.02, -187500.02, -187500.02, -187500.02, -187500.02, 24132.17, -0.00, -0.00, -0.00
88, 102495.35, -187500.02, -187500.02, -187500.02, -187500.02, -187500.02, -187500.02, 24134.14, -0.00, -0.00, -0.00
89, 102513.39, -187500.02, -187500.02, -187500.02, -187500.02, -187500.02, -187500.02, 24139.95, -0.00, -0.00, -0.00
90, 102513.91, -187500.02, -187500.02, -187500.02, -187500.02, -187500.02, -187500.02, 24137.42, -0.00, -0.00, -0.00
91, 102492.89, -187500.02, -187500.02, -187500.02, -187500.02, -187500.02, -187500.02, 24142.48, -0.00, -0.00, -0.00
92, 102492.31, -187500.02, -187500.02, -187500.02, -187500.02, -187500.02, -187500.02, 24162.08, -0.00, -0.00, -0.00
93, 102519.65, -187500.02, -187500.02, -187500.02, -187500.02, -187500.02, -187500.02, 24159.13, -0.00, -0.00, -0.00
94, 102505.30, -187500.02, -187500.02, -187500.02, -187500.02, -187500.02, -187500.02, 24178.28, -0.00, -0.00, -0.00
95, 102502.93, -187500.02, -187500.02, -187500.02, -187500.02, -187500.02, -187500.02, 24175.06, -0.00, -0.00, -0.00
96, 102491.69, -187500.02, -187500.02, -187500.02, -187500.02, -187500.02, -187500.02, 24185.26, -0.00, -0.00, -0.00
97, 102508.67, -187500.02, -187500.02, -187500.02, -187500.02, -187500.02, -187500.02, 24191.49, -0.00, -0.00, -0.00
98, 102515.96, -187500.02, -187500.02, -187500.02, -187500.02, -187500.02, -187500.02, 24187.36, -0.00, -0.00, -0.00
99, 102496.60, -187500.02, -187500.02, -187500.02, -187500.02, -187500.02, -187500.02, 24205.22, -0.00, -0.00, -0.00
100, 102495.09, -187500.02, -187500.02, -187500.02, -187500.02, -187500.02, -187500.02, 24200.79, -0.00, -0.00, -0.00
101, 102495.09, -187500.02, -187500.02, -187500.02, -187500.02, -187500.02, -187500.02, 24221.60, -0.00, -0.00, -0.00
102, 102509.81, -187500.02, -187500.02, -187500.02, -187500.02, -187500.02, -187500.02, 24226.07, -0.00, -0.00, -0.00
103, 102502.55, -187500.02, -187500.02, -187500.02, -187500.02, -187500.02, -187500.02, 24239.30, -0.00, -0.00, -0.00
104, 102505.23, -187500.02, -187500.02, -187500.02, -187500.02, -187500.02, -187500.02, 24230.79, -0.00, -0.00, -0.00
105, 102503.51, -187500.02, -187500.02, -187500.02, -187500.02, -187500.02, -187500.02, 24242.79, -0.00, -0.00, -0.00
106, 102516.85, -187500.02, -187500.02, -187500.02, -187500.02, -187500.02, -187500.02, 24249.94, -0.00, -0.00, -0.00
107, 102502.44, -187500.02, -187500.02, -187500.02, -187500.02, -187500.02, -187500.02, 24261.61, -0.00, -0.00, -0.00
108, 102486.19, -187500.02, -187500.02, -187500.02, -187500.02, -187500.02, -187500.02, 24285.08, -0.00, -0.00, -0.00
109, 102506.95, -187500.02, -187500.02, -187500.02, -187500.02, -187500.02, -187500.02, 24282.55, -0.00, -0.00, -0.00
110, 102513.05, -187500.02, -187500.02, -187500.02, -187500.02, -187500.02, -187500.02, 24287.58, -0.00, -0.00, -0.00
111, 102520.45, -187500.02, -187500.02, -187500.02, -187500.02, -187500.02, -187500.02, 24287.25, -0.00, -0.00, -0.00
112, 102515.22, -187500.02, -187500.02, -187500.02, -187500.02, -187500.02, -187500.02, 24280.34, -0.00, -0.00, -0.00
113, 102493.98, -187500.02, -187500.02, -187500.02, -187500.02, -187500.02, -187500.02, 24297.11, -0.00, -0.00, -0.00
114, 102485.85, -187500.02, -187500.02, -187500.02, -187500.02, -187500.02, -187500.02, 24334.37, -0.00, -0.00, -0.00
115, 102497.38, -187500.02, -187500.02, -187500.02, -187500.02, -187500.02, -187500.02, 24345.21, -0.00, -0.00, -0.00
116, 102498.86, -187500.02, -187500.02, -187500.02, -187500.02, -187500.02, -187500.02, 24337.79, -0.00, -0.00, -0.00
117, 102496.47, -187500.02, -187500.02, -187500.02, -187500.02, -187500.02, -187500.02, 24345.99, -0.00, -0.00, -0.00
118, 102512.43, -187500.02, -187500.02, -187500.02, -187500.02, -187500.02, -187500.02, 24346.50, -0.00, -0.00, -0.00
119, 102502.08, -187500.02, -187500.02, -187500.02, -187500.02, -187500.02, -187500.02, 24362.66, -0.00, -0.00, -0.00
120, 102494.13, -187500.02, -187500.02, -187500.02, -187500.02, -187500.02, -187500.02, 24372.88, -0.00, -0.00, -0.00
121, 102496.47, -187500.02, -187500.02, -187500.02, -187500.02, -187500.02, -187500.02, 24367.04, -0.00, -0.00, -0.00
122, 102501.70, -187500.02, -187500.02, -187500.02, -187500.02, -187500.02, -187500.02, 24374.44, -0.00, -0.00, -0.00
123, 102495.46, -187500.02, -187500.02, -187500.02, -187500.02, -187500.02, -187500.02, 24394.71, -0.00, -0.00, -0.00
124, 102490.10, -187500.02, -187500.02, -187500.02, -187500.02, -187500.02, -187500.02, 24394.96, -0.00, -0.00, -0.00
125, 102478.79, -187500.02, -187500.02, -187500.02, -187500.02, -187500.02, -187500.02, 24405.85, -0.00, -0.00, -0.00
126, 102481.09, -187500.02, -187500.02, -187500.02, -187500.02, -187500.02, -187500.02, 24425.72, -0.00, -0.00, -0.00
127, 102499.42, -187500.02, -187500.02, -187500.02, -187500.02, -187500.02, -187500.02, 24432.94, -0.00, -0.00, -0.00
128, 102488.58, -187500.02, -187500.02, -187500.02, -187500.02, -187500.02, -187500.02, 24447.33, -0.00, -0.00, -0.00
129, 102489.41, -187500.02, -187500.02, -187500.02, -187500.02, -187500.02, -187500.02, 24447.76, -0.00, -0.00, -0.00
130, 102514.66, -187500.02, -187500.02, -187500.02, -187500.02, -187500.02, -187500.02, 24432.58, -0.00, -0.00, -0.00
131, 102503.94, -187500.02, -187500.02, -187500.02, -187500.02, -187500.02, -187500.02, 24444.74, -0.00, -0.00, -0.00
132, 102492.20, -187500.02, -187500.02, -187500.02, -187500.02, -187500.02, -187500.02, 24464.10, -0.00, -0.00, -0.00
133, 102495.66, -187500.02, -187500.02, -187500.02, -187500.02, -187500.02, -187500.02, 24453.77, -0.00, -0.00, -0.00
134, 102491.93, -187500.02, -187500.02, -187500.02, -187500.02, -187500.02, -187500.02, 24459.69, -0.00, -0.00, -0.00
135, 102503.17, -187500.02, -187500.02, -187500.02, -187500.02, -187500.02, -187500.02, 24464.88, -0.00, -0.00, -0.00
136, 102498.68, -187500.02, -187500.02, -187500.02, -187500.02, -187500.02, -187500.02, 24476.43, -0.00, -0.00, -0.00
137, 102485.80, -187500.02, -187500.02, -187500.02, -187500.02, -187500.02, -187500.02, 24483.09, -0.00, -0.00, -0.00
138, 102482.07, -187500.02, -187500.02, -187500.02, -187500.02, -187500.02, -187500.02, 24502.76, -0.00, -0.00, -0.00
139, 102509.95, -187500.02, -187500.02, -187500.02, -187500.02, -187500.02, -187500.02, 24500.33, -0.00, -0.00, -0.00
140, 102512.98, -187500.02, -187500.02, -187500.02, -187500.02, -187500.02, -187500.02, 24504.60, -0.00, -0.00, -0.00
141, 102499.91, -187500.02, -187500.02, -187500.02, -187500.02, -187500.02, -187500.02, 24512.20, -0.00, -0.00, -0.00
142, 102504.90, -187500.02, -187500.02, -187500.02, -187500.02, -187500.02, -187500.02, 24505.18, -0.00, -0.00, -0.00
143, 102500.72, -187500.02, -187500.02, -187500.02, -187500.02, -187500.02, -187500.02, 24515.77, -0.00, -0.00, -0.00
144, 102496.49, -187500.02, -187500.02, -187500.02, -187500.02, -187500.02, -187500.02, 24541.86, -0.00, -0.00, -0.00
145, 102496.67, -187500.02, -187500.02, -187500.02, -187500.02, -187500.02, -187500.02, 24546.10, -0.00, -0.00, -0.00
146, 102494.77, -187500.02, -187500.02, -187500.02, -187500.02, -187500.02, -187500.02, 24541.90, -0.00, -0.00, -0.00
147, 102510.48, -187500.02, -187500.02, -187500.02, -187500.02, -187500.02, -187500.02, 24537.34, -0.00, -0.00, -0.00
148, 102521.70, -187500.02, -187500.02, -187500.02, -187500.02, -187500.02, -187500.02, 24536.60, -0.00, -0.00, -0.00
149, 102505.74, -187500.02, -187500.02, -187500.02, -187500.02, -187500.02, -187500.02, 24539.62, -0.00, -0.00, -0.00
150, 102486.79, -187500.02, -187500.02, -187500.02, -187500.02, -187500.02, -187500.02, 24556.25, -0.00, -0.00, -0.00
151, 102492.16, -187500.02, -187500.02, -187500.02, -187500.02, -187500.02, -187500.02, 24576.28, -0.00, -0.00, -0.00
152, 102511.73, -187500.02, -187500.02, -187500.02, -187500.02, -187500.02, -187500.02, 24580.79, -0.00, -0.00, -0.00
153, 102510.20, -187500.02, -187500.02, -187500.02, -187500.02, -187500.02, -187500.02, 24571.25, -0.00, -0.00, -0.00
154, 102494.86, -187500.02, -187500.02, -187500.02, -187500.02, -187500.02, -187500.02, 24574.27, -0.00, -0.00, -0.00
155, 102500.20, -187500.02, -187500.02, -187500.02, -187500.02, -187500.02, -187500.02, 24582.47, -0.00, -0.00, -0.00
156, 102506.48, -187500.02, -187500.02, -187500.02, -187500.02, -187500.02, -187500.02, 24600.62, -0.00, -0.00, -0.00
157, 102509.19, -187500.02, -187500.02, -187500.02, -187500.02, -187500.02, -187500.02, 24612.38, -0.00, -0.00, -0.00
158, 102509.32, -187500.02, -187500.02, -187500.02, -187500.02, -187500.02, -187500.02, 24607.24, -0.00, -0.00, -0.00
159, 102498.93, -187500.02, -187500.02, -187500.02, -187500.02, -187500.02, -187500.02, 24625.45, -0.00, -0.00, -0.00
160, 102523.94, -187500.02, -187500.02, -187500.02, -187500.02, -187500.02, -187500.02, 24626.88, -0.00, -0.00, -0.00
161, 102511.63, -187500.02, -187500.02, -187500.02, -187500.02, -187500.02, -187500.02, 24639.73, -0.00, -0.00, -0.00
162, 102519.76, -187500.02, -187500.02, -187500.02, -187500.02, -187500.02, -187500.02, 24631.46, -0.00, -0.00, -0.00
163, 102514.23, -187500.02, -187500.02, -187500.02, -187500.02, -187500.02, -187500.02, 24615.33, -0.00, -0.00, -0.00
164, 102516.95, -187500.02, -187500.02, -187500.02, -187500.02, -187500.02, -187500.02, 24624.00, -0.00, -0.00, -0.00
165, 102514.73, -187500.02, -187500.02, -187500.02, -187500.02, -187500.02, -187500.02, 24640.07, -0.00, -0.00, -0.00
166, 102505.68, -187500.02, -187500.02, -187500.02, -187500.02, -187500.02, -187500.02, 24647.98, -0.00, -0.00, -0.00
167, 102512.79, -187500.02, -187500.02, -187500.02, -187500.02, -187500.02, -187500.02, 24635.53, -0.00, -0.00, -0.00
168, 102499.09, -187500.02, -187500.02, -187500.02, -187500.02, -187500.02, -187500.02, 24662.60, -0.00, -0.00, -0.00
169, 102507.51, -187500.02, -187500.02, -187500.02, -187500.02, -187500.02, -187500.02, 24681.27, -0.00, -0.00, -0.00
170, 102497.23, -187500.02, -187500.02, -187500.02, -187500.02, -187500.02, -187500.02, 24684.17, -0.00, -0.00, -0.00
171, 102484.20, -187500.02, -187500.02, -187500.02, -187500.02, -187500.02, -187500.02, 24697.31, -0.00, -0.00, -0.00
172, 102511.47, -187500.02, -187500.02, -187500.02, -187500.02, -187500.02, -187500.02, 24687.19, -0.00, -0.00, -0.00
173, 102518.64, -187500.02, -187500.02, -187500.02, -187500.02, -187500.02, -187500.02, 24685.27, -0.00, -0.00, -0.00
174, 102494.34, -187500.02, -187500.02, -187500.02, -187500.02, -187500.02, -187500.02, 24704.87, -0.00, -0.00, -0.00
175, 102474.32, -187500.02, -187500.02, -187500.02, -187500.02, -187500.02, -187500.02, 24734.93, -0.00, -0.00, -0.00
176, 102486.16, -187500.02, -187500.02, -187500.02, -187500.02, -187500.02, -187500.02, 24750.51, -0.00, -0.00, -0.00
177, 102499.33, -187500.02, -187500.02, -187500.02, -187500.02, -187500.02, -187500.02, 24760.19, -0.00, -0.00, -0.00
178, 102508.63, -187500.02, -187500.02, -187500.02, -187500.02, -187500.02, -187500.02, 24749.01, -0.00, -0.00, -0.00
179, 102497.34, -187500.02, -187500.02, -187500.02, -187500.02, -187500.02, -187500.02, 24741.73, -0.00, -0.00, -0.00
180, 102474.50, -187500.02, -187500.02, -187500.02, -187500.02, -187500.02, -187500.02, 24776.37, -0.00, -0.00, -0.00
181, 102487.64, -187500.02, -187500.02, -187500.02, -187500.02, -187500.02, -187500.02, 24798.34, -0.00, -0.00, -0.00
182, 102491.71, -187500.02, -187500.02, -187500.02, -187500.02, -187500.02, -187500.02, 24810.30, -0.00, -0.00, -0.00
183, 102498.64, -187500.02, -187500.02, -187500.02, -187500.02, -187500.02, -187500.02, 24789.54, -0.00, -0.00, -0.00
184, 102494.91, -187500.02, -187500.02, -187500.02, -187500.02, -187500.02, -187500.02, 24792.11, -0.00, -0.00, -0.00
185, 102506.17, -187500.02, -187500.02, -187500.02, -187500.02, -187500.02, -187500.02, 24794.88, -0.00, -0.00, -0.00
186, 102501.48, -187500.02, -187500.02, -187500.02, -187500.02, -187500.02, -187500.02, 24803.15, -0.00, -0.00, -0.00
187, 102485.74, -187500.02, -187500.02, -187500.02, -187500.02, -187500.02, -187500.02, 24816.31, -0.00, -0.00, -0.00
188, 102503.11, -187500.02, -187500.02, -187500.02, -187500.02, -187500.02, -187500.02, 24799.57, -0.00, -0.00, -0.00
189, 102515.47, -187500.02, -187500.02, -187500.02, -187500.02, -187500.02, -187500.02, 24798.23, -0.00, -0.00, -0.00
190, 102522.17, -187500.02, -187500.02, -187500.02, -187500.02, -187500.02, -187500.02, 24789.76, -0.00, -0.00, -0.00
191, 102496.78, -187500.02, -187500.02, -187500.02, -187500.02, -187500.02, -187500.02, 24802.97, -0.00, -0.00, -0.00
192, 102504.88, -187500.02, -187500.02, -187500.02, -187500.02, -187500.02, -187500.02, 24796.87, -0.00, -0.00, -0.00
193, 102507.42, -187500.02, -187500.02, -187500.02, -187500.02, -187500.02, -187500.02, 24807.51, -0.00, -0.00, -0.00
194, 102500.52, -187500.02, -187500.02, -187500.02, -187500.02, -187500.02, -187500.02, 24830.80, -0.00, -0.00, -0.00
195, 102492.02, -187500.02, -187500.02, -187500.02, -187500.02, -187500.02, -187500.02, 24840.07, -0.00, -0.00, -0.00
196, 102493.65, -187500.02, -187500.02, -187500.02, -187500.02, -187500.02, -187500.02, 24841.48, -0.00, -0.00, -0.00
197, 102508.20, -187500.02, -187500.02, -187500.02, -187500.02, -187500.02, -187500.02, 24836.30, -0.00, -0.00, -0.00
198, 102499.46, -187500.02, -187500.02, -187500.02, -187500.02, -187500.02, -187500.02, 24855.23, -0.00, -0.00, -0.00
199, 102503.51, -187500.02, -187500.02, -187500.02, -187500.02, -187500.02, -187500.02, 24859.36, -0.00, -0.00, -0.00
200, 102483.66, -187500.02, -187500.02, -187500.02, -187500.02, -187500.02, -187500.02, 24872.55, -0.00, -0.00, -0.00
201, 102485.90, -187500.02, -187500.02, -187500.02, -187500.02, -187500.02, -187500.02, 24890.57, -0.00, -0.00, -0.00
202, 102511.22, -187500.02, -187500.02, -187500.02, -187500.02, -187500.02, -187500.02, 24889.98, -0.00, -0.00, -0.00
203, 102494.57, -187500.02, -187500.02, -187500.02, -187500.02, -187500.02, -187500.02, 24905.95, -0.00, -0.00, -0.00
204, 102472.51, -187500.02, -187500.02, -187500.02, -187500.02, -187500.02, -187500.02, 24929.71, -0.00, -0.00, -0.00
205, 102503.63, -187500.02, -187500.02, -187500.02, -187500.02, -187500.02, -187500.02, 24908.56, -0.00, -0.00, -0.00
206, 102513.12, -187500.02, -187500.02, -187500.02, -187500.02, -187500.02, -187500.02, 24895.93, -0.00, -0.00, -0.00
207, 102501.05, -187500.02, -187500.02, -187500.02, -187500.02, -187500.02, -187500.02, 24909.63, -0.00, -0.00, -0.00
208, 102490.88, -187500.02, -187500.02, -187500.02, -187500.02, -187500.02, -187500.02, 24915.20, -0.00, -0.00, -0.00
209, 102483.84, -187500.02, -187500.02, -187500.02, -187500.02, -187500.02, -187500.02, 24931.09, -0.00, -0.00, -0.00
210, 102491.24, -187500.02, -187500.02, -187500.02, -187500.02, -187500.02, -187500.02, 24954.45, -0.00, -0.00, -0.00
211, 102490.97, -187500.02, -187500.02, -187500.02, -187500.02, -187500.02, -187500.02, 24974.79, -0.00, -0.00, -0.00
212, 102483.33, -187500.02, -187500.02, -187500.02, -187500.02, -187500.02, -187500.02, 24986.63, -0.00, -0.00, -0.00
213, 102503.45, -187500.02, -187500.02, -187500.02, -187500.02, -187500.02, -187500.02, 24968.33, -0.00, -0.00, -0.00
214, 102514.41, -187500.02, -187500.02, -187500.02, -187500.02, -187500.02, -187500.02, 24966.23, -0.00, -0.00, -0.00
215, 102519.98, -187500.02, -187500.02, -187500.02, -187500.02, -187500.02, -187500.02, 24970.99, -0.00, -0.00, -0.00
216, 102510.77, -187500.02, -187500.02, -187500.02, -187500.02, -187500.02, -187500.02, 24970.99, -0.00, -0.00, -0.00
217, 102509.14, -187500.02, -187500.02, -187500.02, -187500.02, -187500.02, -187500.02, 24971.95, -0.00, -0.00, -0.00
218, 102517.86, -187500.02, -187500.02, -187500.02, -187500.02, -187500.02, -187500.02, 24970.90, -0.00, -0.00, -0.00
219, 102515.02, -187500.02, -187500.02, -187500.02, -187500.02, -187500.02, -187500.02, 24991.08, -0.00, -0.00, -0.00
220, 102522.55, -187500.02, -187500.02, -187500.02, -187500.02, -187500.02, -187500.02, 24987.97, -0.00, -0.00, -0.00
221, 102509.21, -187500.02, -187500.02, -187500.02, -187500.02, -187500.02, -187500.02, 24985.67, -0.00, -0.00, -0.00
222, 102516.23, -187500.02, -187500.02, -187500.02, -187500.02, -187500.02, -187500.02, 24991.13, -0.00, -0.00, -0.00
223, 102522.27, -187500.02, -187500.02, -187500.02, -187500.02, -187500.02, -187500.02, 24997.27, -0.00, -0.00, -0.00
224, 102516.16, -187500.02, -187500.02, -187500.02, -187500.02, -187500.02, -187500.02, 25003.49, -0.00, -0.00, -0.00
225, 102502.77, -187500.02, -187500.02, -187500.02, -187500.02, -187500.02, -187500.02, 25005.23, -0.00, -0.00, -0.00
226, 102501.54, -187500.02, -187500.02, -187500.02, -187500.02, -187500.02, -187500.02, 25013.97, -0.00, -0.00, -0.00
227, 102507.02, -187500.02, -187500.02, -187500.02, -187500.02, -187500.02, -187500.02, 25042.18, -0.00, -0.00, -0.00
228, 102517.23, -187500.02, -187500.02, -187500.02, -187500.02, -187500.02, -187500.02, 25034.31, -0.00, -0.00, -0.00
229, 102481.38, -187500.02, -187500.02, -187500.02, -187500.02, -187500.02, -187500.02, 25046.45, -0.00, -0.00, -0.00
230, 102487.39, -187500.02, -187500.02, -187500.02, -187500.02, -187500.02, -187500.02, 25068.06, -0.00, -0.00, -0.00
231, 102513.05, -187500.02, -187500.02, -187500.02, -187500.02, -187500.02, -187500.02, 25063.57, -0.00, -0.00, -0.00
232, 102510.41, -187500.02, -187500.02, -187500.02, -187500.02, -187500.02, -187500.02, 25069.11, -0.00, -0.00, -0.00
233, 102488.35, -187500.02, -187500.02, -187500.02, -187500.02, -187500.02, -187500.02, 25084.94, -0.00, -0.00, -0.00
234, 102506.17, -187500.02, -187500.02, -187500.02, -187500.02, -187500.02, -187500.02, 25083.53, -0.00, -0.00, -0.00
235, 102520.41, -187500.02, -187500.02, -187500.02, -187500.02, -187500.02, -187500.02, 25073.72, -0.00, -0.00, -0.00
236, 102512.25, -187500.02, -187500.02, -187500.02, -187500.02, -187500.02, -187500.02, 25082.70, -0.00, -0.00, -0.00
237, 102492.71, -187500.02, -187500.02, -187500.02, -187500.02, -187500.02, -187500.02, 25105.46, -0.00, -0.00, -0.00
238, 102511.83, -187500.02, -187500.02, -187500.02, -187500.02, -187500.02, -187500.02, 25097.41, -0.00, -0.00, -0.00
239, 102524.74, -187500.02, -187500.02, -187500.02, -187500.02, -187500.02, -187500.02, 25093.41, -0.00, -0.00, -0.00
240, 102512.56, -187500.02, -187500.02, -187500.02, -187500.02, -187500.02, -187500.02, 25117.91, -0.00, -0.00, -0.00
241, 102506.95, -187500.02, -187500.02, -187500.02, -187500.02, -187500.02, -187500.02, 25136.41, -0.00, -0.00, -0.00
242, 102516.74, -187500.02, -187500.02, -187500.02, -187500.02, -187500.02, -187500.02, 25120.34, -0.00, -0.00, -0.00
243, 102508.63, -187500.02, -187500.02, -187500.02, -187500.02, -187500.02, -187500.02, 25130.31, -0.00, -0.00, -0.00
244, 102507.55, -187500.02, -187500.02, -187500.02, -187500.02, -187500.02, -187500.02, 25162.03, -0.00, -0.00, -0.00
245, 102510.26, -187500.02, -187500.02, -187500.02, -187500.02, -187500.02, -187500.02, 25160.26, -0.00, -0.00, -0.00
246, 102507.29, -187500.02, -187500.02, -187500.02, -187500.02, -187500.02, -187500.02, 25154.03, -0.00, -0.00, -0.00
247, 102489.47, -187500.02, -187500.02, -187500.02, -187500.02, -187500.02, -187500.02, 25195.13, -0.00, -0.00, -0.00
248, 102532.30, -187500.02, -187500.02, -187500.02, -187500.02, -187500.02, -187500.02, 25189.19, -0.00, -0.00, -0.00
249, 102515.40, -187500.02, -187500.02, -187500.02, -187500.02, -187500.02, -187500.02, 25188.27, -0.00, -0.00, -0.00
250, 102508.41, -187500.02, -187500.02, -187500.02, -187500.02, -187500.02, -187500.02, 25191.94, -0.00, -0.00, -0.00
251, 102513.92, -187500.02, -187500.02, -187500.02, -187500.02, -187500.02, -187500.02, 25189.65, -0.00, -0.00, -0.00
252, 102533.10, -187500.02, -187500.02, -187500.02, -187500.02, -187500.02, -187500.02, 25186.30, -0.00, -0.00, -0.00
253, 102528.92, -187500.02, -187500.02, -187500.02, -187500.02, -187500.02, -187500.02, 25179.73, -0.00, -0.00, -0.00
254, 102502.70, -187500.02, -187500.02, -187500.02, -187500.02, -187500.02, -187500.02, 25187.80, -0.00, -0.00, -0.00
255, 102495.91, -187500.02, -187500.02, -187500.02, -187500.02, -187500.02, -187500.02, 25211.36, -0.00, -0.00, -0.00
0, 102527.70, -187500.02, -187500.02, -187500.02, -187500.02, -187500.02, -187500.02, 25196.94, -0.00, -0.00, -0.00
1, 102517.14, -187500.02, -187500.02, -187500.02, -187500.02, -187500.02, -187500.02, 25198.69, -0.00, -0.00, -0.00
2, 102489.43, -187500.02, -187500.02, -187500.02, -187500.02, -187500.02, -187500.02, 25217.39, -0.00, -0.00, -0.00
3, 102488.87, -187500.02, -187500.02, -187500.02, -187500.02, -187500.02, -187500.02, 25234.18, -0.00, -0.00, -0.00
4, 102514.23, -187500.02, -187500.02, -187500.02, -187500.02, -187500.02, -187500.02, 25227.59, -0.00, -0.00, -0.00
5, 102513.16, -187500.02, -187500.02, -187500.02, -187500.02, -187500.02, -187500.02, 25244.48, -0.00, -0.00, -0.00
6, 102487.08, -187500.02, -187500.02, -187500.02, -187500.02, -187500.02, -187500.02, 25267.01, -0.00, -0.00, -0.00
7, 102492.29, -187500.02, -187500.02, -187500.02, -187500.02, -187500.02, -187500.02, 25285.86, -0.00, -0.00, -0.00
8, 102528.88, -187500.02, -187500.02, -187500.02, -187500.02, -187500.02, -187500.02, 25260.00, -0.00, -0.00, -0.00
9, 102526.66, -187500.02, -187500.02, -187500.02, -187500.02, -187500.02, -187500.02, 25253.49, -0.00, -0.00, -0.00
10, 102498.10, -187500.02, -187500.02, -187500.02, -187500.02, -187500.02, -187500.02, 25273.50, -0.00, -0.00, -0.00
11, 102488.76, -187500.02, -187500.02, -187500.02, -187500.02, -187500.02, -187500.02, 25297.73, -0.00, -0.00, -0.00
12, 102517.21, -187500.02, -187500.02, -187500.02, -187500.02, -187500.02, -187500.02, 25287.36, -0.00, -0.00, -0.00
13, 102505.90, -187500.02, -187500.02, -187500.02, -187500.02, -187500.02, -187500.02, 25313.91, -0.00, -0.00, -0.00
14, 102505.92, -187500.02, -187500.02, -187500.02, -187500.02, -187500.02, -187500.02, 25320.41, -0.00, -0.00, -0.00
15, 102494.21, -187500.02, -187500.02, -187500.02, -187500.02, -187500.02, -187500.02, 25325.87, -0.00, -0.00, -0.00
16, 102492.87, -187500.02, -187500.02, -187500.02, -187500.02, -187500.02, -187500.02, 25342.74, -0.00, -0.00, -0.00
17, 102514.69, -187500.02, -187500.02, -187500.02, -187500.02, -187500.02, -187500.02, 25345.02, -0.00, -0.00, -0.00
18, 102524.23, -187500.02, -187500.02, -187500.02, -187500.02, -187500.02, -187500.02, 25323.68, -0.00, -0.00, -0.00
19, 102497.34, -187500.02, -187500.02, -187500.02, -187500.02, -187500.02, -187500.02, 25335.99, -0.00, -0.00, -0.00
20, 102496.55, -187500.02, -187500.02, -187500.02, -187500.02, -187500.02, -187500.02, 25348.40, -0.00, -0.00, -0.00
21, 102500.58, -187500.02, -187500.02, -187500.02, -187500.02, -187500.02, -187500.02, 25370.37, -0.00, -0.00, -0.00
22, 102499.64, -187500.02, -187500.02, -187500.02, -187500.02, -187500.02, -187500.02, 25380.38, -0.00, -0.00, -0.00
23, 102504.90, -187500.02, -187500.02, -187500.02, -187500.02, -187500.02, -187500.02, 25367.87, -0.00, -0.00, -0.00
24, 102496.31, -187500.02, -187500.02, -187500.02, -187500.02, -187500.02, -187500.02, 25377.79, -0.00, -0.00, -0.00
25, 102499.76, -187500.02, -187500.02, -187500.02, -187500.02, -187500.02, -187500.02, 25398.33, -0.00, -0.00, -0.00
26, 102509.55, -187500.02, -187500.02, -187500.02, -187500.02, -187500.02, -187500.02, 25403.96, -0.00, -0.00, -0.00
27, 102506.91, -187500.02, -187500.02, -187500.02, -187500.02, -187500.02, -187500.02, 25396.86, -0.00, -0.00, -0.00
28, 102504.72, -187500.02, -187500.02, -187500.02, -187500.02, -187500.02, -187500.02, 25389.73, -0.00, -0.00, -0.00
29, 102506.57, -187500.02, -187500.02, -187500.02, -187500.02, -187500.02, -187500.02, 25403.49, -0.00, -0.00, -0.00
30, 102514.40, -187500.02, -187500.02, -187500.02, -187500.02, -187500.02, -187500.02, 25408.26, -0.00, -0.00, -0.00
31, 102497.01, -187500.02, -187500.02, -187500.02, -187500.02, -187500.02, -187500.02, 25417.33, -0.00, -0.00, -0.00
32, 102514.51, -187500.02, -187500.02, -187500.02, -187500.02, -187500.02, -187500.02, 25398.85, -0.00, -0.00, -0.00
33, 102519.02, -187500.02, -187500.02, -187500.02, -187500.02, -187500.02, -187500.02, 25394.71, -0.00, -0.00, -0.00
34, 102531.88, -187500.02, -187500.02, -187500.02, -187500.02, -187500.02, -187500.02, 25393.91, -0.00, -0.00, -0.00
35, 102520.14, -187500.02, -187500.02, -187500.02, -187500.02, -187500.02, -187500.02, 25386.98, -0.00, -0.00, -0.00
36, 102489.79, -187500.02, -187500.02, -187500.02, -187500.02, -187500.02, -187500.02, 25414.67, -0.00, -0.00, -0.00
37, 102516.59, -187500.02, -187500.02, -187500.02, -187500.02, -187500.02, -187500.02, 25417.67, -0.00, -0.00, -0.00
38, 102517.34, -187500.02, -187500.02, -187500.02, -187500.02, -187500.02, -187500.02, 25419.45, -0.00, -0.00, -0.00
39, 102497.19, -187500.02, -187500.02, -187500.02, -187500.02, -187500.02, -187500.02, 25439.28, -0.00, -0.00, -0.00
40, 102486.66, -187500.02, -187500.02, -187500.02, -187500.02, -187500.02, -187500.02, 25456.42, -0.00, -0.00, -0.00
41, 102491.88, -187500.02, -187500.02, -187500.02, -187500.02, -187500.02, -187500.02, 25465.32, -0.00, -0.00, -0.00
42, 102517.14, -187500.02, -187500.02, -187500.02, -187500.02, -187500.02, -187500.02, 25467.87, -0.00, -0.00, -0.00
43, 102516.30, -187500.02, -187500.02, -187500.02, -187500.02, -187500.02, -187500.02, 25457.16, -0.00, -0.00, -0.00
44, 102491.38, -187500.02, -187500.02, -187500.02, -187500.02, -187500.02, -187500.02, 25473.99, -0.00, -0.00, -0.00
45, 102516.07, -187500.02, -187500.02, -187500.02, -187500.02, -187500.02, -187500.02, 25465.21, -0.00, -0.00, -0.00
46, 102514.55, -187500.02, -187500.02, -187500.02, -187500.02, -187500.02, -187500.02, 25473.43, -0.00, -0.00, -0.00
47, 102523.52, -187500.02, -187500.02, -187500.02, -187500.02, -187500.02, -187500.02, 25458.68, -0.00, -0.00, -0.00
48, 102501.37, -187500.02, -187500.02, -187500.02, -187500.02, -187500.02, -187500.02, 25467.89, -0.00, -0.00, -0.00
49, 102491.66, -187500.02, -187500.02, -187500.02, -187500.02, -187500.02, -187500.02, 25482.53, -0.00, -0.00, -0.00
50, 102501.21, -187500.02, -187500.02, -187500.02, -187500.02, -187500.02, -187500.02, 25497.48, -0.00, -0.00, -0.00
51, 102479.03, -187500.02, -187500.02, -187500.02, -187500.02, -187500.02, -187500.02, 25534.95, -0.00, -0.00, -0.00
52, 102485.78, -187500.02, -187500.02, -187500.02, -187500.02, -187500.02, -187500.02, 25546.21, -0.00, -0.00, -0.00
53, 102468.20, -187500.02, -187500.02, -187500.02, -187500.02, -187500.02, -187500.02, 25563.00, -0.00, -0.00, -0.00
54, 102482.25, -187500.02, -187500.02, -187500.02, -187500.02, -187500.02, -187500.02, 25590.67, -0.00, -0.00, -0.00
55, 102509.63, -187500.02, -187500.02, -187500.02, -187500.02, -187500.02, -187500.02, 25577.75, -0.00, -0.00, -0.00
56, 102499.62, -187500.02, -187500.02, -187500.02, -187500.02, -187500.02, -187500.02, 25572.45, -0.00, -0.00, -0.00
57, 102491.26, -187500.02, -187500.02, -187500.02, -187500.02, -187500.02, -187500.02, 25570.19, -0.00, -0.00, -0.00
58, 102506.05, -187500.02, -187500.02, -187500.02, -187500.02, -187500.02, -187500.02, 25568.29, -0.00, -0.00, -0.00
59, 102522.06, -187500.02, -187500.02, -187500.02, -187500.02, -187500.02, -187500.02, 25552.29, -0.00, -0.00, -0.00
60, 102500.88, -187500.02, -187500.02, -187500.02, -187500.02, -187500.02, -187500.02, 25555.29, -0.00, -0.00, -0.00
61, 102495.17, -187500.02, -187500.02, -187500.02, -187500.02, -187500.02, -187500.02, 25554.44, -0.00, -0.00, -0.00
62, 102490.92, -187500.02, -187500.02, -187500.02, -187500.02, -187500.02, -187500.02, 25563.71, -0.00, -0.00, -0.00
63, 102510.88, -187500.02, -187500.02, -187500.02, -187500.02, -187500.02, -187500.02, 25569.75, -0.00, -0.00, -0.00
64, 102507.04, -187500.02, -187500.02, -187500.02, -187500.02, -187500.02, -187500.02, 25568.47, -0.00, -0.00, -0.00
65, 102476.87, -187500.02, -187500.02, -187500.02, -187500.02, -187500.02, -187500.02, 25594.18, -0.00, -0.00, -0.00
66, 102484.84, -187500.02, -187500.02, -187500.02, -187500.02, -187500.02, -187500.02, 25606.18, -0.00, -0.00, -0.00
67, 102491.04, -187500.02, -187500.02, -187500.02, -187500.02, -187500.02, -187500.02, 25617.15, -0.00, -0.00, -0.00
68, 102502.46, -187500.02, -187500.02, -187500.02, -187500.02, -187500.02, -187500.02, 25611.92, -0.00, -0.00, -0.00
69, 102479.28, -187500.02, -187500.02, -187500.02, -187500.02, -187500.02, -187500.02, 25620.13, -0.00, -0.00, -0.00
70, 102490.08, -187500.02, -187500.02, -187500.02, -187500.02, -187500.02, -187500.02, 25634.95, -0.00, -0.00, -0.00
71, 102506.30, -187500.02, -187500.02, -187500.02, -187500.02, -187500.02, -187500.02, 25633.56, -0.00, -0.00, -0.00
72, 102522.17, -187500.02, -187500.02, -187500.02, -187500.02, -187500.02, -187500.02, 25625.22, -0.00, -0.00, -0.00
73, 102502.55, -187500.02, -187500.02, -187500.02, -187500.02, -187500.02, -187500.02, 25612.19, -0.00, -0.00, -0.00
74, 102483.08, -187500.02, -187500.02, -187500.02, -187500.02, -187500.02, -187500.02, 25638.21, -0.00, -0.00, -0.00
75, 102511.38, -187500.02, -187500.02, -187500.02, -187500.02, -187500.02, -187500.02, 25642.95, -0.00, -0.00, -0.00
76, 102522.15, -187500.02, -187500.02, -187500.02, -187500.02, -187500.02, -187500.02, 25629.13, -0.00, -0.00, -0.00
77, 102492.20, -187500.02, -187500.02, -187500.02, -187500.02, -187500.02, -187500.02, 25632.62, -0.00, -0.00, -0.00
78, 102481.05, -187500.02, -187500.02, -187500.02, -187500.02, -187500.02, -187500.02, 25649.47, -0.00, -0.00, -0.00
79, 102494.95, -187500.02, -187500.02, -187500.02, -187500.02, -187500.02, -187500.02, 25651.84, -0.00, -0.00, -0.00
80, 102493.72, -187500.02, -187500.02, -187500.02, -187500.02, -187500.02, -187500.02, 25662.13, -0.00, -0.00, -0.00
81, 102485.23, -187500.02, -187500.02, -187500.02, -187500.02, -187500.02, -187500.02, 25668.56, -0.00, -0.00, -0.00
82, 102473.00, -187500.02, -187500.02, -187500.02, -187500.02, -187500.02, -187500.02, 25679.34, -0.00, -0.00, -0.00
83, 102489.49, -187500.02, -187500.02, -187500.02, -187500.02, -187500.02, -187500.02, 25681.30, -0.00, -0.00, -0.00
84, 102486.66, -187500.02, -187500.02, -187500.02, -187500.02, -187500.02, -187500.02, 25698.09, -0.00, -0.00, -0.00
85, 102497.23, -187500.02, -187500.02, -187500.02, -187500.02, -187500.02, -187500.02, 25683.23, -0.00, -0.00, -0.00
86, 102472.80, -187500.02, -187500.02, -187500.02, -187500.02, -187500.02, -187500.02, 25696.82, -0.00, -0.00, -0.00
87, 102483.17, -187500.02, -187500.02, -187500.02, -187500.02, -187500.02, -187500.02, 25703.41, -0.00, -0.00, -0.00
88, 102489.36, -187500.02, -187500.02, -187500.02, -187500.02, -187500.02, -187500.02, 25723.66, -0.00, -0.00, -0.00
89, 102490.97, -187500.02, -187500.02, -187500.02, -187500.02, -187500.02, -187500.02, 25731.57, -0.00, -0.00, -0.00
90, 102484.33, -187500.02, -187500.02, -187500.02, -187500.02, -187500.02, -187500.02, 25728.49, -0.00, -0.00, -0.00
91, 102483.48, -187500.02, -187500.02, -187500.02, -187500.02, -187500.02, -187500.02, 25743.49, -0.00, -0.00, -0.00
92, 102484.27, -187500.02, -187500.02, -187500.02, -187500.02, -187500.02, -187500.02, 25762.08, -0.00, -0.00, -0.00
93, 102471.97, -187500.02, -187500.02, -187500.02, -187500.02, -187500.02, -187500.02, 25788.21, -0.00, -0.00, -0.00
94, 102489.12, -187500.02, -187500.02, -187500.02, -187500.02, -187500.02, -187500.02, 25770.53, -0.00, -0.00, -0.00
95, 102484.16, -187500.02, -187500.02, -187500.02, -187500.02, -187500.02, -187500.02, 25761.30, -0.00, -0.00, -0.00
96, 102493.98, -187500.02, -187500.02, -187500.02, -187500.02, -187500.02, -187500.02, 25766.35, -0.00, -0.00, -0.00
97, 102484.98, -187500.02, -187500.02, -187500.02, -187500.02, -187500.02, -187500.02, 25782.13, -0.00, -0.00, -0.00
98, 102483.55, -187500.02, -187500.02, -187500.02, -187500.02, -187500.02, -187500.02, 25788.28, -0.00, -0.00, -0.00
99, 102490.92, -187500.02, -187500.02, -187500.02, -187500.02, -187500.02, -187500.02, 25779.56, -0.00, -0.00, -0.00
100, 102511.78, -187500.02, -187500.02, -187500.02, -187500.02, -187500.02, -187500.02, 25767.85, -0.00, -0.00, -0.00
101, 102511.71, -187500.02, -187500.02, -187500.02, -187500.02, -187500.02, -187500.02, 25773.64, -0.00, -0.00, -0.00
102, 102492.89, -187500.02, -187500.02, -187500.02, -187500.02, -187500.02, -187500.02, 25777.15, -0.00, -0.00, -0.00
103, 102489.52, -187500.02, -187500.02, -187500.02, -187500.02, -187500.02, -187500.02, 25776.97, -0.00, -0.00, -0.00
104, 102507.58, -187500.02, -187500.02, -187500.02, -187500.02, -187500.02, -187500.02, 25766.22, -0.00, -0.00, -0.00
105, 102490.63, -187500.02, -187500.02, -187500.02, -187500.02, -187500.02, -187500.02, 25793.44, -0.00, -0.00, -0.00
106, 102484.78, -187500.02, -187500.02, -187500.02, -187500.02, -187500.02, -187500.02, 25797.02, -0.00, -0.00, -0.00
107, 102477.00, -187500.02, -187500.02, -187500.02, -187500.02, -187500.02, -187500.02, 25810.74, -0.00, -0.00, -0.00
108, 102503.29, -187500.02, -187500.02, -187500.02, -187500.02, -187500.02, -187500.02, 25803.52, -0.00, -0.00, -0.00
109, 102508.16, -187500.02, -187500.02, -187500.02, -187500.02, -187500.02, -187500.02, 25795.90, -0.00, -0.00, -0.00
110, 102489.70, -187500.02, -187500.02, -187500.02, -187500.02, -187500.02, -187500.02, 25810.86, -0.00, -0.00, -0.00
111, 102481.29, -187500.02, -187500.02, -187500.02, -187500.02, -187500.02, -187500.02, 25816.49, -0.00, -0.00, -0.00
112, 102494.55, -187500.02, -187500.02, -187500.02, -187500.02, -187500.02, -187500.02, 25816.11, -0.00, -0.00, -0.00
113, 102509.05, -187500.02, -187500.02, -187500.02, -187500.02, -187500.02, -187500.02, 25811.53, -0.00, -0.00, -0.00
114, 102493.07, -187500.02, -187500.02, -187500.02, -187500.02, -187500.02, -187500.02, 25811.75, -0.00, -0.00, -0.00
115, 102464.10, -187500.02, -187500.02, -187500.02, -187500.02, -187500.02, -187500.02, 25835.29, -0.00, -0.00, -0.00
116, 102477.80, -187500.02, -187500.02, -187500.02, -187500.02, -187500.02, -187500.02, 25835.67, -0.00, -0.00, -0.00
117, 102485.56, -187500.02, -187500.02, -187500.02, -187500.02, -187500.02, -187500.02, 25846.08, -0.00, -0.00, -0.00
118, 102486.61, -187500.02, -187500.02, -187500.02, -187500.02, -187500.02, -187500.02, 25842.44, -0.00, -0.00, -0.00
119, 102465.00, -187500.02, -187500.02, -187500.02, -187500.02, -187500.02, -187500.02, 25849.97, -0.00, -0.00, -0.00
120, 102480.45, -187500.02, -187500.02, -187500.02, -187500.02, -187500.02, -187500.02, 25841.66, -0.00, -0.00, -0.00
121, 102474.95, -187500.02, -187500.02, -187500.02, -187500.02, -187500.02, -187500.02, 25859.92, -0.00, -0.00, -0.00
122, 102476.71, -187500.02, -187500.02, -187500.02, -187500.02, -187500.02, -187500.02, 25861.77, -0.00, -0.00, -0.00
123, 102461.11, -187500.02, -187500.02, -187500.02, -187500.02, -187500.02, -187500.02, 25867.52, -0.00, -0.00, -0.00
124, 102467.66, -187500.02, -187500.02, -187500.02, -187500.02, -187500.02, -187500.02, 25858.82, -0.00, -0.00, -0.00
125, 102467.23, -187500.02, -187500.02, -187500.02, -187500.02, -187500.02, -187500.02, 25864.05, -0.00, -0.00, -0.00
126, 102480.66, -187500.02, -187500.02, -187500.02, -187500.02, -187500.02, -187500.02, 25852.12, -0.00, -0.00, -0.00
127, 102457.09, -187500.02, -187500.02, -187500.02, -187500.02, -187500.02, -187500.02, 25853.05, -0.00, -0.00, -0.00
128, 102471.19, -187500.02, -187500.02, -187500.02, -187500.02, -187500.02, -187500.02, 25849.30, -0.00, -0.00, -0.00
129, 102481.25, -187500.02, -187500.02, -187500.02, -187500.02, -187500.02, -187500.02, 25838.08, -0.00, -0.00, -0.00
130, 102471.48, -187500.02, -187500.02, -187500.02, -187500.02, -187500.02, -187500.02, 25859.63, -0.00, -0.00, -0.00
131, 102463.05, -187500.02, -187500.02, -187500.02, -187500.02, -187500.02, -187500.02, 25866.35, -0.00, -0.00, -0.00
132, 102448.14, -187500.02, -187500.02, -187500.02, -187500.02, -187500.02, -187500.02, 25874.49, -0.00, -0.00, -0.00
133, 102453.11, -187500.02, -187500.02, -187500.02, -187500.02, -187500.02, -187500.02, 25883.54, -0.00, -0.00, -0.00
134, 102470.36, -187500.02, -187500.02, -187500.02, -187500.02, -187500.02, -187500.02, 25885.13, -0.00, -0.00, -0.00
135, 102451.48, -187500.02, -187500.02, -187500.02, -187500.02, -187500.02, -187500.02, 25894.52, -0.00, -0.00, -0.00
136, 102453.89, -187500.02, -187500.02, -187500.02, -187500.02, -187500.02, -187500.02, 25895.59, -0.00, -0.00, -0.00
137, 102442.31, -187500.02, -187500.02, -187500.02, -187500.02, -187500.02, -187500.02, 25914.95, -0.00, -0.00, -0.00
138, 102444.70, -187500.02, -187500.02, -187500.02, -187500.02, -187500.02, -187500.02, 25945.86, -0.00, -0.00, -0.00
139, 102469.20, -187500.02, -187500.02, -187500.02, -187500.02, -187500.02, -187500.02, 25930.32, -0.00, -0.00, -0.00
140, 102457.82, -187500.02, -187500.02, -187500.02, -187500.02, -187500.02, -187500.02, 25920.20, -0.00, -0.00, -0.00
141, 102458.09, -187500.02, -187500.02, -187500.02, -187500.02, -187500.02, -187500.02, 25923.15, -0.00, -0.00, -0.00
142, 102475.55, -187500.02, -187500.02, -187500.02, -187500.02, -187500.02, -187500.02, 25915.15, -0.00, -0.00, -0.00
143, 102466.38, -187500.02, -187500.02, -187500.02, -187500.02, -187500.02, -187500.02, 25917.61, -0.00, -0.00, -0.00
144, 102460.30, -187500.02, -187500.02, -187500.02, -187500.02, -187500.02, -187500.02, 25911.82, -0.00, -0.00, -0.00
145, 102444.23, -187500.02, -187500.02, -187500.02, -187500.02, -187500.02, -187500.02, 25919.28, -0.00, -0.00, -0.00
146, 102452.16, -187500.02, -187500.02, -187500.02, -187500.02, -187500.02, -187500.02, 25934.91, -0.00, -0.00, -0.00
147, 102454.34, -187500.02, -187500.02, -187500.02, -187500.02, -187500.02, -187500.02, 25944.14, -0.00, -0.00, -0.00
148, 102458.72, -187500.02, -187500.02, -187500.02, -187500.02, -187500.02, -187500.02, 25932.76, -0.00, -0.00, -0.00
149, 102457.63, -187500.02, -187500.02, -187500.02, -187500.02, -187500.02, -187500.02, 25916.27, -0.00, -0.00, -0.00
150, 102474.54, -187500.02, -187500.02, -187500.02, -187500.02, -187500.02, -187500.02, 25906.25, -0.00, -0.00, -0.00
151, 102462.70, -187500.02, -187500.02, -187500.02, -187500.02, -187500.02, -187500.02, 25915.42, -0.00, -0.00, -0.00
152, 102464.98, -187500.02, -187500.02, -187500.02, -187500.02, -187500.02, -187500.02, 25919.51, -0.00, -0.00, -0.00
153, 102441.93, -187500.02, -187500.02, -187500.02, -187500.02, -187500.02, -187500.02, 25930.48, -0.00, -0.00, -0.00
154, 102449.02, -187500.02, -187500.02, -187500.02, -187500.02, -187500.02, -187500.02, 25952.05, -0.00, -0.00, -0.00
155, 102463.99, -187500.02, -187500.02, -187500.02, -187500.02, -187500.02, -187500.02, 25956.07, -0.00, -0.00, -0.00
156, 102451.77, -187500.02, -187500.02, -187500.02, -187500.02, -187500.02, -187500.02, 25965.08, -0.00, -0.00, -0.00
157, 102442.94, -187500.02, -187500.02, -187500.02, -187500.02, -187500.02, -187500.02, 25971.07, -0.00, -0.00, -0.00
158, 102456.70, -187500.02, -187500.02, -187500.02, -187500.02, -187500.02, -187500.02, 25962.80, -0.00, -0.00, -0.00
159, 102478.95, -187500.02, -187500.02, -187500.02, -187500.02, -187500.02, -187500.02, 25950.22, -0.00, -0.00, -0.00
160, 102463.19, -187500.02, -187500.02, -187500.02, -187500.02, -187500.02, -187500.02, 25960.21, -0.00, -0.00, -0.00
161, 102460.75, -187500.02, -187500.02, -187500.02, -187500.02, -187500.02, -187500.02, 25960.72, -0.00, -0.00, -0.00
162, 102455.34, -187500.02, -187500.02, -187500.02, -187500.02, -187500.02, -187500.02, 25977.17, -0.00, -0.00, -0.00
163, 102457.11, -187500.02, -187500.02, -187500.02, -187500.02, -187500.02, -187500.02, 26002.34, -0.00, -0.00, -0.00
164, 102465.16, -187500.02, -187500.02, -187500.02, -187500.02, -187500.02, -187500.02, 26006.95, -0.00, -0.00, -0.00
165, 102461.02, -187500.02, -187500.02, -187500.02, -187500.02, -187500.02, -187500.02, 26002.86, -0.00, -0.00, -0.00
166, 102466.12, -187500.02, -187500.02, -187500.02, -187500.02, -187500.02, -187500.02, 25991.37, -0.00, -0.00, -0.00
167, 102475.13, -187500.02, -187500.02, -187500.02, -187500.02, -187500.02, -187500.02, 25993.47, -0.00, -0.00, -0.00
168, 102463.50, -187500.02, -187500.02, -187500.02, -187500.02, -187500.02, -187500.02, 26010.41, -0.00, -0.00, -0.00
169, 102436.77, -187500.02, -187500.02, -187500.02, -187500.02, -187500.02, -187500.02, 26037.46, -0.00, -0.00, -0.00
170, 102443.67, -187500.02, -187500.02, -187500.02, -187500.02, -187500.02, -187500.02, 26049.19, -0.00, -0.00, -0.00
171, 102464.93, -187500.02, -187500.02, -187500.02, -187500.02, -187500.02, -187500.02, 26049.91, -0.00, -0.00, -0.00
172, 102467.27, -187500.02, -187500.02, -187500.02, -187500.02, -187500.02, -187500.02, 26046.98, -0.00, -0.00, -0.00
173, 102456.68, -187500.02, -187500.02, -187500.02, -187500.02, -187500.02, -187500.02, 26048.37, -0.00, -0.00, -0.00
174, 102464.93, -187500.02, -187500.02, -187500.02, -187500.02, -187500.02, -187500.02, 26032.70, -0.00, -0.00, -0.00
175, 102466.05, -187500.02, -187500.02, -187500.02, -187500.02, -187500.02, -187500.02, 26037.75, -0.00, -0.00, -0.00
176, 102469.94, -187500.02, -187500.02, -187500.02, -187500.02, -187500.02, -187500.02, 26046.80, -0.00, -0.00, -0.00
177, 102461.87, -187500.02, -187500.02, -187500.02, -187500.02, -187500.02, -187500.02, 26037.84, -0.00, -0.00, -0.00
178, 102455.70, -187500.02, -187500.02, -187500.02, -187500.02, -187500.02, -187500.02, 26032.70, -0.00, -0.00, -0.00
179, 102453.69, -187500.02, -187500.02, -187500.02, -187500.02, -187500.02, -187500.02, 26040.65, -0.00, -0.00, -0.00
180, 102467.16, -187500.02, -187500.02, -187500.02, -187500.02, -187500.02, -187500.02, 26042.31, -0.00, -0.00, -0.00
181, 102459.23, -187500.02, -187500.02, -187500.02, -187500.02, -187500.02, -187500.02, 26030.93, -0.00, -0.00, -0.00
182, 102430.53, -187500.02, -187500.02, -187500.02, -187500.02, -187500.02, -187500.02, 26050.98, -0.00, -0.00, -0.00
183, 102439.45, -187500.02, -187500.02, -187500.02, -187500.02, -187500.02, -187500.02, 26063.97, -0.00, -0.00, -0.00
184, 102465.60, -187500.02, -187500.02, -187500.02, -187500.02, -187500.02, -187500.02, 26056.34, -0.00, -0.00, -0.00
185, 102461.31, -187500.02, -187500.02, -187500.02, -187500.02, -187500.02, -187500.02, 26054.96, -0.00, -0.00, -0.00
186, 102459.48, -187500.02, -187500.02, -187500.02, -187500.02, -187500.02, -187500.02, 26047.63, -0.00, -0.00, -0.00
187, 102452.03, -187500.02, -187500.02, -187500.02, -187500.02, -187500.02, -187500.02, 26062.11, -0.00, -0.00, -0.00
188, 102470.98, -187500.02, -187500.02, -187500.02, -187500.02, -187500.02, -187500.02, 26051.67, -0.00, -0.00, -0.00
189, 102471.63, -187500.02, -187500.02, -187500.02, -187500.02, -187500.02, -187500.02, 26042.71, -0.00, -0.00, -0.00
190, 102445.22, -187500.02, -187500.02, -187500.02, -187500.02, -187500.02, -187500.02, 26052.99, -0.00, -0.00, -0.00
191, 102438.16, -187500.02, -187500.02, -187500.02, -187500.02, -187500.02, -187500.02, 26065.13, -0.00, -0.00, -0.00
192, 102466.34, -187500.02, -187500.02, -187500.02, -187500.02, -187500.02, -187500.02, 26070.76, -0.00, -0.00, -0.00
193, 102477.67, -187500.02, -187500.02, -187500.02, -187500.02, -187500.02, -187500.02, 26063.83, -0.00, -0.00, -0.00
194, 102459.03, -187500.02, -187500.02, -187500.02, -187500.02, -187500.02, -187500.02, 26060.77, -0.00, -0.00, -0.00
195, 102432.61, -187500.02, -187500.02, -187500.02, -187500.02, -187500.02, -187500.02, 26099.53, -0.00, -0.00, -0.00
196, 102462.31, -187500.02, -187500.02, -187500.02, -187500.02, -187500.02, -187500.02, 26092.96, -0.00, -0.00, -0.00
197, 102467.30, -187500.02, -187500.02, -187500.02, -187500.02, -187500.02, -187500.02, 26097.54, -0.00, -0.00, -0.00
198, 102472.10, -187500.02, -187500.02, -187500.02, -187500.02, -187500.02, -187500.02, 26087.59, -0.00, -0.00, -0.00
199, 102449.98, -187500.02, -187500.02, -187500.02, -187500.02, -187500.02, -187500.02, 26093.18, -0.00, -0.00, -0.00
200, 102455.92, -187500.02, -187500.02, -187500.02, -187500.02, -187500.02, -187500.02, 26111.55, -0.00, -0.00, -0.00
201, 102480.13, -187500.02, -187500.02, -187500.02, -187500.02, -187500.02, -187500.02, 26101.52, -0.00, -0.00, -0.00
202, 102475.39, -187500.02, -187500.02, -187500.02, -187500.02, -187500.02, -187500.02, 26097.96, -0.00, -0.00, -0.00
203, 102459.97, -187500.02, -187500.02, -187500.02, -187500.02, -187500.02, -187500.02, 26103.84, -0.00, -0.00, -0.00
204, 102462.54, -187500.02, -187500.02, -187500.02, -187500.02, -187500.02, -187500.02, 26119.71, -0.00, -0.00, -0.00
205, 102473.47, -187500.02, -187500.02, -187500.02, -187500.02, -187500.02, -187500.02, 26120.07, -0.00, -0.00, -0.00
206, 102460.84, -187500.02, -187500.02, -187500.02, -187500.02, -187500.02, -187500.02, 26128.47, -0.00, -0.00, -0.00
207, 102448.44, -187500.02, -187500.02, -187500.02, -187500.02, -187500.02, -187500.02, 26138.04, -0.00, -0.00, -0.00
208, 102459.39, -187500.02, -187500.02, -187500.02, -187500.02, -187500.02, -187500.02, 26145.95, -0.00, -0.00, -0.00
209, 102484.00, -187500.02, -187500.02, -187500.02, -187500.02, -187500.02, -187500.02, 26134.46, -0.00, -0.00, -0.00
210, 102483.86, -187500.02, -187500.02, -187500.02, -187500.02, -187500.02, -187500.02, 26119.40, -0.00, -0.00, -0.00
211, 102461.58, -187500.02, -187500.02, -187500.02, -187500.02, -187500.02, -187500.02, 26124.99, -0.00, -0.00, -0.00
212, 102467.39, -187500.02, -187500.02, -187500.02, -187500.02, -187500.02, -187500.02, 26126.19, -0.00, -0.00, -0.00
213, 102491.48, -187500.02, -187500.02, -187500.02, -187500.02, -187500.02, -187500.02, 26112.36, -0.00, -0.00, -0.00
214, 102464.88, -187500.02, -187500.02, -187500.02, -187500.02, -187500.02, -187500.02, 26134.49, -0.00, -0.00, -0.00
215, 102468.57, -187500.02, -187500.02, -187500.02, -187500.02, -187500.02, -187500.02, 26135.38, -0.00, -0.00, -0.00
216, 102451.77, -187500.02, -187500.02, -187500.02, -187500.02, -187500.02, -187500.02, 26133.90, -0.00, -0.00, -0.00
217, 102466.83, -187500.02, -187500.02, -187500.02, -187500.02, -187500.02, -187500.02, 26145.57, -0.00, -0.00, -0.00
218, 102469.47, -187500.02, -187500.02, -187500.02, -187500.02, -187500.02, -187500.02, 26147.36, -0.00, -0.00, -0.00
219, 102448.19, -187500.02, -187500.02, -187500.02, -187500.02, -187500.02, -187500.02, 26150.96, -0.00, -0.00, -0.00
220, 102441.23, -187500.02, -187500.02, -187500.02, -187500.02, -187500.02, -187500.02, 26162.22, -0.00, -0.00, -0.00
221, 102465.16, -187500.02, -187500.02, -187500.02, -187500.02, -187500.02, -187500.02, 26159.65, -0.00, -0.00, -0.00
222, 102476.13, -187500.02, -187500.02, -187500.02, -187500.02, -187500.02, -187500.02, 26157.33, -0.00, -0.00, -0.00
223, 102467.32, -187500.02, -187500.02, -187500.02, -187500.02, -187500.02, -187500.02, 26157.15, -0.00, -0.00, -0.00
224, 102472.77, -187500.02, -187500.02, -187500.02, -187500.02, -187500.02, -187500.02, 26136.81, -0.00, -0.00, -0.00
225, 102469.29, -187500.02, -187500.02, -187500.02, -187500.02, -187500.02, -187500.02, 26136.81, -0.00, -0.00, -0.00
226, 102462.47, -187500.02, -187500.02, -187500.02, -187500.02, -187500.02, -187500.02, 26165.11, -0.00, -0.00, -0.00
227, 102476.77, -187500.02, -187500.02, -187500.02, -187500.02, -187500.02, -187500.02, 26154.31, -0.00, -0.00, -0.00
228, 102461.13, -187500.02, -187500.02, -187500.02, -187500.02, -187500.02, -187500.02, 26137.91, -0.00, -0.00, -0.00
229, 102448.30, -187500.02, -187500.02, -187500.02, -187500.02, -187500.02, -187500.02, 26160.19, -0.00, -0.00, -0.00
230, 102463.70, -187500.02, -187500.02, -187500.02, -187500.02, -187500.02, -187500.02, 26170.27, -0.00, -0.00, -0.00
231, 102464.20, -187500.02, -187500.02, -187500.02, -187500.02, -187500.02, -187500.02, 26175.77, -0.00, -0.00, -0.00
232, 102454.16, -187500.02, -187500.02, -187500.02, -187500.02, -187500.02, -187500.02, 26182.27, -0.00, -0.00, -0.00
233, 102468.10, -187500.02, -187500.02, -187500.02, -187500.02, -187500.02, -187500.02, 26167.46, -0.00, -0.00, -0.00
234, 102468.38, -187500.02, -187500.02, -187500.02, -187500.02, -187500.02, -187500.02, 26182.14, -0.00, -0.00, -0.00
235, 102476.66, -187500.02, -187500.02, -187500.02, -187500.02, -187500.02, -187500.02, 26165.13, -0.00, -0.00, -0.00
236, 102446.96, -187500.02, -187500.02, -187500.02, -187500.02, -187500.02, -187500.02, 26175.57, -0.00, -0.00, -0.00
237, 102449.48, -187500.02, -187500.02, -187500.02, -187500.02, -187500.02, -187500.02, 26191.35, -0.00, -0.00, -0.00
238, 102481.65, -187500.02, -187500.02, -187500.02, -187500.02, -187500.02, -187500.02, 26174.47, -0.00, -0.00, -0.00
239, 102472.17, -187500.02, -187500.02, -187500.02, -187500.02, -187500.02, -187500.02, 26177.31, -0.00, -0.00, -0.00
240, 102475.03, -187500.02, -187500.02, -187500.02, -187500.02, -187500.02, -187500.02, 26168.04, -0.00, -0.00, -0.00
241, 102465.27, -187500.02, -187500.02, -187500.02, -187500.02, -187500.02, -187500.02, 26164.33, -0.00, -0.00, -0.00
242, 102459.79, -187500.02, -187500.02, -187500.02, -187500.02, -187500.02, -187500.02, 26179.39, -0.00, -0.00, -0.00
243, 102448.57, -187500.02, -187500.02, -187500.02, -187500.02, -187500.02, -187500.02, 26203.60, -0.00, -0.00, -0.00
244, 102440.68, -187500.02, -187500.02, -187500.02, -187500.02, -187500.02, -187500.02, 26212.07, -0.00, -0.00, -0.00
245, 102453.84, -187500.02, -187500.02, -187500.02, -187500.02, -187500.02, -187500.02, 26202.50, -0.00, -0.00, -0.00
246, 102464.26, -187500.02, -187500.02, -187500.02, -187500.02, -187500.02, -187500.02, 26201.45, -0.00, -0.00, -0.00
247, 102473.20, -187500.02, -187500.02, -187500.02, -187500.02, -187500.02, -187500.02, 26199.78, -0.00, -0.00, -0.00
248, 102462.92, -187500.02, -187500.02, -187500.02, -187500.02, -187500.02, -187500.02, 26201.45, -0.00, -0.00, -0.00
249, 102454.25, -187500.02, -187500.02, -187500.02, -187500.02, -187500.02, -187500.02, 26205.43, -0.00, -0.00, -0.00
250, 102460.75, -187500.02, -187500.02, -187500.02, -187500.02, -187500.02, -187500.02, 26211.98, -0.00, -0.00, -0.00
251, 102459.14, -187500.02, -187500.02, -187500.02, -187500.02, -187500.02, -187500.02, 26221.48, -0.00, -0.00, -0.00
252, 102439.13, -187500.02, -187500.02, -187500.02, -187500.02, -187500.02, -187500.02, 26240.21, -0.00, -0.00, -0.00
253, 102436.41, -187500.02, -187500.02, -187500.02, -187500.02, -187500.02, -187500.02, 26245.19, -0.00, -0.00, -0.00
254, 102451.20, -187500.02, -187500.02, -187500.02, -187500.02, -187500.02, -187500.02, 26247.23, -0.00, -0.00, -0.00
255, 102465.66, -187500.02, -187500.02, -187500.02, -187500.02, -187500.02, -187500.02, 26241.89, -0.00, -0.00, -0.00
0, 102438.91, -187500.02, -187500.02, -187500.02, -187500.02, -187500.02, -187500.02, 26266.99, -0.00, -0.00, -0.00
1, 102425.91, -187500.02, -187500.02, -187500.02, -187500.02, -187500.02, -187500.02, 26285.61, -0.00, -0.00, -0.00
2, 102449.09, -187500.02, -187500.02, -187500.02, -187500.02, -187500.02, -187500.02, 26272.55, -0.00, -0.00, -0.00
3, 102452.19, -187500.02, -187500.02, -187500.02, -187500.02, -187500.02, -187500.02, 26286.30, -0.00, -0.00, -0.00
4, 102451.43, -187500.02, -187500.02, -187500.02, -187500.02, -187500.02, -187500.02, 26290.63, -0.00, -0.00, -0.00
5, 102446.34, -187500.02, -187500.02, -187500.02, -187500.02, -187500.02, -187500.02, 26281.72, -0.00, -0.00, -0.00
6, 102441.80, -187500.02, -187500.02, -187500.02, -187500.02, -187500.02, -187500.02, 26285.54, -0.00, -0.00, -0.00
7, 102468.10, -187500.02, -187500.02, -187500.02, -187500.02, -187500.02, -187500.02, 26277.00, -0.00, -0.00, -0.00
8, 102486.12, -187500.02, -187500.02, -187500.02, -187500.02, -187500.02, -187500.02, 26246.07, -0.00, -0.00, -0.00
9, 102458.74, -187500.02, -187500.02, -187500.02, -187500.02, -187500.02, -187500.02, 26244.12, -0.00, -0.00, -0.00
10, 102446.89, -187500.02, -187500.02, -187500.02, -187500.02, -187500.02, -187500.02, 26257.89, -0.00, -0.00, -0.00
11, 102451.72, -187500.02, -187500.02, -187500.02, -187500.02, -187500.02, -187500.02, 26275.90, -0.00, -0.00, -0.00
12, 102453.53, -187500.02, -187500.02, -187500.02, -187500.02, -187500.02, -187500.02, 26289.99, -0.00, -0.00, -0.00
13, 102446.36, -187500.02, -187500.02, -187500.02, -187500.02, -187500.02, -187500.02, 26295.51, -0.00, -0.00, -0.00
14, 102447.70, -187500.02, -187500.02, -187500.02, -187500.02, -187500.02, -187500.02, 26296.40, -0.00, -0.00, -0.00
15, 102450.87, -187500.02, -187500.02, -187500.02, -187500.02, -187500.02, -187500.02, 26316.94, -0.00, -0.00, -0.00
16, 102459.97, -187500.02, -187500.02, -187500.02, -187500.02, -187500.02, -187500.02, 26331.72, -0.00, -0.00, -0.00
17, 102462.52, -187500.02, -187500.02, -187500.02, -187500.02, -187500.02, -187500.02, 26320.47, -0.00, -0.00, -0.00
18, 102449.84, -187500.02, -187500.02, -187500.02, -187500.02, -187500.02, -187500.02, 26318.28, -0.00, -0.00, -0.00
19, 102462.00, -187500.02, -187500.02, -187500.02, -187500.02, -187500.02, -187500.02, 26317.03, -0.00, -0.00, -0.00
20, 102487.35, -187500.02, -187500.02, -187500.02, -187500.02, -187500.02, -187500.02, 26294.95, -0.00, -0.00, -0.00
21, 102463.26, -187500.02, -187500.02, -187500.02, -187500.02, -187500.02, -187500.02, 26298.35, -0.00, -0.00, -0.00
22, 102448.95, -187500.02, -187500.02, -187500.02, -187500.02, -187500.02, -187500.02, 26309.41, -0.00, -0.00, -0.00
23, 102447.95, -187500.02, -187500.02, -187500.02, -187500.02, -187500.02, -187500.02, 26312.34, -0.00, -0.00, -0.00
24, 102453.77, -187500.02, -187500.02, -187500.02, -187500.02, -187500.02, -187500.02, 26336.75, -0.00, -0.00, -0.00
25, 102458.78, -187500.02, -187500.02, -187500.02, -187500.02, -187500.02, -187500.02, 26337.69, -0.00, -0.00, -0.00
26, 102440.70, -187500.02, -187500.02, -187500.02, -187500.02, -187500.02, -187500.02, 26339.61, -0.00, -0.00, -0.00
27, 102449.75, -187500.02, -187500.02, -187500.02, -187500.02, -187500.02, -187500.02, 26340.30, -0.00, -0.00, -0.00
28, 102466.47, -187500.02, -187500.02, -187500.02, -187500.02, -187500.02, -187500.02, 26338.20, -0.00, -0.00, -0.00
29, 102446.76, -187500.02, -187500.02, -187500.02, -187500.02, -187500.02, -187500.02, 26358.65, -0.00, -0.00, -0.00
30, 102443.49, -187500.02, -187500.02, -187500.02, -187500.02, -187500.02, -187500.02, 26356.19, -0.00, -0.00, -0.00
31, 102448.59, -187500.02, -187500.02, -187500.02, -187500.02, -187500.02, -187500.02, 26348.75, -0.00, -0.00, -0.00
32, 102461.47, -187500.02, -187500.02, -187500.02, -187500.02, -187500.02, -187500.02, 26352.57, -0.00, -0.00, -0.00
33, 102458.90, -187500.02, -187500.02, -187500.02, -187500.02, -187500.02, -187500.02, 26366.59, -0.00, -0.00, -0.00
34, 102445.24, -187500.02, -187500.02, -187500.02, -187500.02, -187500.02, -187500.02, 26367.41, -0.00, -0.00, -0.00
35, 102456.13, -187500.02, -187500.02, -187500.02, -187500.02, -187500.02, -187500.02, 26355.84, -0.00, -0.00, -0.00
36, 102476.38, -187500.02, -187500.02, -187500.02, -187500.02, -187500.02, -187500.02, 26334.53, -0.00, -0.00, -0.00
37, 102463.03, -187500.02, -187500.02, -187500.02, -187500.02, -187500.02, -187500.02, 26347.70, -0.00, -0.00, -0.00
38, 102444.45, -187500.02, -187500.02, -187500.02, -187500.02, -187500.02, -187500.02, 26354.76, -0.00, -0.00, -0.00
39, 102444.03, -187500.02, -187500.02, -187500.02, -187500.02, -187500.02, -187500.02, 26358.25, -0.00, -0.00, -0.00
40, 102462.83, -187500.02, -187500.02, -187500.02, -187500.02, -187500.02, -187500.02, 26346.96, -0.00, -0.00, -0.00
41, 102452.75, -187500.02, -187500.02, -187500.02, -187500.02, -187500.02, -187500.02, 26371.93, -0.00, -0.00, -0.00
42, 102454.65, -187500.02, -187500.02, -187500.02, -187500.02, -187500.02, -187500.02, 26367.88, -0.00, -0.00, -0.00
43, 102442.47, -187500.02, -187500.02, -187500.02, -187500.02, -187500.02, -187500.02, 26371.10, -0.00, -0.00, -0.00
44, 102449.17, -187500.02, -187500.02, -187500.02, -187500.02, -187500.02, -187500.02, 26369.31, -0.00, -0.00, -0.00
45, 102458.13, -187500.02, -187500.02, -187500.02, -187500.02, -187500.02, -187500.02, 26369.89, -0.00, -0.00, -0.00
46, 102456.33, -187500.02, -187500.02, -187500.02, -187500.02, -187500.02, -187500.02, 26363.86, -0.00, -0.00, -0.00
47, 102430.17, -187500.02, -187500.02, -187500.02, -187500.02, -187500.02, -187500.02, 26378.25, -0.00, -0.00, -0.00
48, 102445.15, -187500.02, -187500.02, -187500.02, -187500.02, -187500.02, -187500.02, 26384.87, -0.00, -0.00, -0.00
49, 102471.32, -187500.02, -187500.02, -187500.02, -187500.02, -187500.02, -187500.02, 26375.04, -0.00, -0.00, -0.00
50, 102455.74, -187500.02, -187500.02, -187500.02, -187500.02, -187500.02, -187500.02, 26388.76, -0.00, -0.00, -0.00
51, 102442.51, -187500.02, -187500.02, -187500.02, -187500.02, -187500.02, -187500.02, 26397.45, -0.00, -0.00, -0.00
52, 102444.73, -187500.02, -187500.02, -187500.02, -187500.02, -187500.02, -187500.02, 26400.05, -0.00, -0.00, -0.00
53, 102441.82, -187500.02, -187500.02, -187500.02, -187500.02, -187500.02, -187500.02, 26424.99, -0.00, -0.00, -0.00
54, 102451.23, -187500.02, -187500.02, -187500.02, -187500.02, -187500.02, -187500.02, 26432.30, -0.00, -0.00, -0.00
55, 102440.81, -187500.02, -187500.02, -187500.02, -187500.02, -187500.02, -187500.02, 26426.15, -0.00, -0.00, -0.00
56, 102450.54, -187500.02, -187500.02, -187500.02, -187500.02, -187500.02, -187500.02, 26415.49, -0.00, -0.00, -0.00
57, 102465.76, -187500.02, -187500.02, -187500.02, -187500.02, -187500.02, -187500.02, 26402.75, -0.00, -0.00, -0.00
58, 102461.22, -187500.02, -187500.02, -187500.02, -187500.02, -187500.02, -187500.02, 26404.58, -0.00, -0.00, -0.00
59, 102429.28, -187500.02, -187500.02, -187500.02, -187500.02, -187500.02, -187500.02, 26425.48, -0.00, -0.00, -0.00
60, 102432.88, -187500.02, -187500.02, -187500.02, -187500.02, -187500.02, -187500.02, 26438.29, -0.00, -0.00, -0.00
61, 102450.96, -187500.02, -187500.02, -187500.02, -187500.02, -187500.02, -187500.02, 26435.09, -0.00, -0.00, -0.00
62, 102465.16, -187500.02, -187500.02, -187500.02, -187500.02, -187500.02, -187500.02, 26430.67, -0.00, -0.00, -0.00
63, 102435.18, -187500.02, -187500.02, -187500.02, -187500.02, -187500.02, -187500.02, 26444.97, -0.00, -0.00, -0.00
64, 102425.77, -187500.02, -187500.02, -187500.02, -187500.02, -187500.02, -187500.02, 26459.73, -0.00, -0.00, -0.00
65, 102445.77, -187500.02, -187500.02, -187500.02, -187500.02, -187500.02, -187500.02, 26460.24, -0.00, -0.00, -0.00
66, 102471.63, -187500.02, -187500.02, -187500.02, -187500.02, -187500.02, -187500.02, 26448.39, -0.00, -0.00, -0.00
67, 102460.10, -187500.02, -187500.02, -187500.02, -187500.02, -187500.02, -187500.02, 26434.02, -0.00, -0.00, -0.00
68, 102440.21, -187500.02, -187500.02, -187500.02, -187500.02, -187500.02, -187500.02, 26433.80, -0.00, -0.00, -0.00
69, 102444.68, -187500.02, -187500.02, -187500.02, -187500.02, -187500.02, -187500.02, 26428.32, -0.00, -0.00, -0.00
70, 102437.33, -187500.02, -187500.02, -187500.02, -187500.02, -187500.02, -187500.02, 26445.98, -0.00, -0.00, -0.00
71, 102438.73, -187500.02, -187500.02, -187500.02, -187500.02, -187500.02, -187500.02, 26451.68, -0.00, -0.00, -0.00
72, 102421.52, -187500.02, -187500.02, -187500.02, -187500.02, -187500.02, -187500.02, 26456.89, -0.00, -0.00, -0.00
73, 102430.40, -187500.02, -187500.02, -187500.02, -187500.02, -187500.02, -187500.02, 26464.76, -0.00, -0.00, -0.00
74, 102435.11, -187500.02, -187500.02, -187500.02, -187500.02, -187500.02, -187500.02, 26482.86, -0.00, -0.00, -0.00
75, 102441.33, -187500.02, -187500.02, -187500.02, -187500.02, -187500.02, -187500.02, 26488.27, -0.00, -0.00, -0.00
76, 102429.28, -187500.02, -187500.02, -187500.02, -187500.02, -187500.02, -187500.02, 26490.82, -0.00, -0.00, -0.00
77, 102431.80, -187500.02, -187500.02, -187500.02, -187500.02, -187500.02, -187500.02, 26488.07, -0.00, -0.00, -0.00
78, 102437.13, -187500.02, -187500.02, -187500.02, -187500.02, -187500.02, -187500.02, 26492.61, -0.00, -0.00, -0.00
79, 102429.23, -187500.02, -187500.02, -187500.02, -187500.02, -187500.02, -187500.02, 26506.87, -0.00, -0.00, -0.00
80, 102428.12, -187500.02, -187500.02, -187500.02, -187500.02, -187500.02, -187500.02, 26505.73, -0.00, -0.00, -0.00
81, 102416.54, -187500.02, -187500.02, -187500.02, -187500.02, -187500.02, -187500.02, 26509.79, -0.00, -0.00, -0.00
82, 102424.41, -187500.02, -187500.02, -187500.02, -187500.02, -187500.02, -187500.02, 26527.36, -0.00, -0.00, -0.00
83, 102433.98, -187500.02, -187500.02, -187500.02, -187500.02, -187500.02, -187500.02, 26533.71, -0.00, -0.00, -0.00
84, 102423.91, -187500.02, -187500.02, -187500.02, -187500.02, -187500.02, -187500.02, 26537.09, -0.00, -0.00, -0.00
85, 102415.96, -187500.02, -187500.02, -187500.02, -187500.02, -187500.02, -187500.02, 26542.16, -0.00, -0.00, -0.00
86, 102444.03, -187500.02, -187500.02, -187500.02, -187500.02, -187500.02, -187500.02, 26528.61, -0.00, -0.00, -0.00
87, 102449.84, -187500.02, -187500.02, -187500.02, -187500.02, -187500.02, -187500.02, 26515.70, -0.00, -0.00, -0.00
88, 102437.02, -187500.02, -187500.02, -187500.02, -187500.02, -187500.02, -187500.02, 26519.54, -0.00, -0.00, -0.00
89, 102418.33, -187500.02, -187500.02, -187500.02, -187500.02, -187500.02, -187500.02, 26538.92, -0.00, -0.00, -0.00
90, 102447.85, -187500.02, -187500.02, -187500.02, -187500.02, -187500.02, -187500.02, 26522.15, -0.00, -0.00, -0.00
91, 102447.49, -187500.02, -187500.02, -187500.02, -187500.02, -187500.02, -187500.02, 26519.38, -0.00, -0.00, -0.00
92, 102423.60, -187500.02, -187500.02, -187500.02, -187500.02, -187500.02, -187500.02, 26538.45, -0.00, -0.00, -0.00
93, 102411.51, -187500.02, -187500.02, -187500.02, -187500.02, -187500.02, -187500.02, 26540.77, -0.00, -0.00, -0.00
94, 102419.58, -187500.02, -187500.02, -187500.02, -187500.02, -187500.02, -187500.02, 26541.27, -0.00, -0.00, -0.00
95, 102437.23, -187500.02, -187500.02, -187500.02, -187500.02, -187500.02, -187500.02, 26549.60, -0.00, -0.00, -0.00
96, 102447.79, -187500.02, -187500.02, -187500.02, -187500.02, -187500.02, -187500.02, 26537.13, -0.00, -0.00, -0.00
97, 102413.56, -187500.02, -187500.02, -187500.02, -187500.02, -187500.02, -187500.02, 26550.61, -0.00, -0.00, -0.00
98, 102409.45, -187500.02, -187500.02, -187500.02, -187500.02, -187500.02, -187500.02, 26573.47, -0.00, -0.00, -0.00
99, 102434.20, -187500.02, -187500.02, -187500.02, -187500.02, -187500.02, -187500.02, 26568.58, -0.00, -0.00, -0.00
100, 102439.85, -187500.02, -187500.02, -187500.02, -187500.02, -187500.02, -187500.02, 26553.51, -0.00, -0.00, -0.00
101, 102421.03, -187500.02, -187500.02, -187500.02, -187500.02, -187500.02, -187500.02, 26553.87, -0.00, -0.00, -0.00
102, 102431.80, -187500.02, -187500.02, -187500.02, -187500.02, -187500.02, -187500.02, 26549.02, -0.00, -0.00, -0.00
103, 102439.94, -187500.02, -187500.02, -187500.02, -187500.02, -187500.02, -187500.02, 26544.53, -0.00, -0.00, -0.00
104, 102425.91, -187500.02, -187500.02, -187500.02, -187500.02, -187500.02, -187500.02, 26557.67, -0.00, -0.00, -0.00
105, 102414.77, -187500.02, -187500.02, -187500.02, -187500.02, -187500.02, -187500.02, 26575.51, -0.00, -0.00, -0.00
106, 102420.48, -187500.02, -187500.02, -187500.02, -187500.02, -187500.02, -187500.02, 26574.66, -0.00, -0.00, -0.00
107, 102426.38, -187500.02, -187500.02, -187500.02, -187500.02, -187500.02, -187500.02, 26585.12, -0.00, -0.00, -0.00
108, 102421.23, -187500.02, -187500.02, -187500.02, -187500.02, -187500.02, -187500.02, 26594.17, -0.00, -0.00, -0.00
109, 102406.15, -187500.02, -187500.02, -187500.02, -187500.02, -187500.02, -187500.02, 26616.57, -0.00, -0.00, -0.00
110, 102430.98, -187500.02, -187500.02, -187500.02, -187500.02, -187500.02, -187500.02, 26590.15, -0.00, -0.00, -0.00
111, 102430.91, -187500.02, -187500.02, -187500.02, -187500.02, -187500.02, -187500.02, 26583.71, -0.00, -0.00, -0.00
112, 102431.31, -187500.02, -187500.02, -187500.02, -187500.02, -187500.02, -187500.02, 26596.74, -0.00, -0.00, -0.00
113, 102424.98, -187500.02, -187500.02, -187500.02, -187500.02, -187500.02, -187500.02, 26594.95, -0.00, -0.00, -0.00
114, 102413.14, -187500.02, -187500.02, -187500.02, -187500.02, -187500.02, -187500.02, 26594.80, -0.00, -0.00, -0.00
115, 102419.24, -187500.02, -187500.02, -187500.02, -187500.02, -187500.02, -187500.02, 26603.98, -0.00, -0.00, -0.00
116, 102435.52, -187500.02, -187500.02, -187500.02, -187500.02, -187500.02, -187500.02, 26609.06, -0.00, -0.00, -0.00
117, 102416.80, -187500.02, -187500.02, -187500.02, -187500.02, -187500.02, -187500.02, 26615.14, -0.00, -0.00, -0.00
118, 102407.71, -187500.02, -187500.02, -187500.02, -187500.02, -187500.02, -187500.02, 26627.99, -0.00, -0.00, -0.00
119, 102429.62, -187500.02, -187500.02, -187500.02, -187500.02, -187500.02, -187500.02, 26614.42, -0.00, -0.00, -0.00
120, 102439.18, -187500.02, -187500.02, -187500.02, -187500.02, -187500.02, -187500.02, 26609.86, -0.00, -0.00, -0.00
121, 102434.35, -187500.02, -187500.02, -187500.02, -187500.02, -187500.02, -187500.02, 26606.02, -0.00, -0.00, -0.00
122, 102415.38, -187500.02, -187500.02, -187500.02, -187500.02, -187500.02, -187500.02, 26607.02, -0.00, -0.00, -0.00
123, 102411.63, -187500.02, -187500.02, -187500.02, -187500.02, -187500.02, -187500.02, 26619.38, -0.00, -0.00, -0.00
124, 102417.14, -187500.02, -187500.02, -187500.02, -187500.02, -187500.02, -187500.02, 26636.17, -0.00, -0.00, -0.00
125, 102434.64, -187500.02, -187500.02, -187500.02, -187500.02, -187500.02, -187500.02, 26623.41, -0.00, -0.00, -0.00
126, 102423.55, -187500.02, -187500.02, -187500.02, -187500.02, -187500.02, -187500.02, 26611.45, -0.00, -0.00, -0.00
127, 102429.03, -187500.02, -187500.02, -187500.02, -187500.02, -187500.02, -187500.02, 26597.37, -0.00, -0.00, -0.00
128, 102432.84, -187500.02, -187500.02, -187500.02, -187500.02, -187500.02, -187500.02, 26601.66, -0.00, -0.00, -0.00
129, 102415.33, -187500.02, -187500.02, -187500.02, -187500.02, -187500.02, -187500.02, 26626.58, -0.00, -0.00, -0.00
130, 102409.12, -187500.02, -187500.02, -187500.02, -187500.02, -187500.02, -187500.02, 26635.99, -0.00, -0.00, -0.00
131, 102405.74, -187500.02, -187500.02, -187500.02, -187500.02, -187500.02, -187500.02, 26633.53, -0.00, -0.00, -0.00
132, 102413.03, -187500.02, -187500.02, -187500.02, -187500.02, -187500.02, -187500.02, 26644.98, -0.00, -0.00, -0.00
133, 102426.95, -187500.02, -187500.02, -187500.02, -187500.02, -187500.02, -187500.02, 26644.64, -0.00, -0.00, -0.00
134, 102415.55, -187500.02, -187500.02, -187500.02, -187500.02, -187500.02, -187500.02, 26645.04, -0.00, -0.00, -0.00
135, 102405.25, -187500.02, -187500.02, -187500.02, -187500.02, -187500.02, -187500.02, 26645.56, -0.00, -0.00, -0.00
136, 102410.95, -187500.02, -187500.02, -187500.02, -187500.02, -187500.02, -187500.02, 26652.51, -0.00, -0.00, -0.00
137, 102424.61, -187500.02, -187500.02, -187500.02, -187500.02, -187500.02, -187500.02, 26654.57, -0.00, -0.00, -0.00
138, 102438.53, -187500.02, -187500.02, -187500.02, -187500.02, -187500.02, -187500.02, 26628.37, -0.00, -0.00, -0.00
139, 102403.59, -187500.02, -187500.02, -187500.02, -187500.02, -187500.02, -187500.02, 26637.38, -0.00, -0.00, -0.00
140, 102391.95, -187500.02, -187500.02, -187500.02, -187500.02, -187500.02, -187500.02, 26666.99, -0.00, -0.00, -0.00
141, 102424.16, -187500.02, -187500.02, -187500.02, -187500.02, -187500.02, -187500.02, 26663.98, -0.00, -0.00, -0.00
142, 102425.16, -187500.02, -187500.02, -187500.02, -187500.02, -187500.02, -187500.02, 26645.69, -0.00, -0.00, -0.00
143, 102398.95, -187500.02, -187500.02, -187500.02, -187500.02, -187500.02, -187500.02, 26652.26, -0.00, -0.00, -0.00
144, 102398.23, -187500.02, -187500.02, -187500.02, -187500.02, -187500.02, -187500.02, 26668.45, -0.00, -0.00, -0.00
145, 102417.16, -187500.02, -187500.02, -187500.02, -187500.02, -187500.02, -187500.02, 26662.81, -0.00, -0.00, -0.00
146, 102417.88, -187500.02, -187500.02, -187500.02, -187500.02, -187500.02, -187500.02, 26669.36, -0.00, -0.00, -0.00
147, 102406.37, -187500.02, -187500.02, -187500.02, -187500.02, -187500.02, -187500.02, 26663.91, -0.00, -0.00, -0.00
148, 102421.44, -187500.02, -187500.02, -187500.02, -187500.02, -187500.02, -187500.02, 26646.94, -0.00, -0.00, -0.00
149, 102424.09, -187500.02, -187500.02, -187500.02, -187500.02, -187500.02, -187500.02, 26646.88, -0.00, -0.00, -0.00
150, 102410.39, -187500.02, -187500.02, -187500.02, -187500.02, -187500.02, -187500.02, 26668.02, -0.00, -0.00, -0.00
151, 102401.97, -187500.02, -187500.02, -187500.02, -187500.02, -187500.02, -187500.02, 26673.07, -0.00, -0.00, -0.00
152, 102406.59, -187500.02, -187500.02, -187500.02, -187500.02, -187500.02, -187500.02, 26679.96, -0.00, -0.00, -0.00
153, 102434.82, -187500.02, -187500.02, -187500.02, -187500.02, -187500.02, -187500.02, 26667.75, -0.00, -0.00, -0.00
154, 102435.96, -187500.02, -187500.02, -187500.02, -187500.02, -187500.02, -187500.02, 26663.93, -0.00, -0.00, -0.00
155, 102414.28, -187500.02, -187500.02, -187500.02, -187500.02, -187500.02, -187500.02, 26666.05, -0.00, -0.00, -0.00
156, 102399.62, -187500.02, -187500.02, -187500.02, -187500.02, -187500.02, -187500.02, 26679.78, -0.00, -0.00, -0.00
157, 102408.05, -187500.02, -187500.02, -187500.02, -187500.02, -187500.02, -187500.02, 26695.60, -0.00, -0.00, -0.00
158, 102416.43, -187500.02, -187500.02, -187500.02, -187500.02, -187500.02, -187500.02, 26709.95, -0.00, -0.00, -0.00
159, 102424.16, -187500.02, -187500.02, -187500.02, -187500.02, -187500.02, -187500.02, 26691.74, -0.00, -0.00, -0.00
160, 102395.75, -187500.02, -187500.02, -187500.02, -187500.02, -187500.02, -187500.02, 26705.17, -0.00, -0.00, -0.00
161, 102412.36, -187500.02, -187500.02, -187500.02, -187500.02, -187500.02, -187500.02, 26711.92, -0.00, -0.00, -0.00
162, 102423.65, -187500.02, -187500.02, -187500.02, -187500.02, -187500.02, -187500.02, 26726.07, -0.00, -0.00, -0.00
163, 102439.12, -187500.02, -187500.02, -187500.02, -187500.02, -187500.02, -187500.02, 26706.49, -0.00, -0.00, -0.00
164, 102413.45, -187500.02, -187500.02, -187500.02, -187500.02, -187500.02, -187500.02, 26697.86, -0.00, -0.00, -0.00
165, 102404.27, -187500.02, -187500.02, -187500.02, -187500.02, -187500.02, -187500.02, 26722.02, -0.00, -0.00, -0.00
166, 102423.60, -187500.02, -187500.02, -187500.02, -187500.02, -187500.02, -187500.02, 26726.74, -0.00, -0.00, -0.00
167, 102411.53, -187500.02, -187500.02, -187500.02, -187500.02, -187500.02, -187500.02, 26735.61, -0.00, -0.00, -0.00
168, 102405.61, -187500.02, -187500.02, -187500.02, -187500.02, -187500.02, -187500.02, 26738.56, -0.00, -0.00, -0.00
169, 102400.11, -187500.02, -187500.02, -187500.02, -187500.02, -187500.02, -187500.02, 26747.53, -0.00, -0.00, -0.00
170, 102432.09, -187500.02, -187500.02, -187500.02, -187500.02, -187500.02, -187500.02, 26735.86, -0.00, -0.00, -0.00
171, 102423.52, -187500.02, -187500.02, -187500.02, -187500.02, -187500.02, -187500.02, 26728.28, -0.00, -0.00, -0.00
172, 102394.48, -187500.02, -187500.02, -187500.02, -187500.02, -187500.02, -187500.02, 26755.62, -0.00, -0.00, -0.00
173, 102396.98, -187500.02, -187500.02, -187500.02, -187500.02, -187500.02, -187500.02, 26766.35, -0.00, -0.00, -0.00
174, 102435.02, -187500.02, -187500.02, -187500.02, -187500.02, -187500.02, -187500.02, 26748.42, -0.00, -0.00, -0.00
175, 102426.62, -187500.02, -187500.02, -187500.02, -187500.02, -187500.02, -187500.02, 26740.53, -0.00, -0.00, -0.00
176, 102405.45, -187500.02, -187500.02, -187500.02, -187500.02, -187500.02, -187500.02, 26750.41, -0.00, -0.00, -0.00
177, 102416.96, -187500.02, -187500.02, -187500.02, -187500.02, -187500.02, -187500.02, 26739.12, -0.00, -0.00, -0.00
178, 102424.77, -187500.02, -187500.02, -187500.02, -187500.02, -187500.02, -187500.02, 26741.09, -0.00, -0.00, -0.00
179, 102418.48, -187500.02, -187500.02, -187500.02, -187500.02, -187500.02, -187500.02, 26751.84, -0.00, -0.00, -0.00
180, 102411.04, -187500.02, -187500.02, -187500.02, -187500.02, -187500.02, -187500.02, 26747.97, -0.00, -0.00, -0.00
181, 102420.36, -187500.02, -187500.02, -187500.02, -187500.02, -187500.02, -187500.02, 26730.03, -0.00, -0.00, -0.00
182, 102414.30, -187500.02, -187500.02, -187500.02, -187500.02, -187500.02, -187500.02, 26736.69, -0.00, -0.00, -0.00
183, 102418.06, -187500.02, -187500.02, -187500.02, -187500.02, -187500.02, -187500.02, 26742.92, -0.00, -0.00, -0.00
184, 102406.15, -187500.02, -187500.02, -187500.02, -187500.02, -187500.02, -187500.02, 26747.35, -0.00, -0.00, -0.00
185, 102392.51, -187500.02, -187500.02, -187500.02, -187500.02, -187500.02, -187500.02, 26744.89, -0.00, -0.00, -0.00
186, 102399.59, -187500.02, -187500.02, -187500.02, -187500.02, -187500.02, -187500.02, 26747.79, -0.00, -0.00, -0.00
187, 102413.25, -187500.02, -187500.02, -187500.02, -187500.02, -187500.02, -187500.02, 26744.78, -0.00, -0.00, -0.00
188, 102411.84, -187500.02, -187500.02, -187500.02, -187500.02, -187500.02, -187500.02, 26739.10, -0.00, -0.00, -0.00
189, 102404.71, -187500.02, -187500.02, -187500.02, -187500.02, -187500.02, -187500.02, 26733.65, -0.00, -0.00, -0.00
190, 102390.84, -187500.02, -187500.02, -187500.02, -187500.02, -187500.02, -187500.02, 26755.98, -0.00, -0.00, -0.00
191, 102408.41, -187500.02, -187500.02, -187500.02, -187500.02, -187500.02, -187500.02, 26756.96, -0.00, -0.00, -0.00
192, 102406.62, -187500.02, -187500.02, -187500.02, -187500.02, -187500.02, -187500.02, 26749.25, -0.00, -0.00, -0.00
193, 102389.25, -187500.02, -187500.02, -187500.02, -187500.02, -187500.02, -187500.02, 26744.67, -0.00, -0.00, -0.00
194, 102379.10, -187500.02, -187500.02, -187500.02, -187500.02, -187500.02, -187500.02, 26759.24, -0.00, -0.00, -0.00
195, 102402.77, -187500.02, -187500.02, -187500.02, -187500.02, -187500.02, -187500.02, 26757.14, -0.00, -0.00, -0.00
196, 102384.24, -187500.02, -187500.02, -187500.02, -187500.02, -187500.02, -187500.02, 26772.27, -0.00, -0.00, -0.00
197, 102366.11, -187500.02, -187500.02, -187500.02, -187500.02, -187500.02, -187500.02, 26793.24, -0.00, -0.00, -0.00
198, 102381.96, -187500.02, -187500.02, -187500.02, -187500.02, -187500.02, -187500.02, 26791.61, -0.00, -0.00, -0.00
199, 102405.59, -187500.02, -187500.02, -187500.02, -187500.02, -187500.02, -187500.02, 26778.42, -0.00, -0.00, -0.00
200, 102391.62, -187500.02, -187500.02, -187500.02, -187500.02, -187500.02, -187500.02, 26795.03, -0.00, -0.00, -0.00
201, 102388.42, -187500.02, -187500.02, -187500.02, -187500.02, -187500.02, -187500.02, 26802.00, -0.00, -0.00, -0.00
202, 102383.23, -187500.02, -187500.02, -187500.02, -187500.02, -187500.02, -187500.02, 26801.82, -0.00, -0.00, -0.00
203, 102402.34, -187500.02, -187500.02, -187500.02, -187500.02, -187500.02, -187500.02, 26803.00, -0.00, -0.00, -0.00
204, 102412.45, -187500.02, -187500.02, -187500.02, -187500.02, -187500.02, -187500.02, 26793.28, -0.00, -0.00, -0.00
205, 102390.95, -187500.02, -187500.02, -187500.02, -187500.02, -187500.02, -187500.02, 26802.11, -0.00, -0.00, -0.00
206, 102386.34, -187500.02, -187500.02, -187500.02, -187500.02, -187500.02, -187500.02, 26811.88, -0.00, -0.00, -0.00
207, 102400.11, -187500.02, -187500.02, -187500.02, -187500.02, -187500.02, -187500.02, 26816.86, -0.00, -0.00, -0.00
208, 102415.13, -187500.02, -187500.02, -187500.02, -187500.02, -187500.02, -187500.02, 26804.19, -0.00, -0.00, -0.00
209, 102387.50, -187500.02, -187500.02, -187500.02, -187500.02, -187500.02, -187500.02, 26818.76, -0.00, -0.00, -0.00
210, 102363.52, -187500.02, -187500.02, -187500.02, -187500.02, -187500.02, -187500.02, 26848.18, -0.00, -0.00, -0.00
211, 102394.57, -187500.02, -187500.02, -187500.02, -187500.02, -187500.02, -187500.02, 26841.94, -0.00, -0.00, -0.00
212, 102412.70, -187500.02, -187500.02, -187500.02, -187500.02, -187500.02, -187500.02, 26830.90, -0.00, -0.00, -0.00
213, 102392.29, -187500.02, -187500.02, -187500.02, -187500.02, -187500.02, -187500.02, 26837.49, -0.00, -0.00, -0.00
214, 102371.16, -187500.02, -187500.02, -187500.02, -187500.02, -187500.02, -187500.02, 26854.19, -0.00, -0.00, -0.00
215, 102381.24, -187500.02, -187500.02, -187500.02, -187500.02, -187500.02, -187500.02, 26856.18, -0.00, -0.00, -0.00
216, 102389.83, -187500.02, -187500.02, -187500.02, -187500.02, -187500.02, -187500.02, 26873.52, -0.00, -0.00, -0.00
217, 102401.61, -187500.02, -187500.02, -187500.02, -187500.02, -187500.02, -187500.02, 26864.25, -0.00, -0.00, -0.00
218, 102390.61, -187500.02, -187500.02, -187500.02, -187500.02, -187500.02, -187500.02, 26859.98, -0.00, -0.00, -0.00
219, 102391.66, -187500.02, -187500.02, -187500.02, -187500.02, -187500.02, -187500.02, 26859.67, -0.00, -0.00, -0.00
220, 102391.82, -187500.02, -187500.02, -187500.02, -187500.02, -187500.02, -187500.02, 26877.37, -0.00, -0.00, -0.00
221, 102376.53, -187500.02, -187500.02, -187500.02, -187500.02, -187500.02, -187500.02, 26899.97, -0.00, -0.00, -0.00
222, 102379.57, -187500.02, -187500.02, -187500.02, -187500.02, -187500.02, -187500.02, 26905.64, -0.00, -0.00, -0.00
223, 102405.90, -187500.02, -187500.02, -187500.02, -187500.02, -187500.02, -187500.02, 26871.85, -0.00, -0.00, -0.00
224, 102384.40, -187500.02, -187500.02, -187500.02, -187500.02, -187500.02, -187500.02, 26892.81, -0.00, -0.00, -0.00
225, 102399.66, -187500.02, -187500.02, -187500.02, -187500.02, -187500.02, -187500.02, 26899.36, -0.00, -0.00, -0.00
226, 102406.68, -187500.02, -187500.02, -187500.02, -187500.02, -187500.02, -187500.02, 26867.78, -0.00, -0.00, -0.00
227, 102388.60, -187500.02, -187500.02, -187500.02, -187500.02, -187500.02, -187500.02, 26865.59, -0.00, -0.00, -0.00
228, 102380.40, -187500.02, -187500.02, -187500.02, -187500.02, -187500.02, -187500.02, 26883.54, -0.00, -0.00, -0.00
229, 102391.98, -187500.02, -187500.02, -187500.02, -187500.02, -187500.02, -187500.02, 26886.71, -0.00, -0.00, -0.00
230, 102383.80, -187500.02, -187500.02, -187500.02, -187500.02, -187500.02, -187500.02, 26891.20, -0.00, -0.00, -0.00
231, 102390.12, -187500.02, -187500.02, -187500.02, -187500.02, -187500.02, -187500.02, 26877.26, -0.00, -0.00, -0.00
232, 102397.30, -187500.02, -187500.02, -187500.02, -187500.02, -187500.02, -187500.02, 26874.78, -0.00, -0.00, -0.00
233, 102396.40, -187500.02, -187500.02, -187500.02, -187500.02, -187500.02, -187500.02, 26882.60, -0.00, -0.00, -0.00
234, 102394.74, -187500.02, -187500.02, -187500.02, -187500.02, -187500.02, -187500.02, 26881.91, -0.00, -0.00, -0.00
235, 102385.98, -187500.02, -187500.02, -187500.02, -187500.02, -187500.02, -187500.02, 26873.19, -0.00, -0.00, -0.00
236, 102377.55, -187500.02, -187500.02, -187500.02, -187500.02, -187500.02, -187500.02, 26888.43, -0.00, -0.00, -0.00
237, 102410.98, -187500.02, -187500.02, -187500.02, -187500.02, -187500.02, -187500.02, 26881.57, -0.00, -0.00, -0.00
238, 102397.85, -187500.02, -187500.02, -187500.02, -187500.02, -187500.02, -187500.02, 26883.20, -0.00, -0.00, -0.00
239, 102387.59, -187500.02, -187500.02, -187500.02, -187500.02, -187500.02, -187500.02, 26889.77, -0.00, -0.00, -0.00
240, 102395.87, -187500.02, -187500.02, -187500.02, -187500.02, -187500.02, -187500.02, 26886.53, -0.00, -0.00, -0.00
241, 102391.23, -187500.02, -187500.02, -187500.02, -187500.02, -187500.02, -187500.02, 26902.98, -0.00, -0.00, -0.00
242, 102385.52, -187500.02, -187500.02, -187500.02, -187500.02, -187500.02, -187500.02, 26911.50, -0.00, -0.00, -0.00
243, 102370.92, -187500.02, -187500.02, -187500.02, -187500.02, -187500.02, -187500.02, 26920.89, -0.00, -0.00, -0.00
244, 102372.84, -187500.02, -187500.02, -187500.02, -187500.02, -187500.02, -187500.02, 26934.25, -0.00, -0.00, -0.00
245, 102398.05, -187500.02, -187500.02, -187500.02, -187500.02, -187500.02, -187500.02, 26929.38, -0.00, -0.00, -0.00
246, 102406.30, -187500.02, -187500.02, -187500.02, -187500.02, -187500.02, -187500.02, 26919.19, -0.00, -0.00, -0.00
247, 102374.02, -187500.02, -187500.02, -187500.02, -187500.02, -187500.02, -187500.02, 26936.87, -0.00, -0.00, -0.00
248, 102367.23, -187500.02, -187500.02, -187500.02, -187500.02, -187500.02, -187500.02, 26957.30, -0.00, -0.00, -0.00
249, 102382.19, -187500.02, -187500.02, -187500.02, -187500.02, -187500.02, -187500.02, 26968.25, -0.00, -0.00, -0.00
250, 102397.12, -187500.02, -187500.02, -187500.02, -187500.02, -187500.02, -187500.02, 26954.33, -0.00, -0.00, -0.00
251, 102393.16, -187500.02, -187500.02, -187500.02, -187500.02, -187500.02, -187500.02, 26939.62, -0.00, -0.00, -0.00
252, 102378.32, -187500.02, -187500.02, -187500.02, -187500.02, -187500.02, -187500.02, 26936.73, -0.00, -0.00, -0.00
253, 102378.34, -187500.02, -187500.02, -187500.02, -187500.02, -187500.02, -187500.02, 26958.86, -0.00, -0.00, -0.00
254, 102384.38, -187500.02, -187500.02, -187500.02, -187500.02, -187500.02, -187500.02, 26973.88, -0.00, -0.00, -0.00
255, 102378.16, -187500.02, -187500.02, -187500.02, -187500.02, -187500.02, -187500.02, 26973.10, -0.00, -0.00, -0.00
0, 102370.34, -187500.02, -187500.02, -187500.02, -187500.02, -187500.02, -187500.02, 26976.39, -0.00, -0.00, -0.00
1, 102386.70, -187500.02, -187500.02, -187500.02, -187500.02, -187500.02, -187500.02, 26965.99, -0.00, -0.00, -0.00
2, 102390.52, -187500.02, -187500.02, -187500.02, -187500.02, -187500.02, -187500.02, 26968.92, -0.00, -0.00, -0.00
3, 102390.52, -187500.02, -187500.02, -187500.02, -187500.02, -187500.02, -187500.02, 26965.86, -0.00, -0.00, -0.00
4, 102366.60, -187500.02, -187500.02, -187500.02, -187500.02, -187500.02, -187500.02, 26975.49, -0.00, -0.00, -0.00
5, 102381.09, -187500.02, -187500.02, -187500.02, -187500.02, -187500.02, -187500.02, 26979.70, -0.00, -0.00, -0.00
6, 102387.93, -187500.02, -187500.02, -187500.02, -187500.02, -187500.02, -187500.02, 26981.82, -0.00, -0.00, -0.00
7, 102388.71, -187500.02, -187500.02, -187500.02, -187500.02, -187500.02, -187500.02, 26984.68, -0.00, -0.00, -0.00
8, 102365.63, -187500.02, -187500.02, -187500.02, -187500.02, -187500.02, -187500.02, 27004.53, -0.00, -0.00, -0.00
9, 102377.49, -187500.02, -187500.02, -187500.02, -187500.02, -187500.02, -187500.02, 27015.39, -0.00, -0.00, -0.00
10, 102399.26, -187500.02, -187500.02, -187500.02, -187500.02, -187500.02, -187500.02, 27013.94, -0.00, -0.00, -0.00
11, 102394.37, -187500.02, -187500.02, -187500.02, -187500.02, -187500.02, -187500.02, 27015.77, -0.00, -0.00, -0.00
12, 102383.48, -187500.02, -187500.02, -187500.02, -187500.02, -187500.02, -187500.02, 27016.20, -0.00, -0.00, -0.00
13, 102396.55, -187500.02, -187500.02, -187500.02, -187500.02, -187500.02, -187500.02, 27003.34, -0.00, -0.00, -0.00
14, 102406.10, -187500.02, -187500.02, -187500.02, -187500.02, -187500.02, -187500.02, 26994.38, -0.00, -0.00, -0.00
15, 102406.84, -187500.02, -187500.02, -187500.02, -187500.02, -187500.02, -187500.02, 26999.88, -0.00, -0.00, -0.00
16, 102387.82, -187500.02, -187500.02, -187500.02, -187500.02, -187500.02, -187500.02, 27003.34, -0.00, -0.00, -0.00
17, 102378.67, -187500.02, -187500.02, -187500.02, -187500.02, -187500.02, -187500.02, 27013.47, -0.00, -0.00, -0.00
18, 102392.33, -187500.02, -187500.02, -187500.02, -187500.02, -187500.02, -187500.02, 27016.82, -0.00, -0.00, -0.00
19, 102403.87, -187500.02, -187500.02, -187500.02, -187500.02, -187500.02, -187500.02, 27021.13, -0.00, -0.00, -0.00
20, 102400.36, -187500.02, -187500.02, -187500.02, -187500.02, -187500.02, -187500.02, 27005.49, -0.00, -0.00, -0.00
21, 102377.96, -187500.02, -187500.02, -187500.02, -187500.02, -187500.02, -187500.02, 27021.43, -0.00, -0.00, -0.00
22, 102388.40, -187500.02, -187500.02, -187500.02, -187500.02, -187500.02, -187500.02, 27029.83, -0.00, -0.00, -0.00
23, 102407.38, -187500.02, -187500.02, -187500.02, -187500.02, -187500.02, -187500.02, 27024.71, -0.00, -0.00, -0.00
24, 102401.59, -187500.02, -187500.02, -187500.02, -187500.02, -187500.02, -187500.02, 27011.37, -0.00, -0.00, -0.00
25, 102372.08, -187500.02, -187500.02, -187500.02, -187500.02, -187500.02, -187500.02, 27025.02, -0.00, -0.00, -0.00
26, 102376.04, -187500.02, -187500.02, -187500.02, -187500.02, -187500.02, -187500.02, 27038.55, -0.00, -0.00, -0.00
27, 102394.34, -187500.02, -187500.02, -187500.02, -187500.02, -187500.02, -187500.02, 27040.89, -0.00, -0.00, -0.00
28, 102407.42, -187500.02, -187500.02, -187500.02, -187500.02, -187500.02, -187500.02, 27013.45, -0.00, -0.00, -0.00
29, 102382.97, -187500.02, -187500.02, -187500.02, -187500.02, -187500.02, -187500.02, 27007.81, -0.00, -0.00, -0.00
30, 102380.09, -187500.02, -187500.02, -187500.02, -187500.02, -187500.02, -187500.02, 27019.23, -0.00, -0.00, -0.00
31, 102381.60, -187500.02, -187500.02, -187500.02, -187500.02, -187500.02, -187500.02, 27032.62, -0.00, -0.00, -0.00
32, 102389.45, -187500.02, -187500.02, -187500.02, -187500.02, -187500.02, -187500.02, 27037.50, -0.00, -0.00, -0.00
33, 102382.16, -187500.02, -187500.02, -187500.02, -187500.02, -187500.02, -187500.02, 27030.72, -0.00, -0.00, -0.00
34, 102386.16, -187500.02, -187500.02, -187500.02, -187500.02, -187500.02, -187500.02, 27035.08, -0.00, -0.00, -0.00
35, 102403.75, -187500.02, -187500.02, -187500.02, -187500.02, -187500.02, -187500.02, 27030.43, -0.00, -0.00, -0.00
36, 102357.77, -187500.02, -187500.02, -187500.02, -187500.02, -187500.02, -187500.02, 27076.52, -0.00, -0.00, -0.00
37, 102370.83, -187500.02, -187500.02, -187500.02, -187500.02, -187500.02, -187500.02, 27075.99, -0.00, -0.00, -0.00
38, 102375.21, -187500.02, -187500.02, -187500.02, -187500.02, -187500.02, -187500.02, 27068.32, -0.00, -0.00, -0.00
39, 102398.37, -187500.02, -187500.02, -187500.02, -187500.02, -187500.02, -187500.02, 27063.00, -0.00, -0.00, -0.00
40, 102390.19, -187500.02, -187500.02, -187500.02, -187500.02, -187500.02, -187500.02, 27074.69, -0.00, -0.00, -0.00
41, 102380.66, -187500.02, -187500.02, -187500.02, -187500.02, -187500.02, -187500.02, 27080.95, -0.00, -0.00, -0.00
42, 102377.09, -187500.02, -187500.02, -187500.02, -187500.02, -187500.02, -187500.02, 27082.45, -0.00, -0.00, -0.00
43, 102389.74, -187500.02, -187500.02, -187500.02, -187500.02, -187500.02, -187500.02, 27084.57, -0.00, -0.00, -0.00
44, 102400.58, -187500.02, -187500.02, -187500.02, -187500.02, -187500.02, -187500.02, 27079.72, -0.00, -0.00, -0.00
45, 102384.30, -187500.02, -187500.02, -187500.02, -187500.02, -187500.02, -187500.02, 27087.72, -0.00, -0.00, -0.00
46, 102377.42, -187500.02, -187500.02, -187500.02, -187500.02, -187500.02, -187500.02, 27091.59, -0.00, -0.00, -0.00
47, 102385.98, -187500.02, -187500.02, -187500.02, -187500.02, -187500.02, -187500.02, 27096.01, -0.00, -0.00, -0.00
48, 102385.27, -187500.02, -187500.02, -187500.02, -187500.02, -187500.02, -187500.02, 27103.37, -0.00, -0.00, -0.00
49, 102377.45, -187500.02, -187500.02, -187500.02, -187500.02, -187500.02, -187500.02, 27115.01, -0.00, -0.00, -0.00
50, 102383.23, -187500.02, -187500.02, -187500.02, -187500.02, -187500.02, -187500.02, 27101.36, -0.00, -0.00, -0.00
51, 102401.16, -187500.02, -187500.02, -187500.02, -187500.02, -187500.02, -187500.02, 27085.98, -0.00, -0.00, -0.00
52, 102396.29, -187500.02, -187500.02, -187500.02, -187500.02, -187500.02, -187500.02, 27090.07, -0.00, -0.00, -0.00
53, 102378.01, -187500.02, -187500.02, -187500.02, -187500.02, -187500.02, -187500.02, 27109.96, -0.00, -0.00, -0.00
54, 102366.07, -187500.02, -187500.02, -187500.02, -187500.02, -187500.02, -187500.02, 27123.30, -0.00, -0.00, -0.00
55, 102378.97, -187500.02, -187500.02, -187500.02, -187500.02, -187500.02, -187500.02, 27130.95, -0.00, -0.00, -0.00
56, 102384.04, -187500.02, -187500.02, -187500.02, -187500.02, -187500.02, -187500.02, 27132.18, -0.00, -0.00, -0.00
57, 102381.24, -187500.02, -187500.02, -187500.02, -187500.02, -187500.02, -187500.02, 27140.92, -0.00, -0.00, -0.00
58, 102372.87, -187500.02, -187500.02, -187500.02, -187500.02, -187500.02, -187500.02, 27142.06, -0.00, -0.00, -0.00
59, 102357.64, -187500.02, -187500.02, -187500.02, -187500.02, -187500.02, -187500.02, 27160.27, -0.00, -0.00, -0.00
60, 102392.06, -187500.02, -187500.02, -187500.02, -187500.02, -187500.02, -187500.02, 27160.45, -0.00, -0.00, -0.00
61, 102401.85, -187500.02, -187500.02, -187500.02, -187500.02, -187500.02, -187500.02, 27137.21, -0.00, -0.00, -0.00
62, 102358.09, -187500.02, -187500.02, -187500.02, -187500.02, -187500.02, -187500.02, 27163.49, -0.00, -0.00, -0.00
63, 102375.92, -187500.02, -187500.02, -187500.02, -187500.02, -187500.02, -187500.02, 27158.29, -0.00, -0.00, -0.00
64, 102407.22, -187500.02, -187500.02, -187500.02, -187500.02, -187500.02, -187500.02, 27134.19, -0.00, -0.00, -0.00
65, 102390.03, -187500.02, -187500.02, -187500.02, -187500.02, -187500.02, -187500.02, 27143.55, -0.00, -0.00, -0.00
66, 102385.00, -187500.02, -187500.02, -187500.02, -187500.02, -187500.02, -187500.02, 27146.88, -0.00, -0.00, -0.00
67, 102375.91, -187500.02, -187500.02, -187500.02, -187500.02, -187500.02, -187500.02, 27150.86, -0.00, -0.00, -0.00
68, 102383.50, -187500.02, -187500.02, -187500.02, -187500.02, -187500.02, -187500.02, 27157.28, -0.00, -0.00, -0.00
69, 102375.70, -187500.02, -187500.02, -187500.02, -187500.02, -187500.02, -187500.02, 27173.91, -0.00, -0.00, -0.00
70, 102363.77, -187500.02, -187500.02, -187500.02, -187500.02, -187500.02, -187500.02, 27181.75, -0.00, -0.00, -0.00
71, 102379.34, -187500.02, -187500.02, -187500.02, -187500.02, -187500.02, -187500.02, 27171.49, -0.00, -0.00, -0.00
72, 102370.00, -187500.02, -187500.02, -187500.02, -187500.02, -187500.02, -187500.02, 27185.04, -0.00, -0.00, -0.00
73, 102371.19, -187500.02, -187500.02, -187500.02, -187500.02, -187500.02, -187500.02, 27202.47, -0.00, -0.00, -0.00
74, 102365.91, -187500.02, -187500.02, -187500.02, -187500.02, -187500.02, -187500.02, 27217.07, -0.00, -0.00, -0.00
75, 102370.34, -187500.02, -187500.02, -187500.02, -187500.02, -187500.02, -187500.02, 27208.82, -0.00, -0.00, -0.00
76, 102385.98, -187500.02, -187500.02, -187500.02, -187500.02, -187500.02, -187500.02, 27203.01, -0.00, -0.00, -0.00
77, 102396.76, -187500.02, -187500.02, -187500.02, -187500.02, -187500.02, -187500.02, 27197.31, -0.00, -0.00, -0.00
78, 102384.35, -187500.02, -187500.02, -187500.02, -187500.02, -187500.02, -187500.02, 27200.46, -0.00, -0.00, -0.00
79, 102362.07, -187500.02, -187500.02, -187500.02, -187500.02, -187500.02, -187500.02, 27214.14, -0.00, -0.00, -0.00
80, 102372.35, -187500.02, -187500.02, -187500.02, -187500.02, -187500.02, -187500.02, 27214.12, -0.00, -0.00, -0.00
81, 102375.73, -187500.02, -187500.02, -187500.02, -187500.02, -187500.02, -187500.02, 27235.73, -0.00, -0.00, -0.00
82, 102363.74, -187500.02, -187500.02, -187500.02, -187500.02, -187500.02, -187500.02, 27265.35, -0.00, -0.00, -0.00
83, 102357.93, -187500.02, -187500.02, -187500.02, -187500.02, -187500.02, -187500.02, 27273.24, -0.00, -0.00, -0.00
84, 102362.91, -187500.02, -187500.02, -187500.02, -187500.02, -187500.02, -187500.02, 27270.16, -0.00, -0.00, -0.00
85, 102367.92, -187500.02, -187500.02, -187500.02, -187500.02, -187500.02, -187500.02, 27287.28, -0.00, -0.00, -0.00
86, 102376.75, -187500.02, -187500.02, -187500.02, -187500.02, -187500.02, -187500.02, 27280.08, -0.00, -0.00, -0.00
87, 102370.43, -187500.02, -187500.02, -187500.02, -187500.02, -187500.02, -187500.02, 27280.77, -0.00, -0.00, -0.00
88, 102388.17, -187500.02, -187500.02, -187500.02, -187500.02, -187500.02, -187500.02, 27253.82, -0.00, -0.00, -0.00
89, 102392.29, -187500.02, -187500.02, -187500.02, -187500.02, -187500.02, -187500.02, 27254.40, -0.00, -0.00, -0.00
90, 102372.77, -187500.02, -187500.02, -187500.02, -187500.02, -187500.02, -187500.02, 27281.49, -0.00, -0.00, -0.00
91, 102367.70, -187500.02, -187500.02, -187500.02, -187500.02, -187500.02, -187500.02, 27281.15, -0.00, -0.00, -0.00
92, 102359.20, -187500.02, -187500.02, -187500.02, -187500.02, -187500.02, -187500.02, 27289.15, -0.00, -0.00, -0.00
93, 102377.38, -187500.02, -187500.02, -187500.02, -187500.02, -187500.02, -187500.02, 27283.83, -0.00, -0.00, -0.00
94, 102380.15, -187500.02, -187500.02, -187500.02, -187500.02, -187500.02, -187500.02, 27282.83, -0.00, -0.00, -0.00
95, 102349.80, -187500.02, -187500.02, -187500.02, -187500.02, -187500.02, -187500.02, 27308.20, -0.00, -0.00, -0.00
96, 102349.15, -187500.02, -187500.02, -187500.02, -187500.02, -187500.02, -187500.02, 27317.88, -0.00, -0.00, -0.00
97, 102358.83, -187500.02, -187500.02, -187500.02, -187500.02, -187500.02, -187500.02, 27315.08, -0.00, -0.00, -0.00
98, 102360.05, -187500.02, -187500.02, -187500.02, -187500.02, -187500.02, -187500.02, 27330.33, -0.00, -0.00, -0.00
99, 102376.17, -187500.02, -187500.02, -187500.02, -187500.02, -187500.02, -187500.02, 27313.41, -0.00, -0.00, -0.00
100, 102355.92, -187500.02, -187500.02, -187500.02, -187500.02, -187500.02, -187500.02, 27318.14, -0.00, -0.00, -0.00
101, 102376.38, -187500.02, -187500.02, -187500.02, -187500.02, -187500.02, -187500.02, 27302.61, -0.00, -0.00, -0.00
102, 102378.25, -187500.02, -187500.02, -187500.02, -187500.02, -187500.02, -187500.02, 27301.31, -0.00, -0.00, -0.00
103, 102354.63, -187500.02, -187500.02, -187500.02, -187500.02, -187500.02, -187500.02, 27326.41, -0.00, -0.00, -0.00
104, 102356.48, -187500.02, -187500.02, -187500.02, -187500.02, -187500.02, -187500.02, 27330.13, -0.00, -0.00, -0.00
105, 102374.80, -187500.02, -187500.02, -187500.02, -187500.02, -187500.02, -187500.02, 27309.05, -0.00, -0.00, -0.00
106, 102371.05, -187500.02, -187500.02, -187500.02, -187500.02, -187500.02, -187500.02, 27324.36, -0.00, -0.00, -0.00
107, 102354.65, -187500.02, -187500.02, -187500.02, -187500.02, -187500.02, -187500.02, 27347.54, -0.00, -0.00, -0.00
108, 102355.12, -187500.02, -187500.02, -187500.02, -187500.02, -187500.02, -187500.02, 27345.41, -0.00, -0.00, -0.00
109, 102360.68, -187500.02, -187500.02, -187500.02, -187500.02, -187500.02, -187500.02, 27335.58, -0.00, -0.00, -0.00
110, 102350.04, -187500.02, -187500.02, -187500.02, -187500.02, -187500.02, -187500.02, 27363.83, -0.00, -0.00, -0.00
111, 102369.96, -187500.02, -187500.02, -187500.02, -187500.02, -187500.02, -187500.02, 27366.16, -0.00, -0.00, -0.00
112, 102358.24, -187500.02, -187500.02, -187500.02, -187500.02, -187500.02, -187500.02, 27355.23, -0.00, -0.00, -0.00
113, 102351.12, -187500.02, -187500.02, -187500.02, -187500.02, -187500.02, -187500.02, 27357.33, -0.00, -0.00, -0.00
114, 102360.44, -187500.02, -187500.02, -187500.02, -187500.02, -187500.02, -187500.02, 27364.57, -0.00, -0.00, -0.00
115, 102361.20, -187500.02, -187500.02, -187500.02, -187500.02, -187500.02, -187500.02, 27380.95, -0.00, -0.00, -0.00
116, 102346.94, -187500.02, -187500.02, -187500.02, -187500.02, -187500.02, -187500.02, 27391.28, -0.00, -0.00, -0.00
117, 102348.88, -187500.02, -187500.02, -187500.02, -187500.02, -187500.02, -187500.02, 27390.41, -0.00, -0.00, -0.00
118, 102376.64, -187500.02, -187500.02, -187500.02, -187500.02, -187500.02, -187500.02, 27368.53, -0.00, -0.00, -0.00
119, 102364.93, -187500.02, -187500.02, -187500.02, -187500.02, -187500.02, -187500.02, 27378.90, -0.00, -0.00, -0.00
120, 102347.56, -187500.02, -187500.02, -187500.02, -187500.02, -187500.02, -187500.02, 27401.74, -0.00, -0.00, -0.00
121, 102343.02, -187500.02, -187500.02, -187500.02, -187500.02, -187500.02, -187500.02, 27403.75, -0.00, -0.00, -0.00
122, 102348.73, -187500.02, -187500.02, -187500.02, -187500.02, -187500.02, -187500.02, 27417.01, -0.00, -0.00, -0.00
123, 102363.88, -187500.02, -187500.02, -187500.02, -187500.02, -187500.02, -187500.02, 27414.84, -0.00, -0.00, -0.00
124, 102364.59, -187500.02, -187500.02, -187500.02, -187500.02, -187500.02, -187500.02, 27404.02, -0.00, -0.00, -0.00
125, 102332.72, -187500.02, -187500.02, -187500.02, -187500.02, -187500.02, -187500.02, 27421.03, -0.00, -0.00, -0.00
126, 102346.53, -187500.02, -187500.02, -187500.02, -187500.02, -187500.02, -187500.02, 27433.72, -0.00, -0.00, -0.00
127, 102368.48, -187500.02, -187500.02, -187500.02, -187500.02, -187500.02, -187500.02, 27426.86, -0.00, -0.00, -0.00
128, 102371.37, -187500.02, -187500.02, -187500.02, -187500.02, -187500.02, -187500.02, 27420.74, -0.00, -0.00, -0.00
129, 102361.27, -187500.02, -187500.02, -187500.02, -187500.02, -187500.02, -187500.02, 27420.81, -0.00, -0.00, -0.00
130, 102363.97, -187500.02, -187500.02, -187500.02, -187500.02, -187500.02, -187500.02, 27407.51, -0.00, -0.00, -0.00
131, 102376.15, -187500.02, -187500.02, -187500.02, -187500.02, -187500.02, -187500.02, 27398.28, -0.00, -0.00, -0.00
132, 102360.03, -187500.02, -187500.02, -187500.02, -187500.02, -187500.02, -187500.02, 27406.61, -0.00, -0.00, -0.00
133, 102345.84, -187500.02, -187500.02, -187500.02, -187500.02, -187500.02, -187500.02, 27412.27, -0.00, -0.00, -0.00
134, 102347.83, -187500.02, -187500.02, -187500.02, -187500.02, -187500.02, -187500.02, 27409.29, -0.00, -0.00, -0.00
135, 102354.34, -187500.02, -187500.02, -187500.02, -187500.02, -187500.02, -187500.02, 27424.16, -0.00, -0.00, -0.00
136, 102361.35, -187500.02, -187500.02, -187500.02, -187500.02, -187500.02, -187500.02, 27425.30, -0.00, -0.00, -0.00
137, 102350.63, -187500.02, -187500.02, -187500.02, -187500.02, -187500.02, -187500.02, 27434.84, -0.00, -0.00, -0.00
138, 102351.79, -187500.02, -187500.02, -187500.02, -187500.02, -187500.02, -187500.02, 27429.63, -0.00, -0.00, -0.00
139, 102363.61, -187500.02, -187500.02, -187500.02, -187500.02, -187500.02, -187500.02, 27432.85, -0.00, -0.00, -0.00
140, 102374.92, -187500.02, -187500.02, -187500.02, -187500.02, -187500.02, -187500.02, 27424.56, -0.00, -0.00, -0.00
141, 102352.30, -187500.02, -187500.02, -187500.02, -187500.02, -187500.02, -187500.02, 27431.71, -0.00, -0.00, -0.00
142, 102333.59, -187500.02, -187500.02, -187500.02, -187500.02, -187500.02, -187500.02, 27453.57, -0.00, -0.00, -0.00
143, 102362.52, -187500.02, -187500.02, -187500.02, -187500.02, -187500.02, -187500.02, 27447.61, -0.00, -0.00, -0.00
144, 102377.36, -187500.02, -187500.02, -187500.02, -187500.02, -187500.02, -187500.02, 27430.57, -0.00, -0.00, -0.00
145, 102344.70, -187500.02, -187500.02, -187500.02, -187500.02, -187500.02, -187500.02, 27458.36, -0.00, -0.00, -0.00
146, 102352.66, -187500.02, -187500.02, -187500.02, -187500.02, -187500.02, -187500.02, 27455.65, -0.00, -0.00, -0.00
147, 102356.91, -187500.02, -187500.02, -187500.02, -187500.02, -187500.02, -187500.02, 27450.80, -0.00, -0.00, -0.00
148, 102373.06, -187500.02, -187500.02, -187500.02, -187500.02, -187500.02, -187500.02, 27450.98, -0.00, -0.00, -0.00
149, 102364.99, -187500.02, -187500.02, -187500.02, -187500.02, -187500.02, -187500.02, 27445.68, -0.00, -0.00, -0.00
150, 102344.66, -187500.02, -187500.02, -187500.02, -187500.02, -187500.02, -187500.02, 27450.24, -0.00, -0.00, -0.00
151, 102342.35, -187500.02, -187500.02, -187500.02, -187500.02, -187500.02, -187500.02, 27460.93, -0.00, -0.00, -0.00
152, 102349.64, -187500.02, -187500.02, -187500.02, -187500.02, -187500.02, -187500.02, 27481.22, -0.00, -0.00, -0.00
153, 102349.48, -187500.02, -187500.02, -187500.02, -187500.02, -187500.02, -187500.02, 27484.40, -0.00, -0.00, -0.00
154, 102336.43, -187500.02, -187500.02, -187500.02, -187500.02, -187500.02, -187500.02, 27494.19, -0.00, -0.00, -0.00
155, 102354.65, -187500.02, -187500.02, -187500.02, -187500.02, -187500.02, -187500.02, 27476.91, -0.00, -0.00, -0.00
156, 102361.13, -187500.02, -187500.02, -187500.02, -187500.02, -187500.02, -187500.02, 27477.98, -0.00, -0.00, -0.00
157, 102355.77, -187500.02, -187500.02, -187500.02, -187500.02, -187500.02, -187500.02, 27474.85, -0.00, -0.00, -0.00
158, 102355.27, -187500.02, -187500.02, -187500.02, -187500.02, -187500.02, -187500.02, 27462.56, -0.00, -0.00, -0.00
159, 102356.50, -187500.02, -187500.02, -187500.02, -187500.02, -187500.02, -187500.02, 27452.19, -0.00, -0.00, -0.00
160, 102370.74, -187500.02, -187500.02, -187500.02, -187500.02, -187500.02, -187500.02, 27450.47, -0.00, -0.00, -0.00
161, 102358.00, -187500.02, -187500.02, -187500.02, -187500.02, -187500.02, -187500.02, 27461.15, -0.00, -0.00, -0.00
162, 102332.59, -187500.02, -187500.02, -187500.02, -187500.02, -187500.02, -187500.02, 27484.62, -0.00, -0.00, -0.00
163, 102329.21, -187500.02, -187500.02, -187500.02, -187500.02, -187500.02, -187500.02, 27492.44, -0.00, -0.00, -0.00
164, 102337.75, -187500.02, -187500.02, -187500.02, -187500.02, -187500.02, -187500.02, 27500.07, -0.00, -0.00, -0.00
165, 102359.72, -187500.02, -187500.02, -187500.02, -187500.02, -187500.02, -187500.02, 27482.86, -0.00, -0.00, -0.00
166, 102321.88, -187500.02, -187500.02, -187500.02, -187500.02, -187500.02, -187500.02, 27513.30, -0.00, -0.00, -0.00
167, 102331.73, -187500.02, -187500.02, -187500.02, -187500.02, -187500.02, -187500.02, 27519.94, -0.00, -0.00, -0.00
168, 102347.36, -187500.02, -187500.02, -187500.02, -187500.02, -187500.02, -187500.02, 27509.25, -0.00, -0.00, -0.00
169, 102360.50, -187500.02, -187500.02, -187500.02, -187500.02, -187500.02, -187500.02, 27495.62, -0.00, -0.00, -0.00
170, 102342.84, -187500.02, -187500.02, -187500.02, -187500.02, -187500.02, -187500.02, 27495.28, -0.00, -0.00, -0.00
171, 102333.10, -187500.02, -187500.02, -187500.02, -187500.02, -187500.02, -187500.02, 27494.84, -0.00, -0.00, -0.00
172, 102334.89, -187500.02, -187500.02, -187500.02, -187500.02, -187500.02, -187500.02, 27498.32, -0.00, -0.00, -0.00
173, 102354.20, -187500.02, -187500.02, -187500.02, -187500.02, -187500.02, -187500.02, 27495.24, -0.00, -0.00, -0.00
174, 102347.54, -187500.02, -187500.02, -187500.02, -187500.02, -187500.02, -187500.02, 27490.32, -0.00, -0.00, -0.00
175, 102330.06, -187500.02, -187500.02, -187500.02, -187500.02, -187500.02, -187500.02, 27504.33, -0.00, -0.00, -0.00
176, 102339.38, -187500.02, -187500.02, -187500.02, -187500.02, -187500.02, -187500.02, 27505.29, -0.00, -0.00, -0.00
177, 102342.53, -187500.02, -187500.02, -187500.02, -187500.02, -187500.02, -187500.02, 27514.35, -0.00, -0.00, -0.00
178, 102348.21, -187500.02, -187500.02, -187500.02, -187500.02, -187500.02, -187500.02, 27525.37, -0.00, -0.00, -0.00
179, 102347.94, -187500.02, -187500.02, -187500.02, -187500.02, -187500.02, -187500.02, 27519.67, -0.00, -0.00, -0.00
180, 102344.74, -187500.02, -187500.02, -187500.02, -187500.02, -187500.02, -187500.02, 27515.55, -0.00, -0.00, -0.00
181, 102357.71, -187500.02, -187500.02, -187500.02, -187500.02, -187500.02, -187500.02, 27521.32, -0.00, -0.00, -0.00
182, 102368.88, -187500.02, -187500.02, -187500.02, -187500.02, -187500.02, -187500.02, 27508.29, -0.00, -0.00, -0.00
183, 102351.07, -187500.02, -187500.02, -187500.02, -187500.02, -187500.02, -187500.02, 27516.76, -0.00, -0.00, -0.00
184, 102367.99, -187500.02, -187500.02, -187500.02, -187500.02, -187500.02, -187500.02, 27502.35, -0.00, -0.00, -0.00
185, 102356.41, -187500.02, -187500.02, -187500.02, -187500.02, -187500.02, -187500.02, 27510.32, -0.00, -0.00, -0.00
186, 102355.16, -187500.02, -187500.02, -187500.02, -187500.02, -187500.02, -187500.02, 27525.28, -0.00, -0.00, -0.00
187, 102350.87, -187500.02, -187500.02, -187500.02, -187500.02, -187500.02, -187500.02, 27530.29, -0.00, -0.00, -0.00
188, 102339.36, -187500.02, -187500.02, -187500.02, -187500.02, -187500.02, -187500.02, 27533.57, -0.00, -0.00, -0.00
189, 102350.13, -187500.02, -187500.02, -187500.02, -187500.02, -187500.02, -187500.02, 27546.83, -0.00, -0.00, -0.00
190, 102360.15, -187500.02, -187500.02, -187500.02, -187500.02, -187500.02, -187500.02, 27544.95, -0.00, -0.00, -0.00
191, 102350.22, -187500.02, -187500.02, -187500.02, -187500.02, -187500.02, -187500.02, 27547.09, -0.00, -0.00, -0.00
192, 102336.19, -187500.02, -187500.02, -187500.02, -187500.02, -187500.02, -187500.02, 27557.08, -0.00, -0.00, -0.00
193, 102343.70, -187500.02, -187500.02, -187500.02, -187500.02, -187500.02, -187500.02, 27566.92, -0.00, -0.00, -0.00
194, 102363.81, -187500.02, -187500.02, -187500.02, -187500.02, -187500.02, -187500.02, 27559.03, -0.00, -0.00, -0.00
195, 102364.08, -187500.02, -187500.02, -187500.02, -187500.02, -187500.02, -187500.02, 27550.22, -0.00, -0.00, -0.00
196, 102351.59, -187500.02, -187500.02, -187500.02, -187500.02, -187500.02, -187500.02, 27551.74, -0.00, -0.00, -0.00
197, 102343.20, -187500.02, -187500.02, -187500.02, -187500.02, -187500.02, -187500.02, 27573.96, -0.00, -0.00, -0.00
198, 102363.63, -187500.02, -187500.02, -187500.02, -187500.02, -187500.02, -187500.02, 27577.76, -0.00, -0.00, -0.00
199, 102377.58, -187500.02, -187500.02, -187500.02, -187500.02, -187500.02, -187500.02, 27549.37, -0.00, -0.00, -0.00
200, 102366.25, -187500.02, -187500.02, -187500.02, -187500.02, -187500.02, -187500.02, 27536.57, -0.00, -0.00, -0.00
201, 102355.36, -187500.02, -187500.02, -187500.02, -187500.02, -187500.02, -187500.02, 27544.81, -0.00, -0.00, -0.00
202, 102357.69, -187500.02, -187500.02, -187500.02, -187500.02, -187500.02, -187500.02, 27563.97, -0.00, -0.00, -0.00
203, 102375.55, -187500.02, -187500.02, -187500.02, -187500.02, -187500.02, -187500.02, 27541.55, -0.00, -0.00, -0.00
204, 102342.89, -187500.02, -187500.02, -187500.02, -187500.02, -187500.02, -187500.02, 27539.94, -0.00, -0.00, -0.00
205, 102331.73, -187500.02, -187500.02, -187500.02, -187500.02, -187500.02, -187500.02, 27558.34, -0.00, -0.00, -0.00
206, 102350.34, -187500.02, -187500.02, -187500.02, -187500.02, -187500.02, -187500.02, 27563.70, -0.00, -0.00, -0.00
207, 102356.62, -187500.02, -187500.02, -187500.02, -187500.02, -187500.02, -187500.02, 27567.03, -0.00, -0.00, -0.00
208, 102364.37, -187500.02, -187500.02, -187500.02, -187500.02, -187500.02, -187500.02, 27546.71, -0.00, -0.00, -0.00
209, 102347.59, -187500.02, -187500.02, -187500.02, -187500.02, -187500.02, -187500.02, 27547.47, -0.00, -0.00, -0.00
210, 102350.71, -187500.02, -187500.02, -187500.02, -187500.02, -187500.02, -187500.02, 27566.03, -0.00, -0.00, -0.00
211, 102366.59, -187500.02, -187500.02, -187500.02, -187500.02, -187500.02, -187500.02, 27569.33, -0.00, -0.00, -0.00
212, 102360.64, -187500.02, -187500.02, -187500.02, -187500.02, -187500.02, -187500.02, 27555.63, -0.00, -0.00, -0.00
213, 102343.54, -187500.02, -187500.02, -187500.02, -187500.02, -187500.02, -187500.02, 27571.68, -0.00, -0.00, -0.00
214, 102359.84, -187500.02, -187500.02, -187500.02, -187500.02, -187500.02, -187500.02, 27563.19, -0.00, -0.00, -0.00
215, 102359.85, -187500.02, -187500.02, -187500.02, -187500.02, -187500.02, -187500.02, 27578.70, -0.00, -0.00, -0.00
216, 102367.52, -187500.02, -187500.02, -187500.02, -187500.02, -187500.02, -187500.02, 27576.11, -0.00, -0.00, -0.00
217, 102376.09, -187500.02, -187500.02, -187500.02, -187500.02, -187500.02, -187500.02, 27547.88, -0.00, -0.00, -0.00
218, 102378.74, -187500.02, -187500.02, -187500.02, -187500.02, -187500.02, -187500.02, 27532.45, -0.00, -0.00, -0.00
219, 102351.83, -187500.02, -187500.02, -187500.02, -187500.02, -187500.02, -187500.02, 27564.01, -0.00, -0.00, -0.00
220, 102350.11, -187500.02, -187500.02, -187500.02, -187500.02, -187500.02, -187500.02, 27582.30, -0.00, -0.00, -0.00
221, 102366.49, -187500.02, -187500.02, -187500.02, -187500.02, -187500.02, -187500.02, 27555.30, -0.00, -0.00, -0.00
222, 102367.81, -187500.02, -187500.02, -187500.02, -187500.02, -187500.02, -187500.02, 27546.87, -0.00, -0.00, -0.00
223, 102373.04, -187500.02, -187500.02, -187500.02, -187500.02, -187500.02, -187500.02, 27551.45, -0.00, -0.00, -0.00
224, 102373.16, -187500.02, -187500.02, -187500.02, -187500.02, -187500.02, -187500.02, 27550.07, -0.00, -0.00, -0.00
225, 102355.88, -187500.02, -187500.02, -187500.02, -187500.02, -187500.02, -187500.02, 27550.67, -0.00, -0.00, -0.00
226, 102365.38, -187500.02, -187500.02, -187500.02, -187500.02, -187500.02, -187500.02, 27547.05, -0.00, -0.00, -0.00
227, 102380.62, -187500.02, -187500.02, -187500.02, -187500.02, -187500.02, -187500.02, 27525.81, -0.00, -0.00, -0.00
228, 102345.86, -187500.02, -187500.02, -187500.02, -187500.02, -187500.02, -187500.02, 27545.51, -0.00, -0.00, -0.00
229, 102323.09, -187500.02, -187500.02, -187500.02, -187500.02, -187500.02, -187500.02, 27573.36, -0.00, -0.00, -0.00
230, 102329.57, -187500.02, -187500.02, -187500.02, -187500.02, -187500.02, -187500.02, 27577.63, -0.00, -0.00, -0.00
231, 102343.23, -187500.02, -187500.02, -187500.02, -187500.02, -187500.02, -187500.02, 27586.10, -0.00, -0.00, -0.00
232, 102359.34, -187500.02, -187500.02, -187500.02, -187500.02, -187500.02, -187500.02, 27577.43, -0.00, -0.00, -0.00
233, 102349.95, -187500.02, -187500.02, -187500.02, -187500.02, -187500.02, -187500.02, 27578.12, -0.00, -0.00, -0.00
234, 102338.29, -187500.02, -187500.02, -187500.02, -187500.02, -187500.02, -187500.02, 27583.39, -0.00, -0.00, -0.00
235, 102353.87, -187500.02, -187500.02, -187500.02, -187500.02, -187500.02, -187500.02, 27580.91, -0.00, -0.00, -0.00
236, 102375.97, -187500.02, -187500.02, -187500.02, -187500.02, -187500.02, -187500.02, 27561.60, -0.00, -0.00, -0.00
237, 102353.71, -187500.02, -187500.02, -187500.02, -187500.02, -187500.02, -187500.02, 27567.25, -0.00, -0.00, -0.00
238, 102341.66, -187500.02, -187500.02, -187500.02, -187500.02, -187500.02, -187500.02, 27575.62, -0.00, -0.00, -0.00
239, 102362.56, -187500.02, -187500.02, -187500.02, -187500.02, -187500.02, -187500.02, 27569.36, -0.00, -0.00, -0.00
240, 102365.42, -187500.02, -187500.02, -187500.02, -187500.02, -187500.02, -187500.02, 27573.02, -0.00, -0.00, -0.00
241, 102359.79, -187500.02, -187500.02, -187500.02, -187500.02, -187500.02, -187500.02, 27569.45, -0.00, -0.00, -0.00
242, 102331.73, -187500.02, -187500.02, -187500.02, -187500.02, -187500.02, -187500.02, 27594.14, -0.00, -0.00, -0.00
243, 102350.80, -187500.02, -187500.02, -187500.02, -187500.02, -187500.02, -187500.02, 27597.61, -0.00, -0.00, -0.00
244, 102371.74, -187500.02, -187500.02, -187500.02, -187500.02, -187500.02, -187500.02, 27581.18, -0.00, -0.00, -0.00
245, 102348.59, -187500.02, -187500.02, -187500.02, -187500.02, -187500.02, -187500.02, 27597.54, -0.00, -0.00, -0.00
246, 102343.60, -187500.02, -187500.02, -187500.02, -187500.02, -187500.02, -187500.02, 27605.72, -0.00, -0.00, -0.00
247, 102358.49, -187500.02, -187500.02, -187500.02, -187500.02, -187500.02, -187500.02, 27591.55, -0.00, -0.00, -0.00
248, 102359.32, -187500.02, -187500.02, -187500.02, -187500.02, -187500.02, -187500.02, 27595.46, -0.00, -0.00, -0.00
249, 102346.94, -187500.02, -187500.02, -187500.02, -187500.02, -187500.02, -187500.02, 27612.70, -0.00, -0.00, -0.00
250, 102334.95, -187500.02, -187500.02, -187500.02, -187500.02, -187500.02, -187500.02, 27620.05, -0.00, -0.00, -0.00
