%OpenBCI Raw EEG Data
%
%Sample Rate = 250.0 Hz
%First Column = SampleIndex
%Other Columns = EEG data in microvolts followed by Accel Data (in G) interleaved with Aux Data
0, 0.00, -164567.39, -187500.02, -187500.02, -187500.02, -187500.02, 0.00, 0.00, 0.00, 0.00, 0.00
1, 0.00, -164081.00, -187500.02, -187500.02, -187500.02, -187500.02, 0.00, 0.00, 0.00, 0.00, 0.00
2, 0.00, -163376.69, -187500.02, -187500.02, -187500.02, -187500.02, 0.00, 0.00, 0.00, 0.00, 0.00
3, 0.00, -163843.78, -187500.02, -187500.02, -187500.02, -187500.02, 0.00, 0.00, 0.00, 0.00, 0.00
4, 0.00, -164693.08, -187500.02, -187500.02, -187500.02, -187500.02, 0.00, 0.00, 0.00, 0.00, 0.00
5, 0.00, -164393.86, -187500.02, -187500.02, -187500.02, -187500.02, 0.00, 0.00, 0.00, 0.00, 0.00
6, 0.00, -163593.95, -187500.02, -187500.02, -187500.02, -187500.02, 0.00, 0.00, 0.00, 0.00, 0.00
7, 0.00, -163858.95, -187500.02, -187500.02, -187500.02, -187500.02, 0.00, 0.00, 0.00, 0.00, 0.00
8, 0.00, -164779.33, -187500.02, -187500.02, -187500.02, -187500.02, 0.00, 0.00, 0.00, 0.00, 0.00
9, 0.00, -164728.11, -187500.02, -187500.02, -187500.02, -187500.02, 0.00, 0.00, 0.00, 0.00, 0.00
10, 0.00, -163925.98, -187500.02, -187500.02, -187500.02, -187500.02, 0.00, 0.00, 0.00, 0.00, 0.00
11, 0.00, -163965.66, -187500.02, -187500.02, -187500.02, -187500.02, 0.00, 0.00, 0.00, 0.00, 0.00
12, 0.00, -164916.47, -187500.02, -187500.02, -187500.02, -187500.02, 0.00, 0.00, 0.00, 0.00, 0.00
13, 0.00, -165136.78, -187500.02, -187500.02, -187500.02, -187500.02, 0.00, 0.00, 0.00, 0.00, 0.00
14, 0.00, -164327.30, -187500.02, -187500.02, -187500.02, -187500.02, 0.00, 0.00, 0.00, 0.00, 0.00
15, 0.00, -164095.95, -187500.02, -187500.02, -187500.02, -187500.02, 0.00, 0.00, 0.00, 0.00, 0.00
16, 0.00, -164918.83, -187500.02, -187500.02, -187500.02, -187500.02, 0.00, 0.00, 0.00, 0.00, 0.00
17, 0.00, -165325.55, -187500.02, -187500.02, -187500.02, -187500.02, 0.00, 0.00, 0.00, 0.00, 0.00
18, 0.00, -164576.02, -187500.02, -187500.02, -187500.02, -187500.02, 0.00, 0.00, 0.00, 0.00, 0.00
19, 0.00, -164140.97, -187500.02, -187500.02, -187500.02, -187500.02, 0.00, 0.00, 0.00, 0.00, 0.00
20, 0.00, -164897.86, -187500.02, -187500.02, -187500.02, -187500.02, 0.00, 0.00, 0.00, 0.00, 0.00
21, 0.00, -165510.50, -187500.02, -187500.02, -187500.02, -187500.02, 0.00, 0.00, 0.00, 0.00, 0.00
22, 0.00, -164905.17, -187500.02, -187500.02, -187500.02, -187500.02, 0.00, 0.00, 0.00, 0.00, 0.00
23, 0.00, -164289.00, -187500.02, -187500.02, -187500.02, -187500.02, 0.00, 0.00, 0.00, 0.00, 0.00
24, 0.00, -164904.27, -187500.02, -187500.02, -187500.02, -187500.02, 0.00, 0.00, 0.00, 0.00, 0.00
25, 0.00, -165696.56, -187500.02, -187500.02, -187500.02, -187500.02, 0.00, 0.00, 0.00, 0.00, 0.00
26, 0.00, -165266.98, -187500.02, -187500.02, -187500.02, -187500.02, 0.00, 0.00, 0.00, 0.00, 0.00
27, 0.00, -164552.00, -187500.02, -187500.02, -187500.02, -187500.02, 0.00, 0.00, 0.00, 0.00, 0.00
28, 0.00, -164982.33, -187500.02, -187500.02, -187500.02, -187500.02, 0.00, 0.00, 0.00, 0.00, 0.00
29, 0.00, -165882.75, -187500.02, -187500.02, -187500.02, -187500.02, 0.00, 0.00, 0.00, 0.00, 0.00
30, 0.00, -165681.94, -187500.02, -187500.02, -187500.02, -187500.02, 0.00, 0.00, 0.00, 0.00, 0.00
31, 0.00, -164840.56, -187500.02, -187500.02, -187500.02, -187500.02, 0.00, 0.00, 0.00, 0.00, 0.00
32, 0.00, -165016.36, -187500.02, -187500.02, -187500.02, -187500.02, 0.00, 0.00, 0.00, 0.00, 0.00
33, 0.00, -165957.97, -187500.02, -187500.02, -187500.02, -187500.02, 0.00, 0.00, 0.00, 0.00, 0.00
34, 0.00, -165979.72, -187500.02, -187500.02, -187500.02, -187500.02, 0.00, 0.00, 0.00, 0.00, 0.00
35, 0.00, -165107.08, -187500.02, -187500.02, -187500.02, -187500.02, 0.00, 0.00, 0.00, 0.00, 0.00
36, 0.00, -165059.69, -187500.02, -187500.02, -187500.02, -187500.02, 0.00, 0.00, 0.00, 0.00, 0.00
37, 0.00, -165986.70, -187500.02, -187500.02, -187500.02, -187500.02, 0.00, 0.00, 0.00, 0.00, 0.00
38, 0.00, -166215.25, -187500.02, -187500.02, -187500.02, -187500.02, 0.00, 0.00, 0.00, 0.00, 0.00
39, 0.00, -165403.84, -187500.02, -187500.02, -187500.02, -187500.02, 0.00, 0.00, 0.00, 0.00, 0.00
40, 0.00, -165121.47, -187500.02, -187500.02, -187500.02, -187500.02, 0.00, 0.00, 0.00, 0.00, 0.00
41, 0.00, -165973.14, -187500.02, -187500.02, -187500.02, -187500.02, 0.00, 0.00, 0.00, 0.00, 0.00
42, 0.00, -166473.22, -187500.02, -187500.02, -187500.02, -187500.02, 0.00, 0.00, 0.00, 0.00, 0.00
43, 0.00, -165778.70, -187500.02, -187500.02, -187500.02, -187500.02, 0.00, 0.00, 0.00, 0.00, 0.00
44, 0.00, -165298.14, -187500.02, -187500.02, -187500.02, -187500.02, 0.00, 0.00, 0.00, 0.00, 0.00
45, 0.00, -166029.53, -187500.02, -187500.02, -187500.02, -187500.02, 0.00, 0.00, 0.00, 0.00, 0.00
46, 0.00, -166734.31, -187500.02, -187500.02, -187500.02, -187500.02, 0.00, 0.00, 0.00, 0.00, 0.00
47, 0.00, -166175.36, -187500.02, -187500.02, -187500.02, -187500.02, 0.00, 0.00, 0.00, 0.00, 0.00
48, 0.00, -165511.63, -187500.02, -187500.02, -187500.02, -187500.02, 0.00, 0.00, 0.00, 0.00, 0.00
49, 0.00, -166057.11, -187500.02, -187500.02, -187500.02, -187500.02, 0.00, 0.00, 0.00, 0.00, 0.00
50, 0.00, -166875.56, -187500.02, -187500.02, -187500.02, -187500.02, 0.00, 0.00, 0.00, 0.00, 0.00
51, 0.00, -166494.61, -187500.02, -187500.02, -187500.02, -187500.02, 0.00, 0.00, 0.00, 0.00, 0.00
52, 0.00, -165693.31, -187500.02, -187500.02, -187500.02, -187500.02, 0.00, 0.00, 0.00, 0.00, 0.00
53, 0.00, -166029.41, -187500.02, -187500.02, -187500.02, -187500.02, 0.00, 0.00, 0.00, 0.00, 0.00
54, 0.00, -166952.19, -187500.02, -187500.02, -187500.02, -187500.02, 0.00, 0.00, 0.00, 0.00, 0.00
55, 0.00, -166782.41, -187500.02, -187500.02, -187500.02, -187500.02, 0.00, 0.00, 0.00, 0.00, 0.00
56, 0.00, -165919.42, -187500.02, -187500.02, -187500.02, -187500.02, 0.00, 0.00, 0.00, 0.00, 0.00
57, 0.00, -166033.53, -187500.02, -187500.02, -187500.02, -187500.02, 0.00, 0.00, 0.00, 0.00, 0.00
58, 0.00, -166998.34, -187500.02, -187500.02, -187500.02, -187500.02, 0.00, 0.00, 0.00, 0.00, 0.00
59, 0.00, -167107.27, -187500.02, -187500.02, -187500.02, -187500.02, 0.00, 0.00, 0.00, 0.00, 0.00
60, 0.00, -166272.67, -187500.02, -187500.02, -187500.02, -187500.02, 0.00, 0.00, 0.00, 0.00, 0.00
61, 0.00, -166156.41, -187500.02, -187500.02, -187500.02, -187500.02, 0.00, 0.00, 0.00, 0.00, 0.00
62, 0.00, -167093.95, -187500.02, -187500.02, -187500.02, -187500.02, 0.00, 0.00, 0.00, 0.00, 0.00
63, 0.00, -167429.25, -187500.02, -187500.02, -187500.02, -187500.02, 0.00, 0.00, 0.00, 0.00, 0.00
64, 0.00, -166608.94, -187500.02, -187500.02, -187500.02, -187500.02, 0.00, 0.00, 0.00, 0.00, 0.00
65, 0.00, -166247.42, -187500.02, -187500.02, -187500.02, -187500.02, 0.00, 0.00, 0.00, 0.00, 0.00
66, 0.00, -167061.25, -187500.02, -187500.02, -187500.02, -187500.02, 0.00, 0.00, 0.00, 0.00, 0.00
67, 0.00, -167606.30, -187500.02, -187500.02, -187500.02, -187500.02, 0.00, 0.00, 0.00, 0.00, 0.00
68, 0.00, -166911.06, -187500.02, -187500.02, -187500.02, -187500.02, 0.00, 0.00, 0.00, 0.00, 0.00
69, 0.00, -166362.83, -187500.02, -187500.02, -187500.02, -187500.02, 0.00, 0.00, 0.00, 0.00, 0.00
70, 0.00, -167052.70, -187500.02, -187500.02, -187500.02, -187500.02, 0.00, 0.00, 0.00, 0.00, 0.00
71, 0.00, -167781.28, -187500.02, -187500.02, -187500.02, -187500.02, 0.00, 0.00, 0.00, 0.00, 0.00
72, 0.00, -167258.59, -187500.02, -187500.02, -187500.02, -187500.02, 0.00, 0.00, 0.00, 0.00, 0.00
73, 0.00, -166523.83, -187500.02, -187500.02, -187500.02, -187500.02, 0.00, 0.00, 0.00, 0.00, 0.00
74, 0.00, -167038.06, -187500.02, -187500.02, -187500.02, -187500.02, 0.00, 0.00, 0.00, 0.00, 0.00
75, 0.00, -167927.44, -187500.02, -187500.02, -187500.02, -187500.02, 0.00, 0.00, 0.00, 0.00, 0.00
76, 0.00, -167608.70, -187500.02, -187500.02, -187500.02, -187500.02, 0.00, 0.00, 0.00, 0.00, 0.00
77, 0.00, -166803.83, -187500.02, -187500.02, -187500.02, -187500.02, 0.00, 0.00, 0.00, 0.00, 0.00
78, 0.00, -167111.47, -187500.02, -187500.02, -187500.02, -187500.02, 0.00, 0.00, 0.00, 0.00, 0.00
79, 0.00, -168073.56, -187500.02, -187500.02, -187500.02, -187500.02, 0.00, 0.00, 0.00, 0.00, 0.00
80, 0.00, -167988.31, -187500.02, -187500.02, -187500.02, -187500.02, 0.00, 0.00, 0.00, 0.00, 0.00
81, 0.00, -167120.59, -187500.02, -187500.02, -187500.02, -187500.02, 0.00, 0.00, 0.00, 0.00, 0.00
82, 0.00, -167161.81, -187500.02, -187500.02, -187500.02, -187500.02, 0.00, 0.00, 0.00, 0.00, 0.00
83, 0.00, -168116.42, -187500.02, -187500.02, -187500.02, -187500.02, 0.00, 0.00, 0.00, 0.00, 0.00
84, 0.00, -168285.70, -187500.02, -187500.02, -187500.02, -187500.02, 0.00, 0.00, 0.00, 0.00, 0.00
85, 0.00, -167408.56, -187500.02, -187500.02, -187500.02, -187500.02, 0.00, 0.00, 0.00, 0.00, 0.00
86, 0.00, -167210.52, -187500.02, -187500.02, -187500.02, -187500.02, 0.00, 0.00, 0.00, 0.00, 0.00
87, 0.00, -168131.05, -187500.02, -187500.02, -187500.02, -187500.02, 0.00, 0.00, 0.00, 0.00, 0.00
88, 0.00, -168505.02, -187500.02, -187500.02, -187500.02, -187500.02, 0.00, 0.00, 0.00, 0.00, 0.00
89, 0.00, -167707.64, -187500.02, -187500.02, -187500.02, -187500.02, 0.00, 0.00, 0.00, 0.00, 0.00
90, 0.00, -167289.53, -187500.02, -187500.02, -187500.02, -187500.02, 0.00, 0.00, 0.00, 0.00, 0.00
91, 0.00, -168115.89, -187500.02, -187500.02, -187500.02, -187500.02, 0.00, 0.00, 0.00, 0.00, 0.00
92, 0.00, -168762.39, -187500.02, -187500.02, -187500.02, -187500.02, 0.00, 0.00, 0.00, 0.00, 0.00
93, 0.00, -168093.58, -187500.02, -187500.02, -187500.02, -187500.02, 0.00, 0.00, 0.00, 0.00, 0.00
94, 0.00, -167451.34, -187500.02, -187500.02, -187500.02, -187500.02, 0.00, 0.00, 0.00, 0.00, 0.00
95, 0.00, -168105.20, -187500.02, -187500.02, -187500.02, -187500.02, 0.00, 0.00, 0.00, 0.00, 0.00
96, 0.00, -168934.86, -187500.02, -187500.02, -187500.02, -187500.02, 0.00, 0.00, 0.00, 0.00, 0.00
97, 0.00, -168474.64, -187500.02, -187500.02, -187500.02, -187500.02, 0.00, 0.00, 0.00, 0.00, 0.00
98, 0.00, -167698.11, -187500.02, -187500.02, -187500.02, -187500.02, 0.00, 0.00, 0.00, 0.00, 0.00
99, 0.00, -168146.84, -187500.02, -187500.02, -187500.02, -187500.02, 0.00, 0.00, 0.00, 0.00, 0.00
100, 0.00, -169079.31, -187500.02, -187500.02, -187500.02, -187500.02, 0.00, 0.00, 0.00, 0.00, 0.00
101, 0.00, -168800.53, -187500.02, -187500.02, -187500.02, -187500.02, 0.00, 0.00, 0.00, 0.00, 0.00
102, 0.00, -167916.33, -187500.02, -187500.02, -187500.02, -187500.02, 0.00, 0.00, 0.00, 0.00, 0.00
103, 0.00, -168121.69, -187500.02, -187500.02, -187500.02, -187500.02, 0.00, 0.00, 0.00, 0.00, 0.00
104, 0.00, -169068.61, -187500.02, -187500.02, -187500.02, -187500.02, 0.00, 0.00, 0.00, 0.00, 0.00
105, 0.00, -169032.16, -187500.02, -187500.02, -187500.02, -187500.02, 0.00, 0.00, 0.00, 0.00, 0.00
106, 0.00, -168126.33, -187500.02, -187500.02, -187500.02, -187500.02, 0.00, 0.00, 0.00, 0.00, 0.00
107, 0.00, -168095.69, -187500.02, -187500.02, -187500.02, -187500.02, 0.00, 0.00, 0.00, 0.00, 0.00
108, 0.00, -169073.48, -187500.02, -187500.02, -187500.02, -187500.02, 0.00, 0.00, 0.00, 0.00, 0.00
109, 0.00, -169323.58, -187500.02, -187500.02, -187500.02, -187500.02, 0.00, 0.00, 0.00, 0.00, 0.00
110, 0.00, -168466.36, -187500.02, -187500.02, -187500.02, -187500.02, 0.00, 0.00, 0.00, 0.00, 0.00
111, 0.00, -168219.61, -187500.02, -187500.02, -187500.02, -187500.02, 0.00, 0.00, 0.00, 0.00, 0.00
112, 0.00, -169140.42, -187500.02, -187500.02, -187500.02, -187500.02, 0.00, 0.00, 0.00, 0.00, 0.00
113, 0.00, -169627.20, -187500.02, -187500.02, -187500.02, -187500.02, 0.00, 0.00, 0.00, 0.00, 0.00
114, 0.00, -168843.00, -187500.02, -187500.02, -187500.02, -187500.02, 0.00, 0.00, 0.00, 0.00, 0.00
115, 0.00, -168358.30, -187500.02, -187500.02, -187500.02, -187500.02, 0.00, 0.00, 0.00, 0.00, 0.00
116, 0.00, -169142.08, -187500.02, -187500.02, -187500.02, -187500.02, 0.00, 0.00, 0.00, 0.00, 0.00
117, 0.00, -169820.81, -187500.02, -187500.02, -187500.02, -187500.02, 0.00, 0.00, 0.00, 0.00, 0.00
118, 0.00, -169182.97, -187500.02, -187500.02, -187500.02, -187500.02, 0.00, 0.00, 0.00, 0.00, 0.00
119, 0.00, -168510.22, -187500.02, -187500.02, -187500.02, -187500.02, 0.00, 0.00, 0.00, 0.00, 0.00
120, 0.00, -169110.00, -187500.02, -187500.02, -187500.02, -187500.02, 0.00, 0.00, 0.00, 0.00, 0.00
121, 0.00, -169947.84, -187500.02, -187500.02, -187500.02, -187500.02, 0.00, 0.00, 0.00, 0.00, 0.00
122, 0.00, -169499.84, -187500.02, -187500.02, -187500.02, -187500.02, 0.00, 0.00, 0.00, 0.00, 0.00
123, 0.00, -168647.45, -187500.02, -187500.02, -187500.02, -187500.02, 0.00, 0.00, 0.00, 0.00, 0.00
124, 0.00, -169029.88, -187500.02, -187500.02, -187500.02, -187500.02, 0.00, 0.00, 0.00, 0.00, 0.00
125, 0.00, -170003.88, -187500.02, -187500.02, -187500.02, -187500.02, 0.00, 0.00, 0.00, 0.00, 0.00
126, 0.00, -169820.25, -187500.02, -187500.02, -187500.02, -187500.02, 0.00, 0.00, 0.00, 0.00, 0.00
127, 0.00, -168938.66, -187500.02, -187500.02, -187500.02, -187500.02, 0.00, 0.00, 0.00, 0.00, 0.00
128, 0.00, -169098.31, -187500.02, -187500.02, -187500.02, -187500.02, 0.00, 0.00, 0.00, 0.00, 0.00
129, 0.00, -170115.13, -187500.02, -187500.02, -187500.02, -187500.02, 0.00, 0.00, 0.00, 0.00, 0.00
130, 0.00, -170187.20, -187500.02, -187500.02, -187500.02, -187500.02, 0.00, 0.00, 0.00, 0.00, 0.00
131, 0.00, -169284.44, -187500.02, -187500.02, -187500.02, -187500.02, 0.00, 0.00, 0.00, 0.00, 0.00
132, 0.00, -169197.98, -187500.02, -187500.02, -187500.02, -187500.02, 0.00, 0.00, 0.00, 0.00, 0.00
133, 0.00, -170164.86, -187500.02, -187500.02, -187500.02, -187500.02, 0.00, 0.00, 0.00, 0.00, 0.00
134, 0.00, -170445.92, -187500.02, -187500.02, -187500.02, -187500.02, 0.00, 0.00, 0.00, 0.00, 0.00
135, 0.00, -169566.75, -187500.02, -187500.02, -187500.02, -187500.02, 0.00, 0.00, 0.00, 0.00, 0.00
136, 0.00, -169219.55, -187500.02, -187500.02, -187500.02, -187500.02, 0.00, 0.00, 0.00, 0.00, 0.00
137, 0.00, -170118.70, -187500.02, -187500.02, -187500.02, -187500.02, 0.00, 0.00, 0.00, 0.00, 0.00
138, 0.00, -170657.95, -187500.02, -187500.02, -187500.02, -187500.02, 0.00, 0.00, 0.00, 0.00, 0.00
139, 0.00, -169895.88, -187500.02, -187500.02, -187500.02, -187500.02, 0.00, 0.00, 0.00, 0.00, 0.00
140, 0.00, -169315.58, -187500.02, -187500.02, -187500.02, -187500.02, 0.00, 0.00, 0.00, 0.00, 0.00
141, 0.00, -170066.80, -187500.02, -187500.02, -187500.02, -187500.02, 0.00, 0.00, 0.00, 0.00, 0.00
142, 0.00, -170822.33, -187500.02, -187500.02, -187500.02, -187500.02, 0.00, 0.00, 0.00, 0.00, 0.00
143, 0.00, -170247.78, -187500.02, -187500.02, -187500.02, -187500.02, 0.00, 0.00, 0.00, 0.00, 0.00
144, 0.00, -169525.84, -187500.02, -187500.02, -187500.02, -187500.02, 0.00, 0.00, 0.00, 0.00, 0.00
145, 0.00, -170091.50, -187500.02, -187500.02, -187500.02, -187500.02, 0.00, 0.00, 0.00, 0.00, 0.00
146, 0.00, -171016.66, -187500.02, -187500.02, -187500.02, -187500.02, 0.00, 0.00, 0.00, 0.00, 0.00
147, 0.00, -170654.84, -187500.02, -187500.02, -187500.02, -187500.02, 0.00, 0.00, 0.00, 0.00, 0.00
148, 0.00, -169795.95, -187500.02, -187500.02, -187500.02, -187500.02, 0.00, 0.00, 0.00, 0.00, 0.00
149, 0.00, -170110.45, -187500.02, -187500.02, -187500.02, -187500.02, 0.00, 0.00, 0.00, 0.00, 0.00
150, 0.00, -171067.66, -187500.02, -187500.02, -187500.02, -187500.02, 0.00, 0.00, 0.00, 0.00, 0.00
151, 0.00, -170928.72, -187500.02, -187500.02, -187500.02, -187500.02, 0.00, 0.00, 0.00, 0.00, 0.00
152, 0.00, -170004.88, -187500.02, -187500.02, -187500.02, -187500.02, 0.00, 0.00, 0.00, 0.00, 0.00
153, 0.00, -170090.00, -187500.02, -187500.02, -187500.02, -187500.02, 0.00, 0.00, 0.00, 0.00, 0.00
154, 0.00, -171079.38, -187500.02, -187500.02, -187500.02, -187500.02, 0.00, 0.00, 0.00, 0.00, 0.00
155, 0.00, -171206.17, -187500.02, -187500.02, -187500.02, -187500.02, 0.00, 0.00, 0.00, 0.00, 0.00
156, 0.00, -170276.50, -187500.02, -187500.02, -187500.02, -187500.02, 0.00, 0.00, 0.00, 0.00, 0.00
157, 0.00, -170079.92, -187500.02, -187500.02, -187500.02, -187500.02, 0.00, 0.00, 0.00, 0.00, 0.00
158, 0.00, -171055.39, -187500.02, -187500.02, -187500.02, -187500.02, 0.00, 0.00, 0.00, 0.00, 0.00
159, 0.00, -171454.77, -187500.02, -187500.02, -187500.02, -187500.02, 0.00, 0.00, 0.00, 0.00, 0.00
160, 0.00, -170640.16, -187500.02, -187500.02, -187500.02, -187500.02, 0.00, 0.00, 0.00, 0.00, 0.00
161, 0.00, -170242.59, -187500.02, -187500.02, -187500.02, -187500.02, 0.00, 0.00, 0.00, 0.00, 0.00
162, 0.00, -171100.05, -187500.02, -187500.02, -187500.02, -187500.02, 0.00, 0.00, 0.00, 0.00, 0.00
163, 0.00, -171730.77, -187500.02, -187500.02, -187500.02, -187500.02, 0.00, 0.00, 0.00, 0.00, 0.00
164, 0.00, -171022.73, -187500.02, -187500.02, -187500.02, -187500.02, 0.00, 0.00, 0.00, 0.00, 0.00
165, 0.00, -170369.02, -187500.02, -187500.02, -187500.02, -187500.02, 0.00, 0.00, 0.00, 0.00, 0.00
166, 0.00, -171047.81, -187500.02, -187500.02, -187500.02, -187500.02, 0.00, 0.00, 0.00, 0.00, 0.00
167, 0.00, -171850.28, -187500.02, -187500.02, -187500.02, -187500.02, 0.00, 0.00, 0.00, 0.00, 0.00
168, 0.00, -171307.52, -187500.02, -187500.02, -187500.02, -187500.02, 0.00, 0.00, 0.00, 0.00, 0.00
169, 0.00, -170512.47, -187500.02, -187500.02, -187500.02, -187500.02, 0.00, 0.00, 0.00, 0.00, 0.00
170, 0.00, -171010.23, -187500.02, -187500.02, -187500.02, -187500.02, 0.00, 0.00, 0.00, 0.00, 0.00
171, 0.00, -171941.22, -187500.02, -187500.02, -187500.02, -187500.02, 0.00, 0.00, 0.00, 0.00, 0.00
172, 0.00, -171609.36, -187500.02, -187500.02, -187500.02, -187500.02, 0.00, 0.00, 0.00, 0.00, 0.00
173, 0.00, -170682.94, -187500.02, -187500.02, -187500.02, -187500.02, 0.00, 0.00, 0.00, 0.00, 0.00
174, 0.00, -170957.06, -187500.02, -187500.02, -187500.02, -187500.02, 0.00, 0.00, 0.00, 0.00, 0.00
175, 0.00, -171999.23, -187500.02, -187500.02, -187500.02, -187500.02, 0.00, 0.00, 0.00, 0.00, 0.00
176, 0.00, -171932.47, -187500.02, -187500.02, -187500.02, -187500.02, 0.00, 0.00, 0.00, 0.00, 0.00
177, 0.00, -171008.98, -187500.02, -187500.02, -187500.02, -187500.02, 0.00, 0.00, 0.00, 0.00, 0.00
178, 0.00, -171016.97, -187500.02, -187500.02, -187500.02, -187500.02, 0.00, 0.00, 0.00, 0.00, 0.00
179, 0.00, -172059.14, -187500.02, -187500.02, -187500.02, -187500.02, 0.00, 0.00, 0.00, 0.00, 0.00
180, 0.00, -172285.31, -187500.02, -187500.02, -187500.02, -187500.02, 0.00, 0.00, 0.00, 0.00, 0.00
181, 0.00, -171362.70, -187500.02, -187500.02, -187500.02, -187500.02, 0.00, 0.00, 0.00, 0.00, 0.00
182, 0.00, -171082.41, -187500.02, -187500.02, -187500.02, -187500.02, 0.00, 0.00, 0.00, 0.00, 0.00
183, 0.00, -172033.34, -187500.02, -187500.02, -187500.02, -187500.02, 0.00, 0.00, 0.00, 0.00, 0.00
184, 0.00, -172516.56, -187500.02, -187500.02, -187500.02, -187500.02, 0.00, 0.00, 0.00, 0.00, 0.00
185, 0.00, -171685.23, -187500.02, -187500.02, -187500.02, -187500.02, 0.00, 0.00, 0.00, 0.00, 0.00
186, 0.00, -171185.66, -187500.02, -187500.02, -187500.02, -187500.02, 0.00, 0.00, 0.00, 0.00, 0.00
187, 0.00, -171993.19, -187500.02, -187500.02, -187500.02, -187500.02, 0.00, 0.00, 0.00, 0.00, 0.00
188, 0.00, -172649.72, -187500.02, -187500.02, -187500.02, -187500.02, 0.00, 0.00, 0.00, 0.00, 0.00
189, 0.00, -171971.86, -187500.02, -187500.02, -187500.02, -187500.02, 0.00, 0.00, 0.00, 0.00, 0.00
190, 0.00, -171272.31, -187500.02, -187500.02, -187500.02, -187500.02, 0.00, 0.00, 0.00, 0.00, 0.00
191, 0.00, -171919.33, -187500.02, -187500.02, -187500.02, -187500.02, 0.00, 0.00, 0.00, 0.00, 0.00
192, 0.00, -172776.61, -187500.02, -187500.02, -187500.02, -187500.02, 0.00, 0.00, 0.00, 0.00, 0.00
193, 0.00, -172323.16, -187500.02, -187500.02, -187500.02, -187500.02, 0.00, 0.00, 0.00, 0.00, 0.00
194, 0.00, -171521.72, -187500.02, -187500.02, -187500.02, -187500.02, 0.00, 0.00, 0.00, 0.00, 0.00
195, 0.00, -171950.91, -187500.02, -187500.02, -187500.02, -187500.02, 0.00, 0.00, 0.00, 0.00, 0.00
196, 0.00, -172919.89, -187500.02, -187500.02, -187500.02, -187500.02, 0.00, 0.00, 0.00, 0.00, 0.00
197, 0.00, -172708.09, -187500.02, -187500.02, -187500.02, -187500.02, 0.00, 0.00, 0.00, 0.00, 0.00
198, 0.00, -171816.98, -187500.02, -187500.02, -187500.02, -187500.02, 0.00, 0.00, 0.00, 0.00, 0.00
199, 0.00, -171992.23, -187500.02, -187500.02, -187500.02, -187500.02, 0.00, 0.00, 0.00, 0.00, 0.00
200, 0.00, -173011.81, -187500.02, -187500.02, -187500.02, -187500.02, 0.00, 0.00, 0.00, 0.00, 0.00
201, 0.00, -173040.58, -187500.02, -187500.02, -187500.02, -187500.02, 0.00, 0.00, 0.00, 0.00, 0.00
202, 0.00, -172102.53, -187500.02, -187500.02, -187500.02, -187500.02, 0.00, 0.00, 0.00, 0.00, 0.00
203, 0.00, -171995.75, -187500.02, -187500.02, -187500.02, -187500.02, 0.00, 0.00, 0.00, 0.00, 0.00
204, 0.00, -172956.42, -187500.02, -187500.02, -187500.02, -187500.02, 0.00, 0.00, 0.00, 0.00, 0.00
205, 0.00, -173245.03, -187500.02, -187500.02, -187500.02, -187500.02, 0.00, 0.00, 0.00, 0.00, 0.00
206, 0.00, -172340.27, -187500.02, -187500.02, -187500.02, -187500.02, 0.00, 0.00, 0.00, 0.00, 0.00
207, 0.00, -171978.27, -187500.02, -187500.02, -187500.02, -187500.02, 0.00, 0.00, 0.00, 0.00, 0.00
208, 0.00, -172913.41, -187500.02, -187500.02, -187500.02, -187500.02, 0.00, 0.00, 0.00, 0.00, 0.00
209, 0.00, -173476.22, -187500.02, -187500.02, -187500.02, -187500.02, 0.00, 0.00, 0.00, 0.00, 0.00
210, 0.00, -172702.73, -187500.02, -187500.02, -187500.02, -187500.02, 0.00, 0.00, 0.00, 0.00, 0.00
211, 0.00, -172164.22, -187500.02, -187500.02, -187500.02, -187500.02, 0.00, 0.00, 0.00, 0.00, 0.00
212, 0.00, -172926.72, -187500.02, -187500.02, -187500.02, -187500.02, 0.00, 0.00, 0.00, 0.00, 0.00
213, 0.00, -173690.30, -187500.02, -187500.02, -187500.02, -187500.02, 0.00, 0.00, 0.00, 0.00, 0.00
214, 0.00, -173086.98, -187500.02, -187500.02, -187500.02, -187500.02, 0.00, 0.00, 0.00, 0.00, 0.00
215, 0.00, -172339.41, -187500.02, -187500.02, -187500.02, -187500.02, 0.00, 0.00, 0.00, 0.00, 0.00
216, 0.00, -172901.27, -187500.02, -187500.02, -187500.02, -187500.02, 0.00, 0.00, 0.00, 0.00, 0.00
217, 0.00, -173785.45, -187500.02, -187500.02, -187500.02, -187500.02, 0.00, 0.00, 0.00, 0.00, 0.00
218, 0.00, -173363.09, -187500.02, -187500.02, -187500.02, -187500.02, 0.00, 0.00, 0.00, 0.00, 0.00
219, 0.00, -172482.11, -187500.02, -187500.02, -187500.02, -187500.02, 0.00, 0.00, 0.00, 0.00, 0.00
220, 0.00, -172841.50, -187500.02, -187500.02, -187500.02, -187500.02, 0.00, 0.00, 0.00, 0.00, 0.00
221, 0.00, -173832.11, -187500.02, -187500.02, -187500.02, -187500.02, 0.00, 0.00, 0.00, 0.00, 0.00
222, 0.00, -173625.75, -187500.02, -187500.02, -187500.02, -187500.02, 0.00, 0.00, 0.00, 0.00, 0.00
223, 0.00, -172686.39, -187500.02, -187500.02, -187500.02, -187500.02, 0.00, 0.00, 0.00, 0.00, 0.00
224, 0.00, -172766.66, -187500.02, -187500.02, -187500.02, -187500.02, 0.00, 0.00, 0.00, 0.00, 0.00
225, 0.00, -173803.38, -187500.02, -187500.02, -187500.02, -187500.02, 0.00, 0.00, 0.00, 0.00, 0.00
226, 0.00, -173939.45, -187500.02, -187500.02, -187500.02, -187500.02, 0.00, 0.00, 0.00, 0.00, 0.00
227, 0.00, -173043.31, -187500.02, -187500.02, -187500.02, -187500.02, 0.00, 0.00, 0.00, 0.00, 0.00
228, 0.00, -172903.23, -187500.02, -187500.02, -187500.02, -187500.02, 0.00, 0.00, 0.00, 0.00, 0.00
229, 0.00, -173888.11, -187500.02, -187500.02, -187500.02, -187500.02, 0.00, 0.00, 0.00, 0.00, 0.00
230, 0.00, -174257.81, -187500.02, -187500.02, -187500.02, -187500.02, 0.00, 0.00, 0.00, 0.00, 0.00
231, 0.00, -173402.91, -187500.02, -187500.02, -187500.02, -187500.02, 0.00, 0.00, 0.00, 0.00, 0.00
232, 0.00, -172991.56, -187500.02, -187500.02, -187500.02, -187500.02, 0.00, 0.00, 0.00, 0.00, 0.00
233, 0.00, -173870.25, -187500.02, -187500.02, -187500.02, -187500.02, 0.00, 0.00, 0.00, 0.00, 0.00
234, 0.00, -174481.72, -187500.02, -187500.02, -187500.02, -187500.02, 0.00, 0.00, 0.00, 0.00, 0.00
235, 0.00, -173740.81, -187500.02, -187500.02, -187500.02, -187500.02, 0.00, 0.00, 0.00, 0.00, 0.00
236, 0.00, -173120.45, -187500.02, -187500.02, -187500.02, -187500.02, 0.00, 0.00, 0.00, 0.00, 0.00
237, 0.00, -173816.50, -187500.02, -187500.02, -187500.02, -187500.02, 0.00, 0.00, 0.00, 0.00, 0.00
238, 0.00, -174585.73, -187500.02, -187500.02, -187500.02, -187500.02, 0.00, 0.00, 0.00, 0.00, 0.00
239, 0.00, -174042.88, -187500.02, -187500.02, -187500.02, -187500.02, 0.00, 0.00, 0.00, 0.00, 0.00
240, 0.00, -173258.36, -187500.02, -187500.02, -187500.02, -187500.02, 0.00, 0.00, 0.00, 0.00, 0.00
241, 0.00, -173762.28, -187500.02, -187500.02, -187500.02, -187500.02, 0.00, 0.00, 0.00, 0.00, 0.00
242, 0.00, -174697.70, -187500.02, -187500.02, -187500.02, -187500.02, 0.00, 0.00, 0.00, 0.00, 0.00
243, 0.00, -174363.31, -187500.02, -187500.02, -187500.02, -187500.02, 0.00, 0.00, 0.00, 0.00, 0.00
244, 0.00, -173473.58, -187500.02, -187500.02, -187500.02, -187500.02, 0.00, 0.00, 0.00, 0.00, 0.00
245, 0.00, -173784.30, -187500.02, -187500.02, -187500.02, -187500.02, 0.00, 0.00, 0.00, 0.00, 0.00
246, 0.00, -174805.50, -187500.02, -187500.02, -187500.02, -187500.02, 0.00, 0.00, 0.00, 0.00, 0.00
247, 0.00, -174721.92, -187500.02, -187500.02, -187500.02, -187500.02, 0.00, 0.00, 0.00, 0.00, 0.00
248, 0.00, -173787.25, -187500.02, -187500.02, -187500.02, -187500.02, 0.00, 0.00, 0.00, 0.00, 0.00
249, 0.00, -173822.97, -187500.02, -187500.02, -187500.02, -187500.02, 0.00, 0.00, 0.00, 0.00, 0.00
250, 0.00, -174842.56, -187500.02, -187500.02, -187500.02, -187500.02, 0.00, 0.00, 0.00, 0.00, 0.00
251, 0.00, -175001.48, -187500.02, -187500.02, -187500.02, -187500.02, 0.00, 0.00, 0.00, 0.00, 0.00
252, 0.00, -174074.33, -187500.02, -187500.02, -187500.02, -187500.02, 0.00, 0.00, 0.00, 0.00, 0.00
253, 0.00, -173838.78, -187500.02, -187500.02, -187500.02, -187500.02, 0.00, 0.00, 0.00, 0.00, 0.00
254, 0.00, -174786.81, -187500.02, -187500.02, -187500.02, -187500.02, 0.00, 0.00, 0.00, 0.00, 0.00
255, 0.00, -175229.58, -187500.02, -187500.02, -187500.02, -187500.02, 0.00, 0.00, 0.00, 0.00, 0.00
0, 0.00, -174375.52, -187500.02, -187500.02, -187500.02, -187500.02, 0.00, 0.00, 0.00, 0.00, 0.00
1, 0.00, -173900.20, -187500.02, -187500.02, -187500.02, -187500.02, 0.00, 0.00, 0.00, 0.00, 0.00
2, 0.00, -174725.39, -187500.02, -187500.02, -187500.02, -187500.02, 0.00, 0.00, 0.00, 0.00, 0.00
3, 0.00, -175377.88, -187500.02, -187500.02, -187500.02, -187500.02, 0.00, 0.00, 0.00, 0.00, 0.00
4, 0.00, -174701.63, -187500.02, -187500.02, -187500.02, -187500.02, 0.00, 0.00, 0.00, 0.00, 0.00
5, 0.00, -174045.73, -187500.02, -187500.02, -187500.02, -187500.02, 0.00, 0.00, 0.00, 0.00, 0.00
6, 0.00, -174731.72, -187500.02, -187500.02, -187500.02, -187500.02, 0.00, 0.00, 0.00, 0.00, 0.00
7, 0.00, -175593.95, -187500.02, -187500.02, -187500.02, -187500.02, 0.00, 0.00, 0.00, 0.00, 0.00
8, 0.00, -175102.80, -187500.02, -187500.02, -187500.02, -187500.02, 0.00, 0.00, 0.00, 0.00, 0.00
9, 0.00, -174291.45, -187500.02, -187500.02, -187500.02, -187500.02, 0.00, 0.00, 0.00, 0.00, 0.00
10, 0.00, -174708.38, -187500.02, -187500.02, -187500.02, -187500.02, 0.00, 0.00, 0.00, 0.00, 0.00
11, 0.00, -175642.08, -187500.02, -187500.02, -187500.02, -187500.02, 0.00, 0.00, 0.00, 0.00, 0.00
12, 0.00, -175385.84, -187500.02, -187500.02, -187500.02, -187500.02, 0.00, 0.00, 0.00, 0.00, 0.00
13, 0.00, -174476.55, -187500.02, -187500.02, -187500.02, -187500.02, 0.00, 0.00, 0.00, 0.00, 0.00
14, 0.00, -174692.48, -187500.02, -187500.02, -187500.02, -187500.02, 0.00, 0.00, 0.00, 0.00, 0.00
15, 0.00, -175696.59, -187500.02, -187500.02, -187500.02, -187500.02, 0.00, 0.00, 0.00, 0.00, 0.00
16, 0.00, -175675.05, -187500.02, -187500.02, -187500.02, -187500.02, 0.00, 0.00, 0.00, 0.00, 0.00
17, 0.00, -174744.17, -187500.02, -187500.02, -187500.02, -187500.02, 0.00, 0.00, 0.00, 0.00, 0.00
18, 0.00, -174702.38, -187500.02, -187500.02, -187500.02, -187500.02, 0.00, 0.00, 0.00, 0.00, 0.00
19, 0.00, -175707.17, -187500.02, -187500.02, -187500.02, -187500.02, 0.00, 0.00, 0.00, 0.00, 0.00
20, 0.00, -175966.30, -187500.02, -187500.02, -187500.02, -187500.02, 0.00, 0.00, 0.00, 0.00, 0.00
21, 0.00, -175066.48, -187500.02, -187500.02, -187500.02, -187500.02, 0.00, 0.00, 0.00, 0.00, 0.00
22, 0.00, -174758.42, -187500.02, -187500.02, -187500.02, -187500.02, 0.00, 0.00, 0.00, 0.00, 0.00
23, 0.00, -175696.48, -187500.02, -187500.02, -187500.02, -187500.02, 0.00, 0.00, 0.00, 0.00, 0.00
24, 0.00, -176234.88, -187500.02, -187500.02, -187500.02, -187500.02, 0.00, 0.00, 0.00, 0.00, 0.00
25, 0.00, -175411.44, -187500.02, -187500.02, -187500.02, -187500.02, 0.00, 0.00, 0.00, 0.00, 0.00
26, 0.00, -174858.16, -187500.02, -187500.02, -187500.02, -187500.02, 0.00, 0.00, 0.00, 0.00, 0.00
27, 0.00, -175649.03, -187500.02, -187500.02, -187500.02, -187500.02, 0.00, 0.00, 0.00, 0.00, 0.00
28, 0.00, -176393.56, -187500.02, -187500.02, -187500.02, -187500.02, 0.00, 0.00, 0.00, 0.00, 0.00
29, 0.00, -175729.05, -187500.02, -187500.02, -187500.02, -187500.02, 0.00, 0.00, 0.00, 0.00, 0.00
30, 0.00, -174965.41, -187500.02, -187500.02, -187500.02, -187500.02, 0.00, 0.00, 0.00, 0.00, 0.00
31, 0.00, -175586.77, -187500.02, -187500.02, -187500.02, -187500.02, 0.00, 0.00, 0.00, 0.00, 0.00
32, 0.00, -176472.50, -187500.02, -187500.02, -187500.02, -187500.02, 0.00, 0.00, 0.00, 0.00, 0.00
33, 0.00, -176032.91, -187500.02, -187500.02, -187500.02, -187500.02, 0.00, 0.00, 0.00, 0.00, 0.00
34, 0.00, -175122.25, -187500.02, -187500.02, -187500.02, -187500.02, 0.00, 0.00, 0.00, 0.00, 0.00
35, 0.00, -175517.41, -187500.02, -187500.02, -187500.02, -187500.02, 0.00, 0.00, 0.00, 0.00, 0.00
36, 0.00, -176540.47, -187500.02, -187500.02, -187500.02, -187500.02, 0.00, 0.00, 0.00, 0.00, 0.00
37, 0.00, -176361.36, -187500.02, -187500.02, -187500.02, -187500.02, 0.00, 0.00, 0.00, 0.00, 0.00
38, 0.00, -175425.17, -187500.02, -187500.02, -187500.02, -187500.02, 0.00, 0.00, 0.00, 0.00, 0.00
39, 0.00, -175556.92, -187500.02, -187500.02, -187500.02, -187500.02, 0.00, 0.00, 0.00, 0.00, 0.00
40, 0.00, -176566.45, -187500.02, -187500.02, -187500.02, -187500.02, 0.00, 0.00, 0.00, 0.00, 0.00
41, 0.00, -176675.36, -187500.02, -187500.02, -187500.02, -187500.02, 0.00, 0.00, 0.00, 0.00, 0.00
42, 0.00, -175759.30, -187500.02, -187500.02, -187500.02, -187500.02, 0.00, 0.00, 0.00, 0.00, 0.00
43, 0.00, -175623.28, -187500.02, -187500.02, -187500.02, -187500.02, 0.00, 0.00, 0.00, 0.00, 0.00
44, 0.00, -176630.88, -187500.02, -187500.02, -187500.02, -187500.02, 0.00, 0.00, 0.00, 0.00, 0.00
45, 0.00, -176956.98, -187500.02, -187500.02, -187500.02, -187500.02, 0.00, 0.00, 0.00, 0.00, 0.00
46, 0.00, -176088.31, -187500.02, -187500.02, -187500.02, -187500.02, 0.00, 0.00, 0.00, 0.00, 0.00
47, 0.00, -175688.23, -187500.02, -187500.02, -187500.02, -187500.02, 0.00, 0.00, 0.00, 0.00, 0.00
48, 0.00, -176519.00, -187500.02, -187500.02, -187500.02, -187500.02, 0.00, 0.00, 0.00, 0.00, 0.00
49, 0.00, -177048.72, -187500.02, -187500.02, -187500.02, -187500.02, 0.00, 0.00, 0.00, 0.00, 0.00
50, 0.00, -176316.80, -187500.02, -187500.02, -187500.02, -187500.02, 0.00, 0.00, 0.00, 0.00, 0.00
51, 0.00, -175707.53, -187500.02, -187500.02, -187500.02, -187500.02, 0.00, 0.00, 0.00, 0.00, 0.00
52, 0.00, -176470.91, -187500.02, -187500.02, -187500.02, -187500.02, 0.00, 0.00, 0.00, 0.00, 0.00
53, 0.00, -177286.83, -187500.02, -187500.02, -187500.02, -187500.02, 0.00, 0.00, 0.00, 0.00, 0.00
54, 0.00, -176644.31, -187500.02, -187500.02, -187500.02, -187500.02, 0.00, 0.00, 0.00, 0.00, 0.00
55, 0.00, -175869.53, -187500.02, -187500.02, -187500.02, -187500.02, 0.00, 0.00, 0.00, 0.00, 0.00
56, 0.00, -176480.41, -187500.02, -187500.02, -187500.02, -187500.02, 0.00, 0.00, 0.00, 0.00, 0.00
57, 0.00, -177443.92, -187500.02, -187500.02, -187500.02, -187500.02, 0.00, 0.00, 0.00, 0.00, 0.00
58, 0.00, -177034.69, -187500.02, -187500.02, -187500.02, -187500.02, 0.00, 0.00, 0.00, 0.00, 0.00
59, 0.00, -176102.77, -187500.02, -187500.02, -187500.02, -187500.02, 0.00, 0.00, 0.00, 0.00, 0.00
60, 0.00, -176419.00, -187500.02, -187500.02, -187500.02, -187500.02, 0.00, 0.00, 0.00, 0.00, 0.00
61, 0.00, -177449.78, -187500.02, -187500.02, -187500.02, -187500.02, 0.00, 0.00, 0.00, 0.00, 0.00
62, 0.00, -177297.67, -187500.02, -187500.02, -187500.02, -187500.02, 0.00, 0.00, 0.00, 0.00, 0.00
63, 0.00, -176327.92, -187500.02, -187500.02, -187500.02, -187500.02, 0.00, 0.00, 0.00, 0.00, 0.00
64, 0.00, -176369.77, -187500.02, -187500.02, -187500.02, -187500.02, 0.00, 0.00, 0.00, 0.00, 0.00
65, 0.00, -177376.31, -187500.02, -187500.02, -187500.02, -187500.02, 0.00, 0.00, 0.00, 0.00, 0.00
66, 0.00, -177533.03, -187500.02, -187500.02, -187500.02, -187500.02, 0.00, 0.00, 0.00, 0.00, 0.00
67, 0.00, -176591.27, -187500.02, -187500.02, -187500.02, -187500.02, 0.00, 0.00, 0.00, 0.00, 0.00
68, 0.00, -176367.86, -187500.02, -187500.02, -187500.02, -187500.02, 0.00, 0.00, 0.00, 0.00, 0.00
69, 0.00, -177325.66, -187500.02, -187500.02, -187500.02, -187500.02, 0.00, 0.00, 0.00, 0.00, 0.00
70, 0.00, -177746.70, -187500.02, -187500.02, -187500.02, -187500.02, 0.00, 0.00, 0.00, 0.00, 0.00
71, 0.00, -176963.09, -187500.02, -187500.02, -187500.02, -187500.02, 0.00, 0.00, 0.00, 0.00, 0.00
72, 0.00, -176521.11, -187500.02, -187500.02, -187500.02, -187500.02, 0.00, 0.00, 0.00, 0.00, 0.00
73, 0.00, -177338.36, -187500.02, -187500.02, -187500.02, -187500.02, 0.00, 0.00, 0.00, 0.00, 0.00
74, 0.00, -177983.94, -187500.02, -187500.02, -187500.02, -187500.02, 0.00, 0.00, 0.00, 0.00, 0.00
75, 0.00, -177299.53, -187500.02, -187500.02, -187500.02, -187500.02, 0.00, 0.00, 0.00, 0.00, 0.00
76, 0.00, -176643.59, -187500.02, -187500.02, -187500.02, -187500.02, 0.00, 0.00, 0.00, 0.00, 0.00
77, 0.00, -177294.41, -187500.02, -187500.02, -187500.02, -187500.02, 0.00, 0.00, 0.00, 0.00, 0.00
78, 0.00, -178144.48, -187500.02, -187500.02, -187500.02, -187500.02, 0.00, 0.00, 0.00, 0.00, 0.00
79, 0.00, -177634.38, -187500.02, -187500.02, -187500.02, -187500.02, 0.00, 0.00, 0.00, 0.00, 0.00
80, 0.00, -176830.98, -187500.02, -187500.02, -187500.02, -187500.02, 0.00, 0.00, 0.00, 0.00, 0.00
81, 0.00, -177266.84, -187500.02, -187500.02, -187500.02, -187500.02, 0.00, 0.00, 0.00, 0.00, 0.00
82, 0.00, -178181.91, -187500.02, -187500.02, -187500.02, -187500.02, 0.00, 0.00, 0.00, 0.00, 0.00
83, 0.00, -177905.86, -187500.02, -187500.02, -187500.02, -187500.02, 0.00, 0.00, 0.00, 0.00, 0.00
84, 0.00, -177010.19, -187500.02, -187500.02, -187500.02, -187500.02, 0.00, 0.00, 0.00, 0.00, 0.00
85, 0.00, -177213.52, -187500.02, -187500.02, -187500.02, -187500.02, 0.00, 0.00, 0.00, 0.00, 0.00
86, 0.00, -178234.66, -187500.02, -187500.02, -187500.02, -187500.02, 0.00, 0.00, 0.00, 0.00, 0.00
87, 0.00, -178237.55, -187500.02, -187500.02, -187500.02, -187500.02, 0.00, 0.00, 0.00, 0.00, 0.00
88, 0.00, -177316.61, -187500.02, -187500.02, -187500.02, -187500.02, 0.00, 0.00, 0.00, 0.00, 0.00
89, 0.00, -177264.69, -187500.02, -187500.02, -187500.02, -187500.02, 0.00, 0.00, 0.00, 0.00, 0.00
90, 0.00, -178250.59, -187500.02, -187500.02, -187500.02, -187500.02, 0.00, 0.00, 0.00, 0.00, 0.00
91, 0.00, -178490.05, -187500.02, -187500.02, -187500.02, -187500.02, 0.00, 0.00, 0.00, 0.00, 0.00
92, 0.00, -177590.39, -187500.02, -187500.02, -187500.02, -187500.02, 0.00, 0.00, 0.00, 0.00, 0.00
93, 0.00, -177307.80, -187500.02, -187500.02, -187500.02, -187500.02, 0.00, 0.00, 0.00, 0.00, 0.00
94, 0.00, -178183.05, -187500.02, -187500.02, -187500.02, -187500.02, 0.00, 0.00, 0.00, 0.00, 0.00
95, 0.00, -178655.97, -187500.02, -187500.02, -187500.02, -187500.02, 0.00, 0.00, 0.00, 0.00, 0.00
96, 0.00, -177874.44, -187500.02, -187500.02, -187500.02, -187500.02, 0.00, 0.00, 0.00, 0.00, 0.00
97, 0.00, -177355.39, -187500.02, -187500.02, -187500.02, -187500.02, 0.00, 0.00, 0.00, 0.00, 0.00
98, 0.00, -178110.92, -187500.02, -187500.02, -187500.02, -187500.02, 0.00, 0.00, 0.00, 0.00, 0.00
99, 0.00, -178786.66, -187500.02, -187500.02, -187500.02, -187500.02, 0.00, 0.00, 0.00, 0.00, 0.00
100, 0.00, -178176.17, -187500.02, -187500.02, -187500.02, -187500.02, 0.00, 0.00, 0.00, 0.00, 0.00
101, 0.00, -177483.84, -187500.02, -187500.02, -187500.02, -187500.02, 0.00, 0.00, 0.00, 0.00, 0.00
102, 0.00, -178055.67, -187500.02, -187500.02, -187500.02, -187500.02, 0.00, 0.00, 0.00, 0.00, 0.00
103, 0.00, -178909.61, -187500.02, -187500.02, -187500.02, -187500.02, 0.00, 0.00, 0.00, 0.00, 0.00
104, 0.00, -178529.05, -187500.02, -187500.02, -187500.02, -187500.02, 0.00, 0.00, 0.00, 0.00, 0.00
105, 0.00, -177721.38, -187500.02, -187500.02, -187500.02, -187500.02, 0.00, 0.00, 0.00, 0.00, 0.00
106, 0.00, -178093.64, -187500.02, -187500.02, -187500.02, -187500.02, 0.00, 0.00, 0.00, 0.00, 0.00
107, 0.00, -179039.81, -187500.02, -187500.02, -187500.02, -187500.02, 0.00, 0.00, 0.00, 0.00, 0.00
108, 0.00, -178843.94, -187500.02, -187500.02, -187500.02, -187500.02, 0.00, 0.00, 0.00, 0.00, 0.00
109, 0.00, -177939.55, -187500.02, -187500.02, -187500.02, -187500.02, 0.00, 0.00, 0.00, 0.00, 0.00
110, 0.00, -178082.59, -187500.02, -187500.02, -187500.02, -187500.02, 0.00, 0.00, 0.00, 0.00, 0.00
111, 0.00, -179038.11, -187500.02, -187500.02, -187500.02, -187500.02, 0.00, 0.00, 0.00, 0.00, 0.00
112, 0.00, -179066.55, -187500.02, -187500.02, -187500.02, -187500.02, 0.00, 0.00, 0.00, 0.00, 0.00
113, 0.00, -178179.00, -187500.02, -187500.02, -187500.02, -187500.02, 0.00, 0.00, 0.00, 0.00, 0.00
114, 0.00, -178056.94, -187500.02, -187500.02, -187500.02, -187500.02, 0.00, 0.00, 0.00, 0.00, 0.00
115, 0.00, -178997.77, -187500.02, -187500.02, -187500.02, -187500.02, 0.00, 0.00, 0.00, 0.00, 0.00
116, 0.00, -179286.55, -187500.02, -187500.02, -187500.02, -187500.02, 0.00, 0.00, 0.00, 0.00, 0.00
117, 0.00, -178447.97, -187500.02, -187500.02, -187500.02, -187500.02, 0.00, 0.00, 0.00, 0.00, 0.00
118, 0.00, -178101.53, -187500.02, -187500.02, -187500.02, -187500.02, 0.00, 0.00, 0.00, 0.00, 0.00
119, 0.00, -178965.92, -187500.02, -187500.02, -187500.02, -187500.02, 0.00, 0.00, 0.00, 0.00, 0.00
120, 0.00, -179514.16, -187500.02, -187500.02, -187500.02, -187500.02, 0.00, 0.00, 0.00, 0.00, 0.00
121, 0.00, -178775.38, -187500.02, -187500.02, -187500.02, -187500.02, 0.00, 0.00, 0.00, 0.00, 0.00
122, 0.00, -178223.50, -187500.02, -187500.02, -187500.02, -187500.02, 0.00, 0.00, 0.00, 0.00, 0.00
123, 0.00, -178944.50, -187500.02, -187500.02, -187500.02, -187500.02, 0.00, 0.00, 0.00, 0.00, 0.00
124, 0.00, -179684.27, -187500.02, -187500.02, -187500.02, -187500.02, 0.00, 0.00, 0.00, 0.00, 0.00
125, 0.00, -179115.91, -187500.02, -187500.02, -187500.02, -187500.02, 0.00, 0.00, 0.00, 0.00, 0.00
126, 0.00, -178376.50, -187500.02, -187500.02, -187500.02, -187500.02, 0.00, 0.00, 0.00, 0.00, 0.00
127, 0.00, -178899.69, -187500.02, -187500.02, -187500.02, -187500.02, 0.00, 0.00, 0.00, 0.00, 0.00
128, 0.00, -179755.83, -187500.02, -187500.02, -187500.02, -187500.02, 0.00, 0.00, 0.00, 0.00, 0.00
129, 0.00, -179383.69, -187500.02, -187500.02, -187500.02, -187500.02, 0.00, 0.00, 0.00, 0.00, 0.00
130, 0.00, -178532.92, -187500.02, -187500.02, -187500.02, -187500.02, 0.00, 0.00, 0.00, 0.00, 0.00
131, 0.00, -178839.67, -187500.02, -187500.02, -187500.02, -187500.02, 0.00, 0.00, 0.00, 0.00, 0.00
132, 0.00, -179777.67, -187500.02, -187500.02, -187500.02, -187500.02, 0.00, 0.00, 0.00, 0.00, 0.00
133, 0.00, -179656.34, -187500.02, -187500.02, -187500.02, -187500.02, 0.00, 0.00, 0.00, 0.00, 0.00
134, 0.00, -178742.31, -187500.02, -187500.02, -187500.02, -187500.02, 0.00, 0.00, 0.00, 0.00, 0.00
135, 0.00, -178797.31, -187500.02, -187500.02, -187500.02, -187500.02, 0.00, 0.00, 0.00, 0.00, 0.00
136, 0.00, -179789.16, -187500.02, -187500.02, -187500.02, -187500.02, 0.00, 0.00, 0.00, 0.00, 0.00
137, 0.00, -179941.08, -187500.02, -187500.02, -187500.02, -187500.02, 0.00, 0.00, 0.00, 0.00, 0.00
138, 0.00, -179044.22, -187500.02, -187500.02, -187500.02, -187500.02, 0.00, 0.00, 0.00, 0.00, 0.00
139, 0.00, -178855.45, -187500.02, -187500.02, -187500.02, -187500.02, 0.00, 0.00, 0.00, 0.00, 0.00
140, 0.00, -179810.50, -187500.02, -187500.02, -187500.02, -187500.02, 0.00, 0.00, 0.00, 0.00, 0.00
141, 0.00, -180211.73, -187500.02, -187500.02, -187500.02, -187500.02, 0.00, 0.00, 0.00, 0.00, 0.00
142, 0.00, -179368.52, -187500.02, -187500.02, -187500.02, -187500.02, 0.00, 0.00, 0.00, 0.00, 0.00
143, 0.00, -178931.23, -187500.02, -187500.02, -187500.02, -187500.02, 0.00, 0.00, 0.00, 0.00, 0.00
144, 0.00, -179744.77, -187500.02, -187500.02, -187500.02, -187500.02, 0.00, 0.00, 0.00, 0.00, 0.00
145, 0.00, -180353.06, -187500.02, -187500.02, -187500.02, -187500.02, 0.00, 0.00, 0.00, 0.00, 0.00
146, 0.00, -179665.94, -187500.02, -187500.02, -187500.02, -187500.02, 0.00, 0.00, 0.00, 0.00, 0.00
147, 0.00, -179015.61, -187500.02, -187500.02, -187500.02, -187500.02, 0.00, 0.00, 0.00, 0.00, 0.00
148, 0.00, -179673.47, -187500.02, -187500.02, -187500.02, -187500.02, 0.00, 0.00, 0.00, 0.00, 0.00
149, 0.00, -180466.69, -187500.02, -187500.02, -187500.02, -187500.02, 0.00, 0.00, 0.00, 0.00, 0.00
150, 0.00, -179946.77, -187500.02, -187500.02, -187500.02, -187500.02, 0.00, 0.00, 0.00, 0.00, 0.00
151, 0.00, -179128.58, -187500.02, -187500.02, -187500.02, -187500.02, 0.00, 0.00, 0.00, 0.00, 0.00
152, 0.00, -179595.17, -187500.02, -187500.02, -187500.02, -187500.02, 0.00, 0.00, 0.00, 0.00, 0.00
153, 0.00, -180521.09, -187500.02, -187500.02, -187500.02, -187500.02, 0.00, 0.00, 0.00, 0.00, 0.00
154, 0.00, -180245.20, -187500.02, -187500.02, -187500.02, -187500.02, 0.00, 0.00, 0.00, 0.00, 0.00
155, 0.00, -179378.39, -187500.02, -187500.02, -187500.02, -187500.02, 0.00, 0.00, 0.00, 0.00, 0.00
156, 0.00, -179605.64, -187500.02, -187500.02, -187500.02, -187500.02, 0.00, 0.00, 0.00, 0.00, 0.00
157, 0.00, -180574.97, -187500.02, -187500.02, -187500.02, -187500.02, 0.00, 0.00, 0.00, 0.00, 0.00
158, 0.00, -180537.88, -187500.02, -187500.02, -187500.02, -187500.02, 0.00, 0.00, 0.00, 0.00, 0.00
159, 0.00, -179634.58, -187500.02, -187500.02, -187500.02, -187500.02, 0.00, 0.00, 0.00, 0.00, 0.00
160, 0.00, -179627.73, -187500.02, -187500.02, -187500.02, -187500.02, 0.00, 0.00, 0.00, 0.00, 0.00
161, 0.00, -180575.61, -187500.02, -187500.02, -187500.02, -187500.02, 0.00, 0.00, 0.00, 0.00, 0.00
162, 0.00, -180782.05, -187500.02, -187500.02, -187500.02, -187500.02, 0.00, 0.00, 0.00, 0.00, 0.00
163, 0.00, -179911.28, -187500.02, -187500.02, -187500.02, -187500.02, 0.00, 0.00, 0.00, 0.00, 0.00
164, 0.00, -179638.48, -187500.02, -187500.02, -187500.02, -187500.02, 0.00, 0.00, 0.00, 0.00, 0.00
165, 0.00, -180519.59, -187500.02, -187500.02, -187500.02, -187500.02, 0.00, 0.00, 0.00, 0.00, 0.00
166, 0.00, -180957.50, -187500.02, -187500.02, -187500.02, -187500.02, 0.00, 0.00, 0.00, 0.00, 0.00
167, 0.00, -180162.50, -187500.02, -187500.02, -187500.02, -187500.02, 0.00, 0.00, 0.00, 0.00, 0.00
168, 0.00, -179676.89, -187500.02, -187500.02, -187500.02, -187500.02, 0.00, 0.00, 0.00, 0.00, 0.00
169, 0.00, -180474.34, -187500.02, -187500.02, -187500.02, -187500.02, 0.00, 0.00, 0.00, 0.00, 0.00
170, 0.00, -181148.75, -187500.02, -187500.02, -187500.02, -187500.02, 0.00, 0.00, 0.00, 0.00, 0.00
171, 0.00, -180514.20, -187500.02, -187500.02, -187500.02, -187500.02, 0.00, 0.00, 0.00, 0.00, 0.00
172, 0.00, -179858.80, -187500.02, -187500.02, -187500.02, -187500.02, 0.00, 0.00, 0.00, 0.00, 0.00
173, 0.00, -180466.72, -187500.02, -187500.02, -187500.02, -187500.02, 0.00, 0.00, 0.00, 0.00, 0.00
174, 0.00, -181324.25, -187500.02, -187500.02, -187500.02, -187500.02, 0.00, 0.00, 0.00, 0.00, 0.00
175, 0.00, -180884.66, -187500.02, -187500.02, -187500.02, -187500.02, 0.00, 0.00, 0.00, 0.00, 0.00
176, 0.00, -180066.25, -187500.02, -187500.02, -187500.02, -187500.02, 0.00, 0.00, 0.00, 0.00, 0.00
177, 0.00, -180457.61, -187500.02, -187500.02, -187500.02, -187500.02, 0.00, 0.00, 0.00, 0.00, 0.00
178, 0.00, -181383.14, -187500.02, -187500.02, -187500.02, -187500.02, 0.00, 0.00, 0.00, 0.00, 0.00
179, 0.00, -181139.52, -187500.02, -187500.02, -187500.02, -187500.02, 0.00, 0.00, 0.00, 0.00, 0.00
180, 0.00, -180253.16, -187500.02, -187500.02, -187500.02, -187500.02, 0.00, 0.00, 0.00, 0.00, 0.00
181, 0.00, -180408.61, -187500.02, -187500.02, -187500.02, -187500.02, 0.00, 0.00, 0.00, 0.00, 0.00
182, 0.00, -181347.94, -187500.02, -187500.02, -187500.02, -187500.02, 0.00, 0.00, 0.00, 0.00, 0.00
183, 0.00, -181359.08, -187500.02, -187500.02, -187500.02, -187500.02, 0.00, 0.00, 0.00, 0.00, 0.00
184, 0.00, -180482.89, -187500.02, -187500.02, -187500.02, -187500.02, 0.00, 0.00, 0.00, 0.00, 0.00
185, 0.00, -180400.00, -187500.02, -187500.02, -187500.02, -187500.02, 0.00, 0.00, 0.00, 0.00, 0.00
186, 0.00, -181353.42, -187500.02, -187500.02, -187500.02, -187500.02, 0.00, 0.00, 0.00, 0.00, 0.00
187, 0.00, -181628.50, -187500.02, -187500.02, -187500.02, -187500.02, 0.00, 0.00, 0.00, 0.00, 0.00
188, 0.00, -180793.95, -187500.02, -187500.02, -187500.02, -187500.02, 0.00, 0.00, 0.00, 0.00, 0.00
189, 0.00, -180467.36, -187500.02, -187500.02, -187500.02, -187500.02, 0.00, 0.00, 0.00, 0.00, 0.00
190, 0.00, -181350.88, -187500.02, -187500.02, -187500.02, -187500.02, 0.00, 0.00, 0.00, 0.00, 0.00
191, 0.00, -181875.52, -187500.02, -187500.02, -187500.02, -187500.02, 0.00, 0.00, 0.00, 0.00, 0.00
192, 0.00, -181089.84, -187500.02, -187500.02, -187500.02, -187500.02, 0.00, 0.00, 0.00, 0.00, 0.00
193, 0.00, -180506.63, -187500.02, -187500.02, -187500.02, -187500.02, 0.00, 0.00, 0.00, 0.00, 0.00
194, 0.00, -181369.11, -187500.02, -187500.02, -187500.02, -187500.02, 0.00, 0.00, 0.00, 0.00, 0.00
195, 0.00, -182108.84, -187500.02, -187500.02, -187500.02, -187500.02, 0.00, 0.00, 0.00, 0.00, 0.00
196, 0.00, -181371.17, -187500.02, -187500.02, -187500.02, -187500.02, 0.00, 0.00, 0.00, 0.00, 0.00
197, 0.00, -180586.20, -187500.02, -187500.02, -187500.02, -187500.02, 0.00, 0.00, 0.00, 0.00, 0.00
198, 0.00, -181265.47, -187500.02, -187500.02, -187500.02, -187500.02, 0.00, 0.00, 0.00, 0.00, 0.00
199, 0.00, -182192.44, -187500.02, -187500.02, -187500.02, -187500.02, 0.00, 0.00, 0.00, 0.00, 0.00
200, 0.00, -181657.45, -187500.02, -187500.02, -187500.02, -187500.02, 0.00, 0.00, 0.00, 0.00, 0.00
201, 0.00, -180732.44, -187500.02, -187500.02, -187500.02, -187500.02, 0.00, 0.00, 0.00, 0.00, 0.00
202, 0.00, -181200.27, -187500.02, -187500.02, -187500.02, -187500.02, 0.00, 0.00, 0.00, 0.00, 0.00
203, 0.00, -182272.25, -187500.02, -187500.02, -187500.02, -187500.02, 0.00, 0.00, 0.00, 0.00, 0.00
204, 0.00, -182036.83, -187500.02, -187500.02, -187500.02, -187500.02, 0.00, 0.00, 0.00, 0.00, 0.00
205, 0.00, -181019.58, -187500.02, -187500.02, -187500.02, -187500.02, 0.00, 0.00, 0.00, 0.00, 0.00
206, 0.00, -181204.38, -187500.02, -187500.02, -187500.02, -187500.02, 0.00, 0.00, 0.00, 0.00, 0.00
207, 0.00, -182307.19, -187500.02, -187500.02, -187500.02, -187500.02, 0.00, 0.00, 0.00, 0.00, 0.00
208, 0.00, -182330.48, -187500.02, -187500.02, -187500.02, -187500.02, 0.00, 0.00, 0.00, 0.00, 0.00
209, 0.00, -181305.47, -187500.02, -187500.02, -187500.02, -187500.02, 0.00, 0.00, 0.00, 0.00, 0.00
210, 0.00, -181198.14, -187500.02, -187500.02, -187500.02, -187500.02, 0.00, 0.00, 0.00, 0.00, 0.00
211, 0.00, -182247.83, -187500.02, -187500.02, -187500.02, -187500.02, 0.00, 0.00, 0.00, 0.00, 0.00
212, 0.00, -182553.03, -187500.02, -187500.02, -187500.02, -187500.02, 0.00, 0.00, 0.00, 0.00, 0.00
213, 0.00, -181551.95, -187500.02, -187500.02, -187500.02, -187500.02, 0.00, 0.00, 0.00, 0.00, 0.00
214, 0.00, -181189.81, -187500.02, -187500.02, -187500.02, -187500.02, 0.00, 0.00, 0.00, 0.00, 0.00
215, 0.00, -182183.56, -187500.02, -187500.02, -187500.02, -187500.02, 0.00, 0.00, 0.00, 0.00, 0.00
216, 0.00, -182758.19, -187500.02, -187500.02, -187500.02, -187500.02, 0.00, 0.00, 0.00, 0.00, 0.00
217, 0.00, -181885.44, -187500.02, -187500.02, -187500.02, -187500.02, 0.00, 0.00, 0.00, 0.00, 0.00
218, 0.00, -181244.88, -187500.02, -187500.02, -187500.02, -187500.02, 0.00, 0.00, 0.00, 0.00, 0.00
219, 0.00, -182089.53, -187500.02, -187500.02, -187500.02, -187500.02, 0.00, 0.00, 0.00, 0.00, 0.00
220, 0.00, -182905.70, -187500.02, -187500.02, -187500.02, -187500.02, 0.00, 0.00, 0.00, 0.00, 0.00
221, 0.00, -182242.84, -187500.02, -187500.02, -187500.02, -187500.02, 0.00, 0.00, 0.00, 0.00, 0.00
222, 0.00, -181432.05, -187500.02, -187500.02, -187500.02, -187500.02, 0.00, 0.00, 0.00, 0.00, 0.00
223, 0.00, -182056.11, -187500.02, -187500.02, -187500.02, -187500.02, 0.00, 0.00, 0.00, 0.00, 0.00
224, 0.00, -183037.02, -187500.02, -187500.02, -187500.02, -187500.02, 0.00, 0.00, 0.00, 0.00, 0.00
225, 0.00, -182599.16, -187500.02, -187500.02, -187500.02, -187500.02, 0.00, 0.00, 0.00, 0.00, 0.00
226, 0.00, -181622.58, -187500.02, -187500.02, -187500.02, -187500.02, 0.00, 0.00, 0.00, 0.00, 0.00
227, 0.00, -181980.50, -187500.02, -187500.02, -187500.02, -187500.02, 0.00, 0.00, 0.00, 0.00, 0.00
228, 0.00, -183065.27, -187500.02, -187500.02, -187500.02, -187500.02, 0.00, 0.00, 0.00, 0.00, 0.00
229, 0.00, -182905.66, -187500.02, -187500.02, -187500.02, -187500.02, 0.00, 0.00, 0.00, 0.00, 0.00
230, 0.00, -181882.94, -187500.02, -187500.02, -187500.02, -187500.02, 0.00, 0.00, 0.00, 0.00, 0.00
231, 0.00, -181957.23, -187500.02, -187500.02, -187500.02, -187500.02, 0.00, 0.00, 0.00, 0.00, 0.00
232, 0.00, -183039.48, -187500.02, -187500.02, -187500.02, -187500.02, 0.00, 0.00, 0.00, 0.00, 0.00
233, 0.00, -183125.13, -187500.02, -187500.02, -187500.02, -187500.02, 0.00, 0.00, 0.00, 0.00, 0.00
234, 0.00, -182092.48, -187500.02, -187500.02, -187500.02, -187500.02, 0.00, 0.00, 0.00, 0.00, 0.00
235, 0.00, -181910.67, -187500.02, -187500.02, -187500.02, -187500.02, 0.00, 0.00, 0.00, 0.00, 0.00
236, 0.00, -182969.36, -187500.02, -187500.02, -187500.02, -187500.02, 0.00, 0.00, 0.00, 0.00, 0.00
237, 0.00, -183358.55, -187500.02, -187500.02, -187500.02, -187500.02, 0.00, 0.00, 0.00, 0.00, 0.00
238, 0.00, -182418.86, -187500.02, -187500.02, -187500.02, -187500.02, 0.00, 0.00, 0.00, 0.00, 0.00
239, 0.00, -181985.17, -187500.02, -187500.02, -187500.02, -187500.02, 0.00, 0.00, 0.00, 0.00, 0.00
240, 0.00, -182923.58, -187500.02, -187500.02, -187500.02, -187500.02, 0.00, 0.00, 0.00, 0.00, 0.00
241, 0.00, -183563.61, -187500.02, -187500.02, -187500.02, -187500.02, 0.00, 0.00, 0.00, 0.00, 0.00
242, 0.00, -182746.22, -187500.02, -187500.02, -187500.02, -187500.02, 0.00, 0.00, 0.00, 0.00, 0.00
243, 0.00, -182068.70, -187500.02, -187500.02, -187500.02, -187500.02, 0.00, 0.00, 0.00, 0.00, 0.00
244, 0.00, -182858.14, -187500.02, -187500.02, -187500.02, -187500.02, 0.00, 0.00, 0.00, 0.00, 0.00
245, 0.00, -183716.94, -187500.02, -187500.02, -187500.02, -187500.02, 0.00, 0.00, 0.00, 0.00, 0.00
246, 0.00, -183090.75, -187500.02, -187500.02, -187500.02, -187500.02, 0.00, 0.00, 0.00, 0.00, 0.00
247, 0.00, -182207.22, -187500.02, -187500.02, -187500.02, -187500.02, 0.00, 0.00, 0.00, 0.00, 0.00
248, 0.00, -182727.83, -187500.02, -187500.02, -187500.02, -187500.02, 0.00, 0.00, 0.00, 0.00, 0.00
249, 0.00, -183712.89, -187500.02, -187500.02, -187500.02, -187500.02, 0.00, 0.00, 0.00, 0.00, 0.00
250, 0.00, -183318.03, -187500.02, -187500.02, -187500.02, -187500.02, 0.00, 0.00, 0.00, 0.00, 0.00
251, 0.00, -182339.41, -187500.02, -187500.02, -187500.02, -187500.02, 0.00, 0.00, 0.00, 0.00, 0.00
252, 0.00, -182639.66, -187500.02, -187500.02, -187500.02, -187500.02, 0.00, 0.00, 0.00, 0.00, 0.00
253, 0.00, -183735.27, -187500.02, -187500.02, -187500.02, -187500.02, 0.00, 0.00, 0.00, 0.00, 0.00
254, 0.00, -183643.83, -187500.02, -187500.02, -187500.02, -187500.02, 0.00, 0.00, 0.00, 0.00, 0.00
255, 0.00, -182624.75, -187500.02, -187500.02, -187500.02, -187500.02, 0.00, 0.00, 0.00, 0.00, 0.00
0, 0.00, -182644.95, -187500.02, -187500.02, -187500.02, -187500.02, 0.00, 0.00, 0.00, 0.00, 0.00
1, 0.00, -183746.06, -187500.02, -187500.02, -187500.02, -187500.02, 0.00, 0.00, 0.00, 0.00, 0.00
2, 0.00, -183951.66, -187500.02, -187500.02, -187500.02, -187500.02, 0.00, 0.00, 0.00, 0.00, 0.00
3, 0.00, -182965.42, -187500.02, -187500.02, -187500.02, -187500.02, 0.00, 0.00, 0.00, 0.00, 0.00
4, 0.00, -182695.06, -187500.02, -187500.02, -187500.02, -187500.02, 0.00, 0.00, 0.00, 0.00, 0.00
5, 0.00, -183707.14, -187500.02, -187500.02, -187500.02, -187500.02, 0.00, 0.00, 0.00, 0.00, 0.00
6, 0.00, -184173.58, -187500.02, -187500.02, -187500.02, -187500.02, 0.00, 0.00, 0.00, 0.00, 0.00
7, 0.00, -183243.80, -187500.02, -187500.02, -187500.02, -187500.02, 0.00, 0.00, 0.00, 0.00, 0.00
8, 0.00, -182709.08, -187500.02, -187500.02, -187500.02, -187500.02, 0.00, 0.00, 0.00, 0.00, 0.00
9, 0.00, -183588.58, -187500.02, -187500.02, -187500.02, -187500.02, 0.00, 0.00, 0.00, 0.00, 0.00
10, 0.00, -184282.02, -187500.02, -187500.02, -187500.02, -187500.02, 0.00, 0.00, 0.00, 0.00, 0.00
11, 0.00, -183515.02, -187500.02, -187500.02, -187500.02, -187500.02, 0.00, 0.00, 0.00, 0.00, 0.00
12, 0.00, -182787.89, -187500.02, -187500.02, -187500.02, -187500.02, 0.00, 0.00, 0.00, 0.00, 0.00
13, 0.00, -183501.61, -187500.02, -187500.02, -187500.02, -187500.02, 0.00, 0.00, 0.00, 0.00, 0.00
14, 0.00, -184409.38, -187500.02, -187500.02, -187500.02, -187500.02, 0.00, 0.00, 0.00, 0.00, 0.00
15, 0.00, -183860.70, -187500.02, -187500.02, -187500.02, -187500.02, 0.00, 0.00, 0.00, 0.00, 0.00
16, 0.00, -182968.06, -187500.02, -187500.02, -187500.02, -187500.02, 0.00, 0.00, 0.00, 0.00, 0.00
17, 0.00, -183439.86, -187500.02, -187500.02, -187500.02, -187500.02, 0.00, 0.00, 0.00, 0.00, 0.00
18, 0.00, -184489.48, -187500.02, -187500.02, -187500.02, -187500.02, 0.00, 0.00, 0.00, 0.00, 0.00
19, 0.00, -184208.20, -187500.02, -187500.02, -187500.02, -187500.02, 0.00, 0.00, 0.00, 0.00, 0.00
20, 0.00, -183195.61, -187500.02, -187500.02, -187500.02, -187500.02, 0.00, 0.00, 0.00, 0.00, 0.00
21, 0.00, -183417.84, -187500.02, -187500.02, -187500.02, -187500.02, 0.00, 0.00, 0.00, 0.00, 0.00
22, 0.00, -184501.70, -187500.02, -187500.02, -187500.02, -187500.02, 0.00, 0.00, 0.00, 0.00, 0.00
23, 0.00, -184478.38, -187500.02, -187500.02, -187500.02, -187500.02, 0.00, 0.00, 0.00, 0.00, 0.00
24, 0.00, -183437.36, -187500.02, -187500.02, -187500.02, -187500.02, 0.00, 0.00, 0.00, 0.00, 0.00
25, 0.00, -183365.80, -187500.02, -187500.02, -187500.02, -187500.02, 0.00, 0.00, 0.00, 0.00, 0.00
26, 0.00, -184434.66, -187500.02, -187500.02, -187500.02, -187500.02, 0.00, 0.00, 0.00, 0.00, 0.00
27, 0.00, -184707.81, -187500.02, -187500.02, -187500.02, -187500.02, 0.00, 0.00, 0.00, 0.00, 0.00
28, 0.00, -183708.58, -187500.02, -187500.02, -187500.02, -187500.02, 0.00, 0.00, 0.00, 0.00, 0.00
29, 0.00, -183376.98, -187500.02, -187500.02, -187500.02, -187500.02, 0.00, 0.00, 0.00, 0.00, 0.00
30, 0.00, -184379.38, -187500.02, -187500.02, -187500.02, -187500.02, 0.00, 0.00, 0.00, 0.00, 0.00
31, 0.00, -184914.50, -187500.02, -187500.02, -187500.02, -187500.02, 0.00, 0.00, 0.00, 0.00, 0.00
32, 0.00, -184053.58, -187500.02, -187500.02, -187500.02, -187500.02, 0.00, 0.00, 0.00, 0.00, 0.00
33, 0.00, -183477.23, -187500.02, -187500.02, -187500.02, -187500.02, 0.00, 0.00, 0.00, 0.00, 0.00
34, 0.00, -184317.44, -187500.02, -187500.02, -187500.02, -187500.02, 0.00, 0.00, 0.00, 0.00, 0.00
35, 0.00, -185106.20, -187500.02, -187500.02, -187500.02, -187500.02, 0.00, 0.00, 0.00, 0.00, 0.00
36, 0.00, -184417.78, -187500.02, -187500.02, -187500.02, -187500.02, 0.00, 0.00, 0.00, 0.00, 0.00
37, 0.00, -183606.44, -187500.02, -187500.02, -187500.02, -187500.02, 0.00, 0.00, 0.00, 0.00, 0.00
38, 0.00, -184229.36, -187500.02, -187500.02, -187500.02, -187500.02, 0.00, 0.00, 0.00, 0.00, 0.00
39, 0.00, -185159.20, -187500.02, -187500.02, -187500.02, -187500.02, 0.00, 0.00, 0.00, 0.00, 0.00
40, 0.00, -184688.08, -187500.02, -187500.02, -187500.02, -187500.02, 0.00, 0.00, 0.00, 0.00, 0.00
41, 0.00, -183752.64, -187500.02, -187500.02, -187500.02, -187500.02, 0.00, 0.00, 0.00, 0.00, 0.00
42, 0.00, -184148.59, -187500.02, -187500.02, -187500.02, -187500.02, 0.00, 0.00, 0.00, 0.00, 0.00
43, 0.00, -185192.73, -187500.02, -187500.02, -187500.02, -187500.02, 0.00, 0.00, 0.00, 0.00, 0.00
44, 0.00, -184988.44, -187500.02, -187500.02, -187500.02, -187500.02, 0.00, 0.00, 0.00, 0.00, 0.00
45, 0.00, -183960.02, -187500.02, -187500.02, -187500.02, -187500.02, 0.00, 0.00, 0.00, 0.00, 0.00
46, 0.00, -184095.59, -187500.02, -187500.02, -187500.02, -187500.02, 0.00, 0.00, 0.00, 0.00, 0.00
47, 0.00, -185185.97, -187500.02, -187500.02, -187500.02, -187500.02, 0.00, 0.00, 0.00, 0.00, 0.00
48, 0.00, -185257.88, -187500.02, -187500.02, -187500.02, -187500.02, 0.00, 0.00, 0.00, 0.00, 0.00
49, 0.00, -184261.42, -187500.02, -187500.02, -187500.02, -187500.02, 0.00, 0.00, 0.00, 0.00, 0.00
50, 0.00, -184144.92, -187500.02, -187500.02, -187500.02, -187500.02, 0.00, 0.00, 0.00, 0.00, 0.00
51, 0.00, -185228.94, -187500.02, -187500.02, -187500.02, -187500.02, 0.00, 0.00, 0.00, 0.00, 0.00
52, 0.00, -185576.41, -187500.02, -187500.02, -187500.02, -187500.02, 0.00, 0.00, 0.00, 0.00, 0.00
53, 0.00, -184599.75, -187500.02, -187500.02, -187500.02, -187500.02, 0.00, 0.00, 0.00, 0.00, 0.00
54, 0.00, -184171.81, -187500.02, -187500.02, -187500.02, -187500.02, 0.00, 0.00, 0.00, 0.00, 0.00
55, 0.00, -185106.91, -187500.02, -187500.02, -187500.02, -187500.02, 0.00, 0.00, 0.00, 0.00, 0.00
56, 0.00, -185729.67, -187500.02, -187500.02, -187500.02, -187500.02, 0.00, 0.00, 0.00, 0.00, 0.00
57, 0.00, -184915.58, -187500.02, -187500.02, -187500.02, -187500.02, 0.00, 0.00, 0.00, 0.00, 0.00
58, 0.00, -184252.20, -187500.02, -187500.02, -187500.02, -187500.02, 0.00, 0.00, 0.00, 0.00, 0.00
59, 0.00, -185039.92, -187500.02, -187500.02, -187500.02, -187500.02, 0.00, 0.00, 0.00, 0.00, 0.00
60, 0.00, -185856.41, -187500.02, -187500.02, -187500.02, -187500.02, 0.00, 0.00, 0.00, 0.00, 0.00
61, 0.00, -185211.16, -187500.02, -187500.02, -187500.02, -187500.02, 0.00, 0.00, 0.00, 0.00, 0.00
62, 0.00, -184349.53, -187500.02, -187500.02, -187500.02, -187500.02, 0.00, 0.00, 0.00, 0.00, 0.00
63, 0.00, -184919.38, -187500.02, -187500.02, -187500.02, -187500.02, 0.00, 0.00, 0.00, 0.00, 0.00
64, 0.00, -185899.20, -187500.02, -187500.02, -187500.02, -187500.02, 0.00, 0.00, 0.00, 0.00, 0.00
65, 0.00, -185514.88, -187500.02, -187500.02, -187500.02, -187500.02, 0.00, 0.00, 0.00, 0.00, 0.00
66, 0.00, -184561.95, -187500.02, -187500.02, -187500.02, -187500.02, 0.00, 0.00, 0.00, 0.00, 0.00
67, 0.00, -184920.25, -187500.02, -187500.02, -187500.02, -187500.02, 0.00, 0.00, 0.00, 0.00, 0.00
68, 0.00, -186024.53, -187500.02, -187500.02, -187500.02, -187500.02, 0.00, 0.00, 0.00, 0.00, 0.00
69, 0.00, -185891.66, -187500.02, -187500.02, -187500.02, -187500.02, 0.00, 0.00, 0.00, 0.00, 0.00
70, 0.00, -184853.03, -187500.02, -187500.02, -187500.02, -187500.02, 0.00, 0.00, 0.00, 0.00, 0.00
71, 0.00, -184907.69, -187500.02, -187500.02, -187500.02, -187500.02, 0.00, 0.00, 0.00, 0.00, 0.00
72, 0.00, -185992.84, -187500.02, -187500.02, -187500.02, -187500.02, 0.00, 0.00, 0.00, 0.00, 0.00
73, 0.00, -186127.75, -187500.02, -187500.02, -187500.02, -187500.02, 0.00, 0.00, 0.00, 0.00, 0.00
74, 0.00, -185086.00, -187500.02, -187500.02, -187500.02, -187500.02, 0.00, 0.00, 0.00, 0.00, 0.00
75, 0.00, -184823.48, -187500.02, -187500.02, -187500.02, -187500.02, 0.00, 0.00, 0.00, 0.00, 0.00
76, 0.00, -185841.88, -187500.02, -187500.02, -187500.02, -187500.02, 0.00, 0.00, 0.00, 0.00, 0.00
77, 0.00, -186271.25, -187500.02, -187500.02, -187500.02, -187500.02, 0.00, 0.00, 0.00, 0.00, 0.00
78, 0.00, -185355.09, -187500.02, -187500.02, -187500.02, -187500.02, 0.00, 0.00, 0.00, 0.00, 0.00
79, 0.00, -184864.95, -187500.02, -187500.02, -187500.02, -187500.02, 0.00, 0.00, 0.00, 0.00, 0.00
80, 0.00, -185751.86, -187500.02, -187500.02, -187500.02, -187500.02, 0.00, 0.00, 0.00, 0.00, 0.00
81, 0.00, -186462.30, -187500.02, -187500.02, -187500.02, -187500.02, 0.00, 0.00, 0.00, 0.00, 0.00
82, 0.00, -185711.11, -187500.02, -187500.02, -187500.02, -187500.02, 0.00, 0.00, 0.00, 0.00, 0.00
83, 0.00, -185015.86, -187500.02, -187500.02, -187500.02, -187500.02, 0.00, 0.00, 0.00, 0.00, 0.00
84, 0.00, -185753.73, -187500.02, -187500.02, -187500.02, -187500.02, 0.00, 0.00, 0.00, 0.00, 0.00
85, 0.00, -186623.47, -187500.02, -187500.02, -187500.02, -187500.02, 0.00, 0.00, 0.00, 0.00, 0.00
86, 0.00, -186047.11, -187500.02, -187500.02, -187500.02, -187500.02, 0.00, 0.00, 0.00, 0.00, 0.00
87, 0.00, -185170.61, -187500.02, -187500.02, -187500.02, -187500.02, 0.00, 0.00, 0.00, 0.00, 0.00
88, 0.00, -185642.66, -187500.02, -187500.02, -187500.02, -187500.02, 0.00, 0.00, 0.00, 0.00, 0.00
89, 0.00, -186639.39, -187500.02, -187500.02, -187500.02, -187500.02, 0.00, 0.00, 0.00, 0.00, 0.00
90, 0.00, -186304.17, -187500.02, -187500.02, -187500.02, -187500.02, 0.00, 0.00, 0.00, 0.00, 0.00
91, 0.00, -185302.19, -187500.02, -187500.02, -187500.02, -187500.02, 0.00, 0.00, 0.00, 0.00, 0.00
92, 0.00, -185532.92, -187500.02, -187500.02, -187500.02, -187500.02, 0.00, 0.00, 0.00, 0.00, 0.00
93, 0.00, -186592.83, -187500.02, -187500.02, -187500.02, -187500.02, 0.00, 0.00, 0.00, 0.00, 0.00
94, 0.00, -186535.66, -187500.02, -187500.02, -187500.02, -187500.02, 0.00, 0.00, 0.00, 0.00, 0.00
95, 0.00, -185512.52, -187500.02, -187500.02, -187500.02, -187500.02, 0.00, 0.00, 0.00, 0.00, 0.00
96, 0.00, -185481.41, -187500.02, -187500.02, -187500.02, -187500.02, 0.00, 0.00, 0.00, 0.00, 0.00
97, 0.00, -186566.27, -187500.02, -187500.02, -187500.02, -187500.02, 0.00, 0.00, 0.00, 0.00, 0.00
98, 0.00, -186800.58, -187500.02, -187500.02, -187500.02, -187500.02, 0.00, 0.00, 0.00, 0.00, 0.00
99, 0.00, -185818.06, -187500.02, -187500.02, -187500.02, -187500.02, 0.00, 0.00, 0.00, 0.00, 0.00
100, 0.00, -185530.94, -187500.02, -187500.02, -187500.02, -187500.02, 0.00, 0.00, 0.00, 0.00, 0.00
101, 0.00, -186534.95, -187500.02, -187500.02, -187500.02, -187500.02, 0.00, 0.00, 0.00, 0.00, 0.00
102, 0.00, -187055.95, -187500.02, -187500.02, -187500.02, -187500.02, 0.00, 0.00, 0.00, 0.00, 0.00
103, 0.00, -186157.70, -187500.02, -187500.02, -187500.02, -187500.02, 0.00, 0.00, 0.00, 0.00, 0.00
104, 0.00, -185593.44, -187500.02, -187500.02, -187500.02, -187500.02, 0.00, 0.00, 0.00, 0.00, 0.00
105, 0.00, -186432.58, -187500.02, -187500.02, -187500.02, -187500.02, 0.00, 0.00, 0.00, 0.00, 0.00
106, 0.00, -187165.19, -187500.02, -187500.02, -187500.02, -187500.02, 0.00, 0.00, 0.00, 0.00, 0.00
107, 0.00, -186431.58, -187500.02, -187500.02, -187500.02, -187500.02, 0.00, 0.00, 0.00, 0.00, 0.00
108, 0.00, -185661.05, -187500.02, -187500.02, -187500.02, -187500.02, 0.00, 0.00, 0.00, 0.00, 0.00
109, 0.00, -186307.58, -187500.02, -187500.02, -187500.02, -187500.02, 0.00, 0.00, 0.00, 0.00, 0.00
110, 0.00, -187233.09, -187500.02, -187500.02, -187500.02, -187500.02, 0.00, 0.00, 0.00, 0.00, 0.00
111, 0.00, -186741.86, -187500.02, -187500.02, -187500.02, -187500.02, 0.00, 0.00, 0.00, 0.00, 0.00
112, 0.00, -185803.50, -187500.02, -187500.02, -187500.02, -187500.02, 0.00, 0.00, 0.00, 0.00, 0.00
113, 0.00, -186220.02, -187500.02, -187500.02, -187500.02, -187500.02, 0.00, 0.00, 0.00, 0.00, 0.00
114, 0.00, -187276.25, -187500.02, -187500.02, -187500.02, -187500.02, 0.00, 0.00, 0.00, 0.00, 0.00
115, 0.00, -187036.73, -187500.02, -187500.02, -187500.02, -187500.02, 0.00, 0.00, 0.00, 0.00, 0.00
116, 0.00, -186039.52, -187500.02, -187500.02, -187500.02, -187500.02, 0.00, 0.00, 0.00, 0.00, 0.00
117, 0.00, -186199.03, -187500.02, -187500.02, -187500.02, -187500.02, 0.00, 0.00, 0.00, 0.00, 0.00
118, 0.00, -187268.23, -187500.02, -187500.02, -187500.02, -187500.02, 0.00, 0.00, 0.00, 0.00, 0.00
119, 0.00, -187313.69, -187500.02, -187500.02, -187500.02, -187500.02, 0.00, 0.00, 0.00, 0.00, 0.00
120, 0.00, -186306.30, -187500.02, -187500.02, -187500.02, -187500.02, 0.00, 0.00, 0.00, 0.00, 0.00
121, 0.00, -186179.56, -187500.02, -187500.02, -187500.02, -187500.02, 0.00, 0.00, 0.00, 0.00, 0.00
122, 0.00, -187216.95, -187500.02, -187500.02, -187500.02, -187500.02, 0.00, 0.00, 0.00, 0.00, 0.00
123, 0.00, -187500.02, -187500.02, -187500.02, -187500.02, -187500.02, 0.00, 0.00, 0.00, 0.00, 0.00
124, 0.00, -186569.77, -187500.02, -187500.02, -187500.02, -187500.02, 0.00, 0.00, 0.00, 0.00, 0.00
125, 0.00, -186177.84, -187500.02, -187500.02, -187500.02, -187500.02, 0.00, 0.00, 0.00, 0.00, 0.00
126, 0.00, -187105.38, -187500.02, -187500.02, -187500.02, -187500.02, 0.00, 0.00, 0.00, 0.00, 0.00
127, 0.00, -187500.02, -187500.02, -187500.02, -187500.02, -187500.02, 0.00, 0.00, 0.00, 0.00, 0.00
128, 0.00, -186813.86, -187500.02, -187500.02, -187500.02, -187500.02, 0.00, 0.00, 0.00, 0.00, 0.00
129, 0.00, -186174.16, -187500.02, -187500.02, -187500.02, -187500.02, 0.00, 0.00, 0.00, 0.00, 0.00
130, 0.00, -186975.84, -187500.02, -187500.02, -187500.02, -187500.02, 0.00, 0.00, 0.00, 0.00, 0.00
131, 0.00, -187500.02, -187500.02, -187500.02, -187500.02, -187500.02, 0.00, 0.00, 0.00, 0.00, 0.00
132, 0.00, -187143.34, -187500.02, -187500.02, -187500.02, -187500.02, 0.00, 0.00, 0.00, 0.00, 0.00
133, 0.00, -186345.33, -187500.02, -187500.02, -187500.02, -187500.02, 0.00, 0.00, 0.00, 0.00, 0.00
134, 0.00, -186938.88, -187500.02, -187500.02, -187500.02, -187500.02, 0.00, 0.00, 0.00, 0.00, 0.00
135, 0.00, -187500.02, -187500.02, -187500.02, -187500.02, -187500.02, 0.00, 0.00, 0.00, 0.00, 0.00
136, 0.00, -187488.70, -187500.02, -187500.02, -187500.02, -187500.02, 0.00, 0.00, 0.00, 0.00, 0.00
137, 0.00, -186548.81, -187500.02, -187500.02, -187500.02, -187500.02, 0.00, 0.00, 0.00, 0.00, 0.00
138, 0.00, -186909.38, -187500.02, -187500.02, -187500.02, -187500.02, 0.00, 0.00, 0.00, 0.00, 0.00
139, 0.00, -187500.02, -187500.02, -187500.02, -187500.02, -187500.02, 0.00, 0.00, 0.00, 0.00, 0.00
140, 0.00, -187500.02, -187500.02, -187500.02, -187500.02, -187500.02, 0.00, 0.00, 0.00, 0.00, 0.00
141, 0.00, -186742.16, -187500.02, -187500.02, -187500.02, -187500.02, 0.00, 0.00, 0.00, 0.00, 0.00
142, 0.00, -186804.78, -187500.02, -187500.02, -187500.02, -187500.02, 0.00, 0.00, 0.00, 0.00, 0.00
143, 0.00, -187500.02, -187500.02, -187500.02, -187500.02, -187500.02, 0.00, 0.00, 0.00, 0.00, 0.00
144, 0.00, -187500.02, -187500.02, -187500.02, -187500.02, -187500.02, 0.00, 0.00, 0.00, 0.00, 0.00
145, 0.00, -186975.38, -187500.02, -187500.02, -187500.02, -187500.02, 0.00, 0.00, 0.00, 0.00, 0.00
146, 0.00, -186781.05, -187500.02, -187500.02, -187500.02, -187500.02, 0.00, 0.00, 0.00, 0.00, 0.00
147, 0.00, -187500.02, -187500.02, -187500.02, -187500.02, -187500.02, 0.00, 0.00, 0.00, 0.00, 0.00
148, 0.00, -187500.02, -187500.02, -187500.02, -187500.02, -187500.02, 0.00, 0.00, 0.00, 0.00, 0.00
149, 0.00, -187296.53, -187500.02, -187500.02, -187500.02, -187500.02, 0.00, 0.00, 0.00, 0.00, 0.00
150, 0.00, -186847.59, -187500.02, -187500.02, -187500.02, -187500.02, 0.00, 0.00, 0.00, 0.00, 0.00
151, 0.00, -187500.02, -187500.02, -187500.02, -187500.02, -187500.02, 0.00, 0.00, 0.00, 0.00, 0.00
152, 0.00, -187500.02, -187500.02, -187500.02, -187500.02, -187500.02, 0.00, 0.00, 0.00, 0.00, 0.00
153, 0.00, -187500.02, -187500.02, -187500.02, -187500.02, -187500.02, 0.00, 0.00, 0.00, 0.00, 0.00
154, 0.00, -186937.89, -187500.02, -187500.02, -187500.02, -187500.02, 0.00, 0.00, 0.00, 0.00, 0.00
155, 0.00, -187500.02, -187500.02, -187500.02, -187500.02, -187500.02, 0.00, 0.00, 0.00, 0.00, 0.00
156, 0.00, -187500.02, -187500.02, -187500.02, -187500.02, -187500.02, 0.00, 0.00, 0.00, 0.00, 0.00
157, 0.00, -187500.02, -187500.02, -187500.02, -187500.02, -187500.02, 0.00, 0.00, 0.00, 0.00, 0.00
158, 0.00, -187012.22, -187500.02, -187500.02, -187500.02, -187500.02, 0.00, 0.00, 0.00, 0.00, 0.00
159, 0.00, -187500.02, -187500.02, -187500.02, -187500.02, -187500.02, 0.00, 0.00, 0.00, 0.00, 0.00
160, 0.00, -187500.02, -187500.02, -187500.02, -187500.02, -187500.02, 0.00, 0.00, 0.00, 0.00, 0.00
161, 0.00, -187500.02, -187500.02, -187500.02, -187500.02, -187500.02, 0.00, 0.00, 0.00, 0.00, 0.00
162, 0.00, -187195.81, -187500.02, -187500.02, -187500.02, -187500.02, 0.00, 0.00, 0.00, 0.00, 0.00
163, 0.00, -187454.38, -187500.02, -187500.02, -187500.02, -187500.02, 0.00, 0.00, 0.00, 0.00, 0.00
164, 0.00, -187500.02, -187500.02, -187500.02, -187500.02, -187500.02, 0.00, 0.00, 0.00, 0.00, 0.00
165, 0.00, -187500.02, -187500.02, -187500.02, -187500.02, -187500.02, 0.00, 0.00, 0.00, 0.00, 0.00
166, 0.00, -187470.38, -187500.02, -187500.02, -187500.02, -187500.02, 0.00, 0.00, 0.00, 0.00, 0.00
167, 0.00, -187465.11, -187500.02, -187500.02, -187500.02, -187500.02, 0.00, 0.00, 0.00, 0.00, 0.00
168, 0.00, -187500.02, -187500.02, -187500.02, -187500.02, -187500.02, 0.00, 0.00, 0.00, 0.00, 0.00
169, 0.00, -187500.02, -187500.02, -187500.02, -187500.02, -187500.02, 0.00, 0.00, 0.00, 0.00, 0.00
170, 0.00, -187500.02, -187500.02, -187500.02, -187500.02, -187500.02, 0.00, 0.00, 0.00, 0.00, 0.00
171, 0.00, -187476.75, -187500.02, -187500.02, -187500.02, -187500.02, 0.00, 0.00, 0.00, 0.00, 0.00
172, 0.00, -187500.02, -187500.02, -187500.02, -187500.02, -187500.02, 0.00, 0.00, 0.00, 0.00, 0.00
173, 0.00, -187500.02, -187500.02, -187500.02, -187500.02, -187500.02, 0.00, 0.00, 0.00, 0.00, 0.00
174, 0.00, -187500.02, -187500.02, -187500.02, -187500.02, -187500.02, 0.00, 0.00, 0.00, 0.00, 0.00
175, 0.00, -187493.11, -187500.02, -187500.02, -187500.02, -187500.02, 0.00, 0.00, 0.00, 0.00, 0.00
176, 0.00, -187500.02, -187500.02, -187500.02, -187500.02, -187500.02, 0.00, 0.00, 0.00, 0.00, 0.00
177, 0.00, -187500.02, -187500.02, -187500.02, -187500.02, -187500.02, 0.00, 0.00, 0.00, 0.00, 0.00
178, 0.00, -187500.02, -187500.02, -187500.02, -187500.02, -187500.02, 0.00, 0.00, 0.00, 0.00, 0.00
179, 0.00, -187500.02, -187500.02, -187500.02, -187500.02, -187500.02, 0.00, 0.00, 0.00, 0.00, 0.00
180, 0.00, -187500.02, -187500.02, -187500.02, -187500.02, -187500.02, 0.00, 0.00, 0.00, 0.00, 0.00
181, 0.00, -187500.02, -187500.02, -187500.02, -187500.02, -187500.02, 0.00, 0.00, 0.00, 0.00, 0.00
182, 0.00, -187500.02, -187500.02, -187500.02, -187500.02, -187500.02, 0.00, 0.00, 0.00, 0.00, 0.00
183, 0.00, -187500.02, -187500.02, -187500.02, -187500.02, -187500.02, 0.00, 0.00, 0.00, 0.00, 0.00
184, 0.00, -187500.02, -187500.02, -187500.02, -187500.02, -187500.02, 0.00, 0.00, 0.00, 0.00, 0.00
185, 0.00, -187500.02, -187500.02, -187500.02, -187500.02, -187500.02, 0.00, 0.00, 0.00, 0.00, 0.00
186, 0.00, -187500.02, -187500.02, -187500.02, -187500.02, -187500.02, 0.00, 0.00, 0.00, 0.00, 0.00
187, 0.00, -187500.02, -187500.02, -187500.02, -187500.02, -187500.02, 0.00, 0.00, 0.00, 0.00, 0.00
188, 0.00, -187500.02, -187500.02, -187500.02, -187500.02, -187500.02, 0.00, 0.00, 0.00, 0.00, 0.00
189, 0.00, -187500.02, -187500.02, -187500.02, -187500.02, -187500.02, 0.00, 0.00, 0.00, 0.00, 0.00
190, 0.00, -187500.02, -187500.02, -187500.02, -187500.02, -187500.02, 0.00, 0.00, 0.00, 0.00, 0.00
191, 0.00, -187500.02, -187500.02, -187500.02, -187500.02, -187500.02, 0.00, 0.00, 0.00, 0.00, 0.00
192, 0.00, -187500.02, -187500.02, -187500.02, -187500.02, -187500.02, 0.00, 0.00, 0.00, 0.00, 0.00
193, 0.00, -187500.02, -187500.02, -187500.02, -187500.02, -187500.02, 0.00, 0.00, 0.00, 0.00, 0.00
194, 0.00, -187500.02, -187500.02, -187500.02, -187500.02, -187500.02, 0.00, 0.00, 0.00, 0.00, 0.00
195, 0.00, -187500.02, -187500.02, -187500.02, -187500.02, -187500.02, 0.00, 0.00, 0.00, 0.00, 0.00
196, 0.00, -187500.02, -187500.02, -187500.02, -187500.02, -187500.02, 0.00, 0.00, 0.00, 0.00, 0.00
197, 0.00, -187500.02, -187500.02, -187500.02, -187500.02, -187500.02, 0.00, 0.00, 0.00, 0.00, 0.00
198, 0.00, -187500.02, -187500.02, -187500.02, -187500.02, -187500.02, 0.00, 0.00, 0.00, 0.00, 0.00
199, 0.00, -187500.02, -187500.02, -187500.02, -187500.02, -187500.02, 0.00, 0.00, 0.00, 0.00, 0.00
200, 0.00, -187500.02, -187500.02, -187500.02, -187500.02, -187500.02, 0.00, 0.00, 0.00, 0.00, 0.00
201, 0.00, -187500.02, -187500.02, -187500.02, -187500.02, -187500.02, 0.00, 0.00, 0.00, 0.00, 0.00
202, 0.00, -187500.02, -187500.02, -187500.02, -187500.02, -187500.02, 0.00, 0.00, 0.00, 0.00, 0.00
203, 0.00, -187500.02, -187500.02, -187500.02, -187500.02, -187500.02, 0.00, 0.00, 0.00, 0.00, 0.00
204, 0.00, -187500.02, -187500.02, -187500.02, -187500.02, -187500.02, 0.00, 0.00, 0.00, 0.00, 0.00
205, 0.00, -187500.02, -187500.02, -187500.02, -187500.02, -187500.02, 0.00, 0.00, 0.00, 0.00, 0.00
206, 0.00, -187500.02, -187500.02, -187500.02, -187500.02, -187500.02, 0.00, 0.00, 0.00, 0.00, 0.00
207, 0.00, -187500.02, -187500.02, -187500.02, -187500.02, -187500.02, 0.00, 0.00, 0.00, 0.00, 0.00
208, 0.00, -187500.02, -187500.02, -187500.02, -187500.02, -187500.02, 0.00, 0.00, 0.00, 0.00, 0.00
209, 0.00, -187500.02, -187500.02, -187500.02, -187500.02, -187500.02, 0.00, 0.00, 0.00, 0.00, 0.00
210, 0.00, -187500.02, -187500.02, -187500.02, -187500.02, -187500.02, 0.00, 0.00, 0.00, 0.00, 0.00
211, 0.00, -187500.02, -187500.02, -187500.02, -187500.02, -187500.02, 0.00, 0.00, 0.00, 0.00, 0.00
212, 0.00, -187500.02, -187500.02, -187500.02, -187500.02, -187500.02, 0.00, 0.00, 0.00, 0.00, 0.00
213, 0.00, -187500.02, -187500.02, -187500.02, -187500.02, -187500.02, 0.00, 0.00, 0.00, 0.00, 0.00
214, 0.00, -187500.02, -187500.02, -187500.02, -187500.02, -187500.02, 0.00, 0.00, 0.00, 0.00, 0.00
215, 0.00, -187500.02, -187500.02, -187500.02, -187500.02, -187500.02, 0.00, 0.00, 0.00, 0.00, 0.00
216, 0.00, -187500.02, -187500.02, -187500.02, -187500.02, -187500.02, 0.00, 0.00, 0.00, 0.00, 0.00
217, 0.00, -187500.02, -187500.02, -187500.02, -187500.02, -187500.02, 0.00, 0.00, 0.00, 0.00, 0.00
218, 0.00, -187500.02, -187500.02, -187500.02, -187500.02, -187500.02, 0.00, 0.00, 0.00, 0.00, 0.00
219, 0.00, -187500.02, -187500.02, -187500.02, -187500.02, -187500.02, 0.00, 0.00, 0.00, 0.00, 0.00
220, 0.00, -187500.02, -187500.02, -187500.02, -187500.02, -187500.02, 0.00, 0.00, 0.00, 0.00, 0.00
221, 0.00, -187500.02, -187500.02, -187500.02, -187500.02, -187500.02, 0.00, 0.00, 0.00, 0.00, 0.00
222, 0.00, -187500.02, -187500.02, -187500.02, -187500.02, -187500.02, 0.00, 0.00, 0.00, 0.00, 0.00
223, 0.00, -187500.02, -187500.02, -187500.02, -187500.02, -187500.02, 0.00, 0.00, 0.00, 0.00, 0.00
224, 0.00, -187500.02, -187500.02, -187500.02, -187500.02, -187500.02, 0.00, 0.00, 0.00, 0.00, 0.00
225, 0.00, -187500.02, -187500.02, -187500.02, -187500.02, -187500.02, 0.00, 0.00, 0.00, 0.00, 0.00
226, 0.00, -187500.02, -187500.02, -187500.02, -187500.02, -187500.02, 0.00, 0.00, 0.00, 0.00, 0.00
227, 0.00, -187500.02, -187500.02, -187500.02, -187500.02, -187500.02, 0.00, 0.00, 0.00, 0.00, 0.00
228, 0.00, -187500.02, -187500.02, -187500.02, -187500.02, -187500.02, 0.00, 0.00, 0.00, 0.00, 0.00
229, 0.00, -187500.02, -187500.02, -187500.02, -187500.02, -187500.02, 0.00, 0.00, 0.00, 0.00, 0.00
230, 0.00, -187500.02, -187500.02, -187500.02, -187500.02, -187500.02, 0.00, 0.00, 0.00, 0.00, 0.00
231, 0.00, -187500.02, -187500.02, -187500.02, -187500.02, -187500.02, 0.00, 0.00, 0.00, 0.00, 0.00
232, 0.00, -187500.02, -187500.02, -187500.02, -187500.02, -187500.02, 0.00, 0.00, 0.00, 0.00, 0.00
233, 0.00, -187500.02, -187500.02, -187500.02, -187500.02, -187500.02, 0.00, 0.00, 0.00, 0.00, 0.00
234, 0.00, -187500.02, -187500.02, -187500.02, -187500.02, -187500.02, 0.00, 0.00, 0.00, 0.00, 0.00
235, 0.00, -187500.02, -187500.02, -187500.02, -187500.02, -187500.02, 0.00, 0.00, 0.00, 0.00, 0.00
236, 0.00, -187500.02, -187500.02, -187500.02, -187500.02, -187500.02, 0.00, 0.00, 0.00, 0.00, 0.00
237, 0.00, -187500.02, -187500.02, -187500.02, -187500.02, -187500.02, 0.00, 0.00, 0.00, 0.00, 0.00
238, 0.00, -187500.02, -187500.02, -187500.02, -187500.02, -187500.02, 0.00, 0.00, 0.00, 0.00, 0.00
239, 0.00, -187500.02, -187500.02, -187500.02, -187500.02, -187500.02, 0.00, 0.00, 0.00, 0.00, 0.00
240, 0.00, -187500.02, -187500.02, -187500.02, -187500.02, -187500.02, 0.00, 0.00, 0.00, 0.00, 0.00
241, 0.00, -187500.02, -187500.02, -187500.02, -187500.02, -187500.02, 0.00, 0.00, 0.00, 0.00, 0.00
242, 0.00, -187500.02, -187500.02, -187500.02, -187500.02, -187500.02, 0.00, 0.00, 0.00, 0.00, 0.00
243, 0.00, -187500.02, -187500.02, -187500.02, -187500.02, -187500.02, 0.00, 0.00, 0.00, 0.00, 0.00
244, 0.00, -187500.02, -187500.02, -187500.02, -187500.02, -187500.02, 0.00, 0.00, 0.00, 0.00, 0.00
245, 0.00, -187500.02, -187500.02, -187500.02, -187500.02, -187500.02, 0.00, 0.00, 0.00, 0.00, 0.00
246, 0.00, -187500.02, -187500.02, -187500.02, -187500.02, -187500.02, 0.00, 0.00, 0.00, 0.00, 0.00
247, 0.00, -187500.02, -187500.02, -187500.02, -187500.02, -187500.02, 0.00, 0.00, 0.00, 0.00, 0.00
248, 0.00, -187500.02, -187500.02, -187500.02, -187500.02, -187500.02, 0.00, 0.00, 0.00, 0.00, 0.00
249, 0.00, -187500.02, -187500.02, -187500.02, -187500.02, -187500.02, 0.00, 0.00, 0.00, 0.00, 0.00
250, 0.00, -187500.02, -187500.02, -187500.02, -187500.02, -187500.02, 0.00, 0.00, 0.00, 0.00, 0.00
251, 0.00, -187500.02, -187500.02, -187500.02, -187500.02, -187500.02, 0.00, 0.00, 0.00, 0.00, 0.00
252, 0.00, -187500.02, -187500.02, -187500.02, -187500.02, -187500.02, 0.00, 0.00, 0.00, 0.00, 0.00
253, 0.00, -187500.02, -187500.02, -187500.02, -187500.02, -187500.02, 0.00, 0.00, 0.00, 0.00, 0.00
254, 0.00, -187500.02, -187500.02, -187500.02, -187500.02, -187500.02, 0.00, 0.00, 0.00, 0.00, 0.00
255, 0.00, -187500.02, -187500.02, -187500.02, -187500.02, -187500.02, 0.00, 0.00, 0.00, 0.00, 0.00
0, 0.00, -187500.02, -187500.02, -187500.02, -187500.02, -187500.02, 0.00, 0.00, 0.00, 0.00, 0.00
1, 0.00, -187500.02, -187500.02, -187500.02, -187500.02, -187500.02, 0.00, 0.00, 0.00, 0.00, 0.00
2, 0.00, -187500.02, -187500.02, -187500.02, -187500.02, -187500.02, 0.00, 0.00, 0.00, 0.00, 0.00
3, 0.00, -187500.02, -187500.02, -187500.02, -187500.02, -187500.02, 0.00, 0.00, 0.00, 0.00, 0.00
4, 0.00, -187500.02, -187500.02, -187500.02, -187500.02, -187500.02, 0.00, 0.00, 0.00, 0.00, 0.00
5, 0.00, -187500.02, -187500.02, -187500.02, -187500.02, -187500.02, 0.00, 0.00, 0.00, 0.00, 0.00
6, 0.00, -187500.02, -187500.02, -187500.02, -187500.02, -187500.02, 0.00, 0.00, 0.00, 0.00, 0.00
7, 0.00, -187500.02, -187500.02, -187500.02, -187500.02, -187500.02, 0.00, 0.00, 0.00, 0.00, 0.00
8, 0.00, -187500.02, -187500.02, -187500.02, -187500.02, -187500.02, 0.00, 0.00, 0.00, 0.00, 0.00
9, 0.00, -187500.02, -187500.02, -187500.02, -187500.02, -187500.02, 0.00, 0.00, 0.00, 0.00, 0.00
10, 0.00, -187500.02, -187500.02, -187500.02, -187500.02, -187500.02, 0.00, 0.00, 0.00, 0.00, 0.00
11, 0.00, -187500.02, -187500.02, -187500.02, -187500.02, -187500.02, 0.00, 0.00, 0.00, 0.00, 0.00
12, 0.00, -187500.02, -187500.02, -187500.02, -187500.02, -187500.02, 0.00, 0.00, 0.00, 0.00, 0.00
13, 0.00, -187500.02, -187500.02, -187500.02, -187500.02, -187500.02, 0.00, 0.00, 0.00, 0.00, 0.00
14, 0.00, -187500.02, -187500.02, -187500.02, -187500.02, -187500.02, 0.00, 0.00, 0.00, 0.00, 0.00
15, 0.00, -187500.02, -187500.02, -187500.02, -187500.02, -187500.02, 0.00, 0.00, 0.00, 0.00, 0.00
16, 0.00, -187500.02, -187500.02, -187500.02, -187500.02, -187500.02, 0.00, 0.00, 0.00, 0.00, 0.00
17, 0.00, -187500.02, -187500.02, -187500.02, -187500.02, -187500.02, 0.00, 0.00, 0.00, 0.00, 0.00
18, 0.00, -187500.02, -187500.02, -187500.02, -187500.02, -187500.02, 0.00, 0.00, 0.00, 0.00, 0.00
19, 0.00, -187500.02, -187500.02, -187500.02, -187500.02, -187500.02, 0.00, 0.00, 0.00, 0.00, 0.00
20, 0.00, -187500.02, -187500.02, -187500.02, -187500.02, -187500.02, 0.00, 0.00, 0.00, 0.00, 0.00
21, 0.00, -187500.02, -187500.02, -187500.02, -187500.02, -187500.02, 0.00, 0.00, 0.00, 0.00, 0.00
22, 0.00, -187500.02, -187500.02, -187500.02, -187500.02, -187500.02, 0.00, 0.00, 0.00, 0.00, 0.00
23, 0.00, -187500.02, -187500.02, -187500.02, -187500.02, -187500.02, 0.00, 0.00, 0.00, 0.00, 0.00
24, 0.00, -187500.02, -187500.02, -187500.02, -187500.02, -187500.02, 0.00, 0.00, 0.00, 0.00, 0.00
25, 0.00, -187500.02, -187500.02, -187500.02, -187500.02, -187500.02, 0.00, 0.00, 0.00, 0.00, 0.00
26, 0.00, -187500.02, -187500.02, -187500.02, -187500.02, -187500.02, 0.00, 0.00, 0.00, 0.00, 0.00
27, 0.00, -187500.02, -187500.02, -187500.02, -187500.02, -187500.02, 0.00, 0.00, 0.00, 0.00, 0.00
28, 0.00, -187500.02, -187500.02, -187500.02, -187500.02, -187500.02, 0.00, 0.00, 0.00, 0.00, 0.00
29, 0.00, -187500.02, -187500.02, -187500.02, -187500.02, -187500.02, 0.00, 0.00, 0.00, 0.00, 0.00
30, 0.00, -187500.02, -187500.02, -187500.02, -187500.02, -187500.02, 0.00, 0.00, 0.00, 0.00, 0.00
31, 0.00, -187500.02, -187500.02, -187500.02, -187500.02, -187500.02, 0.00, 0.00, 0.00, 0.00, 0.00
32, 0.00, -187500.02, -187500.02, -187500.02, -187500.02, -187500.02, 0.00, 0.00, 0.00, 0.00, 0.00
33, 0.00, -187500.02, -187500.02, -187500.02, -187500.02, -187500.02, 0.00, 0.00, 0.00, 0.00, 0.00
34, 0.00, -187500.02, -187500.02, -187500.02, -187500.02, -187500.02, 0.00, 0.00, 0.00, 0.00, 0.00
35, 0.00, -187500.02, -187500.02, -187500.02, -187500.02, -187500.02, 0.00, 0.00, 0.00, 0.00, 0.00
36, 0.00, -187500.02, -187500.02, -187500.02, -187500.02, -187500.02, 0.00, 0.00, 0.00, 0.00, 0.00
37, 0.00, -187500.02, -187500.02, -187500.02, -187500.02, -187500.02, 0.00, 0.00, 0.00, 0.00, 0.00
38, 0.00, -187500.02, -187500.02, -187500.02, -187500.02, -187500.02, 0.00, 0.00, 0.00, 0.00, 0.00
39, 0.00, -187500.02, -187500.02, -187500.02, -187500.02, -187500.02, 0.00, 0.00, 0.00, 0.00, 0.00
40, 0.00, -187500.02, -187500.02, -187500.02, -187500.02, -187500.02, 0.00, 0.00, 0.00, 0.00, 0.00
41, 0.00, -187500.02, -187500.02, -187500.02, -187500.02, -187500.02, 0.00, 0.00, 0.00, 0.00, 0.00
42, 0.00, -187500.02, -187500.02, -187500.02, -187500.02, -187500.02, 0.00, 0.00, 0.00, 0.00, 0.00
43, 0.00, -187500.02, -187500.02, -187500.02, -187500.02, -187500.02, 0.00, 0.00, 0.00, 0.00, 0.00
44, 0.00, -187500.02, -187500.02, -187500.02, -187500.02, -187500.02, 0.00, 0.00, 0.00, 0.00, 0.00
45, 0.00, -187500.02, -187500.02, -187500.02, -187500.02, -187500.02, 0.00, 0.00, 0.00, 0.00, 0.00
46, 0.00, -187500.02, -187500.02, -187500.02, -187500.02, -187500.02, 0.00, 0.00, 0.00, 0.00, 0.00
47, 0.00, -187500.02, -187500.02, -187500.02, -187500.02, -187500.02, 0.00, 0.00, 0.00, 0.00, 0.00
48, 0.00, -187500.02, -187500.02, -187500.02, -187500.02, -187500.02, 0.00, 0.00, 0.00, 0.00, 0.00
49, 0.00, -187500.02, -187500.02, -187500.02, -187500.02, -187500.02, 0.00, 0.00, 0.00, 0.00, 0.00
50, 0.00, -187500.02, -187500.02, -187500.02, -187500.02, -187500.02, 0.00, 0.00, 0.00, 0.00, 0.00
51, 0.00, -187500.02, -187500.02, -187500.02, -187500.02, -187500.02, 0.00, 0.00, 0.00, 0.00, 0.00
52, 0.00, -187500.02, -187500.02, -187500.02, -187500.02, -187500.02, 0.00, 0.00, 0.00, 0.00, 0.00
53, 0.00, -187500.02, -187500.02, -187500.02, -187500.02, -187500.02, 0.00, 0.00, 0.00, 0.00, 0.00
54, 0.00, -187500.02, -187500.02, -187500.02, -187500.02, -187500.02, 0.00, 0.00, 0.00, 0.00, 0.00
55, 0.00, -187500.02, -187500.02, -187500.02, -187500.02, -187500.02, 0.00, 0.00, 0.00, 0.00, 0.00
56, 0.00, -187500.02, -187500.02, -187500.02, -187500.02, -187500.02, 0.00, 0.00, 0.00, 0.00, 0.00
57, 0.00, -187500.02, -187500.02, -187500.02, -187500.02, -187500.02, 0.00, 0.00, 0.00, 0.00, 0.00
58, 0.00, -187500.02, -187500.02, -187500.02, -187500.02, -187500.02, 0.00, 0.00, 0.00, 0.00, 0.00
59, 0.00, -187500.02, -187500.02, -187500.02, -187500.02, -187500.02, 0.00, 0.00, 0.00, 0.00, 0.00
60, 0.00, -187500.02, -187500.02, -187500.02, -187500.02, -187500.02, 0.00, 0.00, 0.00, 0.00, 0.00
61, 0.00, -187500.02, -187500.02, -187500.02, -187500.02, -187500.02, 0.00, 0.00, 0.00, 0.00, 0.00
62, 0.00, -187500.02, -187500.02, -187500.02, -187500.02, -187500.02, 0.00, 0.00, 0.00, 0.00, 0.00
63, 0.00, -187500.02, -187500.02, -187500.02, -187500.02, -187500.02, 0.00, 0.00, 0.00, 0.00, 0.00
64, 0.00, -187500.02, -187500.02, -187500.02, -187500.02, -187500.02, 0.00, 0.00, 0.00, 0.00, 0.00
65, 0.00, -187500.02, -187500.02, -187500.02, -187500.02, -187500.02, 0.00, 0.00, 0.00, 0.00, 0.00
66, 0.00, -187500.02, -187500.02, -187500.02, -187500.02, -187500.02, 0.00, 0.00, 0.00, 0.00, 0.00
67, 0.00, -187500.02, -187500.02, -187500.02, -187500.02, -187500.02, 0.00, 0.00, 0.00, 0.00, 0.00
68, 0.00, -187500.02, -187500.02, -187500.02, -187500.02, -187500.02, 0.00, 0.00, 0.00, 0.00, 0.00
69, 0.00, -187500.02, -187500.02, -187500.02, -187500.02, -187500.02, 0.00, 0.00, 0.00, 0.00, 0.00
70, 0.00, -187500.02, -187500.02, -187500.02, -187500.02, -187500.02, 0.00, 0.00, 0.00, 0.00, 0.00
71, 0.00, -187500.02, -187500.02, -187500.02, -187500.02, -187500.02, 0.00, 0.00, 0.00, 0.00, 0.00
72, 0.00, -187500.02, -187500.02, -187500.02, -187500.02, -187500.02, 0.00, 0.00, 0.00, 0.00, 0.00
73, 0.00, -187500.02, -187500.02, -187500.02, -187500.02, -187500.02, 0.00, 0.00, 0.00, 0.00, 0.00
74, 0.00, -187500.02, -187500.02, -187500.02, -187500.02, -187500.02, 0.00, 0.00, 0.00, 0.00, 0.00
75, 0.00, -187500.02, -187500.02, -187500.02, -187500.02, -187500.02, 0.00, 0.00, 0.00, 0.00, 0.00
76, 0.00, -187500.02, -187500.02, -187500.02, -187500.02, -187500.02, 0.00, 0.00, 0.00, 0.00, 0.00
77, 0.00, -187500.02, -187500.02, -187500.02, -187500.02, -187500.02, 0.00, 0.00, 0.00, 0.00, 0.00
78, 0.00, -187500.02, -187500.02, -187500.02, -187500.02, -187500.02, 0.00, 0.00, 0.00, 0.00, 0.00
79, 0.00, -187500.02, -187500.02, -187500.02, -187500.02, -187500.02, 0.00, 0.00, 0.00, 0.00, 0.00
80, 0.00, -187500.02, -187500.02, -187500.02, -187500.02, -187500.02, 0.00, 0.00, 0.00, 0.00, 0.00
81, 0.00, -187500.02, -187500.02, -187500.02, -187500.02, -187500.02, 0.00, 0.00, 0.00, 0.00, 0.00
82, 0.00, -187500.02, -187500.02, -187500.02, -187500.02, -187500.02, 0.00, 0.00, 0.00, 0.00, 0.00
83, 0.00, -187500.02, -187500.02, -187500.02, -187500.02, -187500.02, 0.00, 0.00, 0.00, 0.00, 0.00
84, 0.00, -187500.02, -187500.02, -187500.02, -187500.02, -187500.02, 0.00, 0.00, 0.00, 0.00, 0.00
85, 0.00, -187500.02, -187500.02, -187500.02, -187500.02, -187500.02, 0.00, 0.00, 0.00, 0.00, 0.00
86, 0.00, -187500.02, -187500.02, -187500.02, -187500.02, -187500.02, 0.00, 0.00, 0.00, 0.00, 0.00
87, 0.00, -187500.02, -187500.02, -187500.02, -187500.02, -187500.02, 0.00, 0.00, 0.00, 0.00, 0.00
88, 0.00, -187500.02, -187500.02, -187500.02, -187500.02, -187500.02, 0.00, 0.00, 0.00, 0.00, 0.00
89, 0.00, -187500.02, -187500.02, -187500.02, -187500.02, -187500.02, 0.00, 0.00, 0.00, 0.00, 0.00
90, 0.00, -187500.02, -187500.02, -187500.02, -187500.02, -187500.02, 0.00, 0.00, 0.00, 0.00, 0.00
91, 0.00, -187500.02, -187500.02, -187500.02, -187500.02, -187500.02, 0.00, 0.00, 0.00, 0.00, 0.00
92, 0.00, -187500.02, -187500.02, -187500.02, -187500.02, -187500.02, 0.00, 0.00, 0.00, 0.00, 0.00
93, 0.00, -187500.02, -187500.02, -187500.02, -187500.02, -187500.02, 0.00, 0.00, 0.00, 0.00, 0.00
94, 0.00, -187500.02, -187500.02, -187500.02, -187500.02, -187500.02, 0.00, 0.00, 0.00, 0.00, 0.00
95, 0.00, -187500.02, -187500.02, -187500.02, -187500.02, -187500.02, 0.00, 0.00, 0.00, 0.00, 0.00
96, 0.00, -187500.02, -187500.02, -187500.02, -187500.02, -187500.02, 0.00, 0.00, 0.00, 0.00, 0.00
97, 0.00, -187500.02, -187500.02, -187500.02, -187500.02, -187500.02, 0.00, 0.00, 0.00, 0.00, 0.00
98, 0.00, -187500.02, -187500.02, -187500.02, -187500.02, -187500.02, 0.00, 0.00, 0.00, 0.00, 0.00
99, 0.00, -187500.02, -187500.02, -187500.02, -187500.02, -187500.02, 0.00, 0.00, 0.00, 0.00, 0.00
100, 0.00, -187500.02, -187500.02, -187500.02, -187500.02, -187500.02, 0.00, 0.00, 0.00, 0.00, 0.00
101, 0.00, -187500.02, -187500.02, -187500.02, -187500.02, -187500.02, 0.00, 0.00, 0.00, 0.00, 0.00
102, 0.00, -187500.02, -187500.02, -187500.02, -187500.02, -187500.02, 0.00, 0.00, 0.00, 0.00, 0.00
103, 0.00, -187500.02, -187500.02, -187500.02, -187500.02, -187500.02, 0.00, 0.00, 0.00, 0.00, 0.00
104, 0.00, -187500.02, -187500.02, -187500.02, -187500.02, -187500.02, 0.00, 0.00, 0.00, 0.00, 0.00
105, 0.00, -187500.02, -187500.02, -187500.02, -187500.02, -187500.02, 0.00, 0.00, 0.00, 0.00, 0.00
106, 0.00, -187500.02, -187500.02, -187500.02, -187500.02, -187500.02, 0.00, 0.00, 0.00, 0.00, 0.00
107, 0.00, -187500.02, -187500.02, -187500.02, -187500.02, -187500.02, 0.00, 0.00, 0.00, 0.00, 0.00
108, 0.00, -187500.02, -187500.02, -187500.02, -187500.02, -187500.02, 0.00, 0.00, 0.00, 0.00, 0.00
109, 0.00, -187500.02, -187500.02, -187500.02, -187500.02, -187500.02, 0.00, 0.00, 0.00, 0.00, 0.00
110, 0.00, -187500.02, -187500.02, -187500.02, -187500.02, -187500.02, 0.00, 0.00, 0.00, 0.00, 0.00
111, 0.00, -187500.02, -187500.02, -187500.02, -187500.02, -187500.02, 0.00, 0.00, 0.00, 0.00, 0.00
112, 0.00, -187500.02, -187500.02, -187500.02, -187500.02, -187500.02, 0.00, 0.00, 0.00, 0.00, 0.00
113, 0.00, -187500.02, -187500.02, -187500.02, -187500.02, -187500.02, 0.00, 0.00, 0.00, 0.00, 0.00
114, 0.00, -187500.02, -187500.02, -187500.02, -187500.02, -187500.02, 0.00, 0.00, 0.00, 0.00, 0.00
115, 0.00, -187500.02, -187500.02, -187500.02, -187500.02, -187500.02, 0.00, 0.00, 0.00, 0.00, 0.00
116, 0.00, -187500.02, -187500.02, -187500.02, -187500.02, -187500.02, 0.00, 0.00, 0.00, 0.00, 0.00
117, 0.00, -187500.02, -187500.02, -187500.02, -187500.02, -187500.02, 0.00, 0.00, 0.00, 0.00, 0.00
118, 0.00, -187500.02, -187500.02, -187500.02, -187500.02, -187500.02, 0.00, 0.00, 0.00, 0.00, 0.00
119, 0.00, -187500.02, -187500.02, -187500.02, -187500.02, -187500.02, 0.00, 0.00, 0.00, 0.00, 0.00
120, 0.00, -187500.02, -187500.02, -187500.02, -187500.02, -187500.02, 0.00, 0.00, 0.00, 0.00, 0.00
121, 0.00, -187500.02, -187500.02, -187500.02, -187500.02, -187500.02, 0.00, 0.00, 0.00, 0.00, 0.00
122, 0.00, -187500.02, -187500.02, -187500.02, -187500.02, -187500.02, 0.00, 0.00, 0.00, 0.00, 0.00
123, 0.00, -187500.02, -187500.02, -187500.02, -187500.02, -187500.02, 0.00, 0.00, 0.00, 0.00, 0.00
124, 0.00, -187500.02, -187500.02, -187500.02, -187500.02, -187500.02, 0.00, 0.00, 0.00, 0.00, 0.00
125, 0.00, -187500.02, -187500.02, -187500.02, -187500.02, -187500.02, 0.00, 0.00, 0.00, 0.00, 0.00
126, 0.00, -187500.02, -187500.02, -187500.02, -187500.02, -187500.02, 0.00, 0.00, 0.00, 0.00, 0.00
127, 0.00, -187500.02, -187500.02, -187500.02, -187500.02, -187500.02, 0.00, 0.00, 0.00, 0.00, 0.00
128, 0.00, -187500.02, -187500.02, -187500.02, -187500.02, -187500.02, 0.00, 0.00, 0.00, 0.00, 0.00
129, 0.00, -187500.02, -187500.02, -187500.02, -187500.02, -187500.02, 0.00, 0.00, 0.00, 0.00, 0.00
130, 0.00, -187500.02, -187500.02, -187500.02, -187500.02, -187500.02, 0.00, 0.00, 0.00, 0.00, 0.00
131, 0.00, -187500.02, -187500.02, -187500.02, -187500.02, -187500.02, 0.00, 0.00, 0.00, 0.00, 0.00
132, 0.00, -187500.02, -187500.02, -187500.02, -187500.02, -187500.02, 0.00, 0.00, 0.00, 0.00, 0.00
133, 0.00, -187500.02, -187500.02, -187500.02, -187500.02, -187500.02, 0.00, 0.00, 0.00, 0.00, 0.00
134, 0.00, -187500.02, -187500.02, -187500.02, -187500.02, -187500.02, 0.00, 0.00, 0.00, 0.00, 0.00
135, 0.00, -187500.02, -187500.02, -187500.02, -187500.02, -187500.02, 0.00, 0.00, 0.00, 0.00, 0.00
136, 0.00, -187500.02, -187500.02, -187500.02, -187500.02, -187500.02, 0.00, 0.00, 0.00, 0.00, 0.00
137, 0.00, -187500.02, -187500.02, -187500.02, -187500.02, -187500.02, 0.00, 0.00, 0.00, 0.00, 0.00
138, 0.00, -187500.02, -187500.02, -187500.02, -187500.02, -187500.02, 0.00, 0.00, 0.00, 0.00, 0.00
139, 0.00, -187500.02, -187500.02, -187500.02, -187500.02, -187500.02, 0.00, 0.00, 0.00, 0.00, 0.00
140, 0.00, -187500.02, -187500.02, -187500.02, -187500.02, -187500.02, 0.00, 0.00, 0.00, 0.00, 0.00
141, 0.00, -187500.02, -187500.02, -187500.02, -187500.02, -187500.02, 0.00, 0.00, 0.00, 0.00, 0.00
142, 0.00, -187500.02, -187500.02, -187500.02, -187500.02, -187500.02, 0.00, 0.00, 0.00, 0.00, 0.00
143, 0.00, -187500.02, -187500.02, -187500.02, -187500.02, -187500.02, 0.00, 0.00, 0.00, 0.00, 0.00
144, 0.00, -187500.02, -187500.02, -187500.02, -187500.02, -187500.02, 0.00, 0.00, 0.00, 0.00, 0.00
145, 0.00, -187500.02, -187500.02, -187500.02, -187500.02, -187500.02, 0.00, 0.00, 0.00, 0.00, 0.00
146, 0.00, -187500.02, -187500.02, -187500.02, -187500.02, -187500.02, 0.00, 0.00, 0.00, 0.00, 0.00
147, 0.00, -187500.02, -187500.02, -187500.02, -187500.02, -187500.02, 0.00, 0.00, 0.00, 0.00, 0.00
148, 0.00, -187500.02, -187500.02, -187500.02, -187500.02, -187500.02, 0.00, 0.00, 0.00, 0.00, 0.00
149, 0.00, -187500.02, -187500.02, -187500.02, -187500.02, -187500.02, 0.00, 0.00, 0.00, 0.00, 0.00
150, 0.00, -187500.02, -187500.02, -187500.02, -187500.02, -187500.02, 0.00, 0.00, 0.00, 0.00, 0.00
151, 0.00, -187500.02, -187500.02, -187500.02, -187500.02, -187500.02, 0.00, 0.00, 0.00, 0.00, 0.00
152, 0.00, -187500.02, -187500.02, -187500.02, -187500.02, -187500.02, 0.00, 0.00, 0.00, 0.00, 0.00
153, 0.00, -187500.02, -187500.02, -187500.02, -187500.02, -187500.02, 0.00, 0.00, 0.00, 0.00, 0.00
154, 0.00, -187500.02, -187500.02, -187500.02, -187500.02, -187500.02, 0.00, 0.00, 0.00, 0.00, 0.00
155, 0.00, -187500.02, -187500.02, -187500.02, -187500.02, -187500.02, 0.00, 0.00, 0.00, 0.00, 0.00
156, 0.00, -187500.02, -187500.02, -187500.02, -187500.02, -187500.02, 0.00, 0.00, 0.00, 0.00, 0.00
157, 0.00, -187500.02, -187500.02, -187500.02, -187500.02, -187500.02, 0.00, 0.00, 0.00, 0.00, 0.00
158, 0.00, -187500.02, -187500.02, -187500.02, -187500.02, -187500.02, 0.00, 0.00, 0.00, 0.00, 0.00
159, 0.00, -187500.02, -187500.02, -187500.02, -187500.02, -187500.02, 0.00, 0.00, 0.00, 0.00, 0.00
160, 0.00, -187500.02, -187500.02, -187500.02, -187500.02, -187500.02, 0.00, 0.00, 0.00, 0.00, 0.00
161, 0.00, -187500.02, -187500.02, -187500.02, -187500.02, -187500.02, 0.00, 0.00, 0.00, 0.00, 0.00
162, 0.00, -187500.02, -187500.02, -187500.02, -187500.02, -187500.02, 0.00, 0.00, 0.00, 0.00, 0.00
163, 0.00, -187500.02, -187500.02, -187500.02, -187500.02, -187500.02, 0.00, 0.00, 0.00, 0.00, 0.00
164, 0.00, -187500.02, -187500.02, -187500.02, -187500.02, -187500.02, 0.00, 0.00, 0.00, 0.00, 0.00
165, 0.00, -187500.02, -187500.02, -187500.02, -187500.02, -187500.02, 0.00, 0.00, 0.00, 0.00, 0.00
166, 0.00, -187500.02, -187500.02, -187500.02, -187500.02, -187500.02, 0.00, 0.00, 0.00, 0.00, 0.00
167, 0.00, -187500.02, -187500.02, -187500.02, -187500.02, -187500.02, 0.00, 0.00, 0.00, 0.00, 0.00
168, 0.00, -187500.02, -187500.02, -187500.02, -187500.02, -187500.02, 0.00, 0.00, 0.00, 0.00, 0.00
169, 0.00, -187500.02, -187500.02, -187500.02, -187500.02, -187500.02, 0.00, 0.00, 0.00, 0.00, 0.00
170, 0.00, -187500.02, -187500.02, -187500.02, -187500.02, -187500.02, 0.00, 0.00, 0.00, 0.00, 0.00
171, 0.00, -187500.02, -187500.02, -187500.02, -187500.02, -187500.02, 0.00, 0.00, 0.00, 0.00, 0.00
172, 0.00, -187500.02, -187500.02, -187500.02, -187500.02, -187500.02, 0.00, 0.00, 0.00, 0.00, 0.00
173, 0.00, -187500.02, -187500.02, -187500.02, -187500.02, -187500.02, 0.00, 0.00, 0.00, 0.00, 0.00
174, 0.00, -187500.02, -187500.02, -187500.02, -187500.02, -187500.02, 0.00, 0.00, 0.00, 0.00, 0.00
175, 0.00, -187500.02, -187500.02, -187500.02, -187500.02, -187500.02, 0.00, 0.00, 0.00, 0.00, 0.00
176, 0.00, -187500.02, -187500.02, -187500.02, -187500.02, -187500.02, 0.00, 0.00, 0.00, 0.00, 0.00
177, 0.00, -187500.02, -187500.02, -187500.02, -187500.02, -187500.02, 0.00, 0.00, 0.00, 0.00, 0.00
178, 0.00, -187500.02, -187500.02, -187500.02, -187500.02, -187500.02, 0.00, 0.00, 0.00, 0.00, 0.00
179, 0.00, -187500.02, -187500.02, -187500.02, -187500.02, -187500.02, 0.00, 0.00, 0.00, 0.00, 0.00
180, 0.00, -187500.02, -187500.02, -187500.02, -187500.02, -187500.02, 0.00, 0.00, 0.00, 0.00, 0.00
181, 0.00, -187500.02, -187500.02, -187500.02, -187500.02, -187500.02, 0.00, 0.00, 0.00, 0.00, 0.00
182, 0.00, -187500.02, -187500.02, -187500.02, -187500.02, -187500.02, 0.00, 0.00, 0.00, 0.00, 0.00
183, 0.00, -187500.02, -187500.02, -187500.02, -187500.02, -187500.02, 0.00, 0.00, 0.00, 0.00, 0.00
184, 0.00, -187500.02, -187500.02, -187500.02, -187500.02, -187500.02, 0.00, 0.00, 0.00, 0.00, 0.00
185, 0.00, -187500.02, -187500.02, -187500.02, -187500.02, -187500.02, 0.00, 0.00, 0.00, 0.00, 0.00
186, 0.00, -187500.02, -187500.02, -187500.02, -187500.02, -187500.02, 0.00, 0.00, 0.00, 0.00, 0.00
187, 0.00, -187500.02, -187500.02, -187500.02, -187500.02, -187500.02, 0.00, 0.00, 0.00, 0.00, 0.00
188, 0.00, -187500.02, -187500.02, -187500.02, -187500.02, -187500.02, 0.00, 0.00, 0.00, 0.00, 0.00
189, 0.00, -187500.02, -187500.02, -187500.02, -187500.02, -187500.02, 0.00, 0.00, 0.00, 0.00, 0.00
190, 0.00, -187500.02, -187500.02, -187500.02, -187500.02, -187500.02, 0.00, 0.00, 0.00, 0.00, 0.00
191, 0.00, -187500.02, -187500.02, -187500.02, -187500.02, -187500.02, 0.00, 0.00, 0.00, 0.00, 0.00
192, 0.00, -187500.02, -187500.02, -187500.02, -187500.02, -187500.02, 0.00, 0.00, 0.00, 0.00, 0.00
193, 0.00, -187500.02, -187500.02, -187500.02, -187500.02, -187500.02, 0.00, 0.00, 0.00, 0.00, 0.00
194, 0.00, -187500.02, -187500.02, -187500.02, -187500.02, -187500.02, 0.00, 0.00, 0.00, 0.00, 0.00
195, 0.00, -187500.02, -187500.02, -187500.02, -187500.02, -187500.02, 0.00, 0.00, 0.00, 0.00, 0.00
196, 0.00, -187500.02, -187500.02, -187500.02, -187500.02, -187500.02, 0.00, 0.00, 0.00, 0.00, 0.00
197, 0.00, -187500.02, -187500.02, -187500.02, -187500.02, -187500.02, 0.00, 0.00, 0.00, 0.00, 0.00
198, 0.00, -187500.02, -187500.02, -187500.02, -187500.02, -187500.02, 0.00, 0.00, 0.00, 0.00, 0.00
199, 0.00, -187500.02, -187500.02, -187500.02, -187500.02, -187500.02, 0.00, 0.00, 0.00, 0.00, 0.00
200, 0.00, -187500.02, -187500.02, -187500.02, -187500.02, -187500.02, 0.00, 0.00, 0.00, 0.00, 0.00
201, 0.00, -187500.02, -187500.02, -187500.02, -187500.02, -187500.02, 0.00, 0.00, 0.00, 0.00, 0.00
202, 0.00, -187500.02, -187500.02, -187500.02, -187500.02, -187500.02, 0.00, 0.00, 0.00, 0.00, 0.00
203, 0.00, -187500.02, -187500.02, -187500.02, -187500.02, -187500.02, 0.00, 0.00, 0.00, 0.00, 0.00
204, 0.00, -187500.02, -187500.02, -187500.02, -187500.02, -187500.02, 0.00, 0.00, 0.00, 0.00, 0.00
205, 0.00, -187500.02, -187500.02, -187500.02, -187500.02, -187500.02, 0.00, 0.00, 0.00, 0.00, 0.00
206, 0.00, -187500.02, -187500.02, -187500.02, -187500.02, -187500.02, 0.00, 0.00, 0.00, 0.00, 0.00
207, 0.00, -187500.02, -187500.02, -187500.02, -187500.02, -187500.02, 0.00, 0.00, 0.00, 0.00, 0.00
208, 0.00, -187500.02, -187500.02, -187500.02, -187500.02, -187500.02, 0.00, 0.00, 0.00, 0.00, 0.00
209, 0.00, -187500.02, -187500.02, -187500.02, -187500.02, -187500.02, 0.00, 0.00, 0.00, 0.00, 0.00
210, 0.00, -187500.02, -187500.02, -187500.02, -187500.02, -187500.02, 0.00, 0.00, 0.00, 0.00, 0.00
211, 0.00, -187500.02, -187500.02, -187500.02, -187500.02, -187500.02, 0.00, 0.00, 0.00, 0.00, 0.00
212, 0.00, -187500.02, -187500.02, -187500.02, -187500.02, -187500.02, 0.00, 0.00, 0.00, 0.00, 0.00
213, 0.00, -187500.02, -187500.02, -187500.02, -187500.02, -187500.02, 0.00, 0.00, 0.00, 0.00, 0.00
214, 0.00, -187500.02, -187500.02, -187500.02, -187500.02, -187500.02, 0.00, 0.00, 0.00, 0.00, 0.00
215, 0.00, -187500.02, -187500.02, -187500.02, -187500.02, -187500.02, 0.00, 0.00, 0.00, 0.00, 0.00
216, 0.00, -187500.02, -187500.02, -187500.02, -187500.02, -187500.02, 0.00, 0.00, 0.00, 0.00, 0.00
217, 0.00, -187500.02, -187500.02, -187500.02, -187500.02, -187500.02, 0.00, 0.00, 0.00, 0.00, 0.00
218, 0.00, -187500.02, -187500.02, -187500.02, -187500.02, -187500.02, 0.00, 0.00, 0.00, 0.00, 0.00
219, 0.00, -187500.02, -187500.02, -187500.02, -187500.02, -187500.02, 0.00, 0.00, 0.00, 0.00, 0.00
220, 0.00, -187500.02, -187500.02, -187500.02, -187500.02, -187500.02, 0.00, 0.00, 0.00, 0.00, 0.00
221, 0.00, -187500.02, -187500.02, -187500.02, -187500.02, -187500.02, 0.00, 0.00, 0.00, 0.00, 0.00
222, 0.00, -187500.02, -187500.02, -187500.02, -187500.02, -187500.02, 0.00, 0.00, 0.00, 0.00, 0.00
223, 0.00, -187500.02, -187500.02, -187500.02, -187500.02, -187500.02, 0.00, 0.00, 0.00, 0.00, 0.00
224, 0.00, -187500.02, -187500.02, -187500.02, -187500.02, -187500.02, 0.00, 0.00, 0.00, 0.00, 0.00
225, 0.00, -187500.02, -187500.02, -187500.02, -187500.02, -187500.02, 0.00, 0.00, 0.00, 0.00, 0.00
226, 0.00, -187500.02, -187500.02, -187500.02, -187500.02, -187500.02, 0.00, 0.00, 0.00, 0.00, 0.00
227, 0.00, -187500.02, -187500.02, -187500.02, -187500.02, -187500.02, 0.00, 0.00, 0.00, 0.00, 0.00
228, 0.00, -187500.02, -187500.02, -187500.02, -187500.02, -187500.02, 0.00, 0.00, 0.00, 0.00, 0.00
229, 0.00, -187500.02, -187500.02, -187500.02, -187500.02, -187500.02, 0.00, 0.00, 0.00, 0.00, 0.00
230, 0.00, -187500.02, -187500.02, -187500.02, -187500.02, -187500.02, 0.00, 0.00, 0.00, 0.00, 0.00
231, 0.00, -187500.02, -187500.02, -187500.02, -187500.02, -187500.02, 0.00, 0.00, 0.00, 0.00, 0.00
232, 0.00, -187500.02, -187500.02, -187500.02, -187500.02, -187500.02, 0.00, 0.00, 0.00, 0.00, 0.00
233, 0.00, -187500.02, -187500.02, -187500.02, -187500.02, -187500.02, 0.00, 0.00, 0.00, 0.00, 0.00
234, 0.00, -187500.02, -187500.02, -187500.02, -187500.02, -187500.02, 0.00, 0.00, 0.00, 0.00, 0.00
235, 0.00, -187500.02, -187500.02, -187500.02, -187500.02, -187500.02, 0.00, 0.00, 0.00, 0.00, 0.00
236, 0.00, -187500.02, -187500.02, -187500.02, -187500.02, -187500.02, 0.00, 0.00, 0.00, 0.00, 0.00
237, 0.00, -187500.02, -187500.02, -187500.02, -187500.02, -187500.02, 0.00, 0.00, 0.00, 0.00, 0.00
238, 0.00, -187500.02, -187500.02, -187500.02, -187500.02, -187500.02, 0.00, 0.00, 0.00, 0.00, 0.00
239, 0.00, -187500.02, -187500.02, -187500.02, -187500.02, -187500.02, 0.00, 0.00, 0.00, 0.00, 0.00
240, 0.00, -187500.02, -187500.02, -187500.02, -187500.02, -187500.02, 0.00, 0.00, 0.00, 0.00, 0.00
241, 0.00, -187500.02, -187500.02, -187500.02, -187500.02, -187500.02, 0.00, 0.00, 0.00, 0.00, 0.00
242, 0.00, -187500.02, -187500.02, -187500.02, -187500.02, -187500.02, 0.00, 0.00, 0.00, 0.00, 0.00
243, 0.00, -187500.02, -187500.02, -187500.02, -187500.02, -187500.02, 0.00, 0.00, 0.00, 0.00, 0.00
244, 0.00, -187500.02, -187500.02, -187500.02, -187500.02, -187500.02, 0.00, 0.00, 0.00, 0.00, 0.00
245, 0.00, -187500.02, -187500.02, -187500.02, -187500.02, -187500.02, 0.00, 0.00, 0.00, 0.00, 0.00
246, 0.00, -187500.02, -187500.02, -187500.02, -187500.02, -187500.02, 0.00, 0.00, 0.00, 0.00, 0.00
247, 0.00, -187500.02, -187500.02, -187500.02, -187500.02, -187500.02, 0.00, 0.00, 0.00, 0.00, 0.00
248, 0.00, -187500.02, -187500.02, -187500.02, -187500.02, -187500.02, 0.00, 0.00, 0.00, 0.00, 0.00
249, 0.00, -187500.02, -187500.02, -187500.02, -187500.02, -187500.02, 0.00, 0.00, 0.00, 0.00, 0.00
250, 0.00, -187500.02, -187500.02, -187500.02, -187500.02, -187500.02, 0.00, 0.00, 0.00, 0.00, 0.00
251, 0.00, -187500.02, -187500.02, -187500.02, -187500.02, -187500.02, 0.00, 0.00, 0.00, 0.00, 0.00
252, 0.00, -187500.02, -187500.02, -187500.02, -187500.02, -187500.02, 0.00, 0.00, 0.00, 0.00, 0.00
253, 0.00, -187500.02, -187500.02, -187500.02, -187500.02, -187500.02, 0.00, 0.00, 0.00, 0.00, 0.00
254, 0.00, -187500.02, -187500.02, -187500.02, -187500.02, -187500.02, 0.00, 0.00, 0.00, 0.00, 0.00
255, 0.00, -187500.02, -187500.02, -187500.02, -187500.02, -187500.02, 0.00, 0.00, 0.00, 0.00, 0.00
0, 0.00, -187500.02, -187500.02, -187500.02, -187500.02, -187500.02, 0.00, 0.00, 0.00, 0.00, 0.00
1, 0.00, -187500.02, -187500.02, -187500.02, -187500.02, -187500.02, 0.00, 0.00, 0.00, 0.00, 0.00
2, 0.00, -187500.02, -187500.02, -187500.02, -187500.02, -187500.02, 0.00, 0.00, 0.00, 0.00, 0.00
3, 0.00, -187500.02, -187500.02, -187500.02, -187500.02, -187500.02, 0.00, 0.00, 0.00, 0.00, 0.00
4, 0.00, -187500.02, -187500.02, -187500.02, -187500.02, -187500.02, 0.00, 0.00, 0.00, 0.00, 0.00
5, 0.00, -187500.02, -187500.02, -187500.02, -187500.02, -187500.02, 0.00, 0.00, 0.00, 0.00, 0.00
6, 0.00, -187500.02, -187500.02, -187500.02, -187500.02, -187500.02, 0.00, 0.00, 0.00, 0.00, 0.00
7, 0.00, -187500.02, -187500.02, -187500.02, -187500.02, -187500.02, 0.00, 0.00, 0.00, 0.00, 0.00
8, 0.00, -187500.02, -187500.02, -187500.02, -187500.02, -187500.02, 0.00, 0.00, 0.00, 0.00, 0.00
9, 0.00, -187500.02, -187500.02, -187500.02, -187500.02, -187500.02, 0.00, 0.00, 0.00, 0.00, 0.00
10, 0.00, -187500.02, -187500.02, -187500.02, -187500.02, -187500.02, 0.00, 0.00, 0.00, 0.00, 0.00
11, 0.00, -187500.02, -187500.02, -187500.02, -187500.02, -187500.02, 0.00, 0.00, 0.00, 0.00, 0.00
12, 0.00, -187500.02, -187500.02, -187500.02, -187500.02, -187500.02, 0.00, 0.00, 0.00, 0.00, 0.00
13, 0.00, -187500.02, -187500.02, -187500.02, -187500.02, -187500.02, 0.00, 0.00, 0.00, 0.00, 0.00
14, 0.00, -187500.02, -187500.02, -187500.02, -187500.02, -187500.02, 0.00, 0.00, 0.00, 0.00, 0.00
15, 0.00, -187500.02, -187500.02, -187500.02, -187500.02, -187500.02, 0.00, 0.00, 0.00, 0.00, 0.00
16, 0.00, -187500.02, -187500.02, -187500.02, -187500.02, -187500.02, 0.00, 0.00, 0.00, 0.00, 0.00
17, 0.00, -187500.02, -187500.02, -187500.02, -187500.02, -187500.02, 0.00, 0.00, 0.00, 0.00, 0.00
18, 0.00, -187500.02, -187500.02, -187500.02, -187500.02, -187500.02, 0.00, 0.00, 0.00, 0.00, 0.00
19, 0.00, -187500.02, -187500.02, -187500.02, -187500.02, -187500.02, 0.00, 0.00, 0.00, 0.00, 0.00
20, 0.00, -187500.02, -187500.02, -187500.02, -187500.02, -187500.02, 0.00, 0.00, 0.00, 0.00, 0.00
21, 0.00, -187500.02, -187500.02, -187500.02, -187500.02, -187500.02, 0.00, 0.00, 0.00, 0.00, 0.00
22, 0.00, -187500.02, -187500.02, -187500.02, -187500.02, -187500.02, 0.00, 0.00, 0.00, 0.00, 0.00
23, 0.00, -187500.02, -187500.02, -187500.02, -187500.02, -187500.02, 0.00, 0.00, 0.00, 0.00, 0.00
24, 0.00, -187500.02, -187500.02, -187500.02, -187500.02, -187500.02, 0.00, 0.00, 0.00, 0.00, 0.00
25, 0.00, -187500.02, -187500.02, -187500.02, -187500.02, -187500.02, 0.00, 0.00, 0.00, 0.00, 0.00
26, 0.00, -187500.02, -187500.02, -187500.02, -187500.02, -187500.02, 0.00, 0.00, 0.00, 0.00, 0.00
27, 0.00, -187500.02, -187500.02, -187500.02, -187500.02, -187500.02, 0.00, 0.00, 0.00, 0.00, 0.00
28, 0.00, -187500.02, -187500.02, -187500.02, -187500.02, -187500.02, 0.00, 0.00, 0.00, 0.00, 0.00
29, 0.00, -187500.02, -187500.02, -187500.02, -187500.02, -187500.02, 0.00, 0.00, 0.00, 0.00, 0.00
30, 0.00, -187500.02, -187500.02, -187500.02, -187500.02, -187500.02, 0.00, 0.00, 0.00, 0.00, 0.00
31, 0.00, -187500.02, -187500.02, -187500.02, -187500.02, -187500.02, 0.00, 0.00, 0.00, 0.00, 0.00
32, 0.00, -187500.02, -187500.02, -187500.02, -187500.02, -187500.02, 0.00, 0.00, 0.00, 0.00, 0.00
33, 0.00, -187500.02, -187500.02, -187500.02, -187500.02, -187500.02, 0.00, 0.00, 0.00, 0.00, 0.00
34, 0.00, -187500.02, -187500.02, -187500.02, -187500.02, -187500.02, 0.00, 0.00, 0.00, 0.00, 0.00
35, 0.00, -187500.02, -187500.02, -187500.02, -187500.02, -187500.02, 0.00, 0.00, 0.00, 0.00, 0.00
36, 0.00, -187500.02, -187500.02, -187500.02, -187500.02, -187500.02, 0.00, 0.00, 0.00, 0.00, 0.00
37, 0.00, -187500.02, -187500.02, -187500.02, -187500.02, -187500.02, 0.00, 0.00, 0.00, 0.00, 0.00
38, 0.00, -187500.02, -187500.02, -187500.02, -187500.02, -187500.02, 0.00, 0.00, 0.00, 0.00, 0.00
39, 0.00, -187500.02, -187500.02, -187500.02, -187500.02, -187500.02, 0.00, 0.00, 0.00, 0.00, 0.00
40, 0.00, -187500.02, -187500.02, -187500.02, -187500.02, -187500.02, 0.00, 0.00, 0.00, 0.00, 0.00
41, 0.00, -187500.02, -187500.02, -187500.02, -187500.02, -187500.02, 0.00, 0.00, 0.00, 0.00, 0.00
42, 0.00, -187500.02, -187500.02, -187500.02, -187500.02, -187500.02, 0.00, 0.00, 0.00, 0.00, 0.00
43, 0.00, -187500.02, -187500.02, -187500.02, -187500.02, -187500.02, 0.00, 0.00, 0.00, 0.00, 0.00
44, 0.00, -187500.02, -187500.02, -187500.02, -187500.02, -187500.02, 0.00, 0.00, 0.00, 0.00, 0.00
45, 0.00, -187500.02, -187500.02, -187500.02, -187500.02, -187500.02, 0.00, 0.00, 0.00, 0.00, 0.00
46, 0.00, -187500.02, -187500.02, -187500.02, -187500.02, -187500.02, 0.00, 0.00, 0.00, 0.00, 0.00
47, 0.00, -187500.02, -187500.02, -187500.02, -187500.02, -187500.02, 0.00, 0.00, 0.00, 0.00, 0.00
48, 0.00, -187500.02, -187500.02, -187500.02, -187500.02, -187500.02, 0.00, 0.00, 0.00, 0.00, 0.00
49, 0.00, -187500.02, -187500.02, -187500.02, -187500.02, -187500.02, 0.00, 0.00, 0.00, 0.00, 0.00
50, 0.00, -187500.02, -187500.02, -187500.02, -187500.02, -187500.02, 0.00, 0.00, 0.00, 0.00, 0.00
51, 0.00, -187500.02, -187500.02, -187500.02, -187500.02, -187500.02, 0.00, 0.00, 0.00, 0.00, 0.00
52, 0.00, -187500.02, -187500.02, -187500.02, -187500.02, -187500.02, 0.00, 0.00, 0.00, 0.00, 0.00
53, 0.00, -187500.02, -187500.02, -187500.02, -187500.02, -187500.02, 0.00, 0.00, 0.00, 0.00, 0.00
54, 0.00, -187500.02, -187500.02, -187500.02, -187500.02, -187500.02, 0.00, 0.00, 0.00, 0.00, 0.00
55, 0.00, -187500.02, -187500.02, -187500.02, -187500.02, -187500.02, 0.00, 0.00, 0.00, 0.00, 0.00
56, 0.00, -187500.02, -187500.02, -187500.02, -187500.02, -187500.02, 0.00, 0.00, 0.00, 0.00, 0.00
57, 0.00, -187500.02, -187500.02, -187500.02, -187500.02, -187500.02, 0.00, 0.00, 0.00, 0.00, 0.00
58, 0.00, -187500.02, -187500.02, -187500.02, -187500.02, -187500.02, 0.00, 0.00, 0.00, 0.00, 0.00
59, 0.00, -187500.02, -187500.02, -187500.02, -187500.02, -187500.02, 0.00, 0.00, 0.00, 0.00, 0.00
60, 0.00, -187500.02, -187500.02, -187500.02, -187500.02, -187500.02, 0.00, 0.00, 0.00, 0.00, 0.00
61, 0.00, -187500.02, -187500.02, -187500.02, -187500.02, -187500.02, 0.00, 0.00, 0.00, 0.00, 0.00
62, 0.00, -187500.02, -187500.02, -187500.02, -187500.02, -187500.02, 0.00, 0.00, 0.00, 0.00, 0.00
63, 0.00, -187500.02, -187500.02, -187500.02, -187500.02, -187500.02, 0.00, 0.00, 0.00, 0.00, 0.00
64, 0.00, -187500.02, -187500.02, -187500.02, -187500.02, -187500.02, 0.00, 0.00, 0.00, 0.00, 0.00
65, 0.00, -187500.02, -187500.02, -187500.02, -187500.02, -187500.02, 0.00, 0.00, 0.00, 0.00, 0.00
66, 0.00, -187500.02, -187500.02, -187500.02, -187500.02, -187500.02, 0.00, 0.00, 0.00, 0.00, 0.00
67, 0.00, -187500.02, -187500.02, -187500.02, -187500.02, -187500.02, 0.00, 0.00, 0.00, 0.00, 0.00
68, 0.00, -187500.02, -187500.02, -187500.02, -187500.02, -187500.02, 0.00, 0.00, 0.00, 0.00, 0.00
69, 0.00, -187500.02, -187500.02, -187500.02, -187500.02, -187500.02, 0.00, 0.00, 0.00, 0.00, 0.00
70, 0.00, -187500.02, -187500.02, -187500.02, -187500.02, -187500.02, 0.00, 0.00, 0.00, 0.00, 0.00
71, 0.00, -187500.02, -187500.02, -187500.02, -187500.02, -187500.02, 0.00, 0.00, 0.00, 0.00, 0.00
72, 0.00, -187500.02, -187500.02, -187500.02, -187500.02, -187500.02, 0.00, 0.00, 0.00, 0.00, 0.00
73, 0.00, -187500.02, -187500.02, -187500.02, -187500.02, -187500.02, 0.00, 0.00, 0.00, 0.00, 0.00
74, 0.00, -187500.02, -187500.02, -187500.02, -187500.02, -187500.02, 0.00, 0.00, 0.00, 0.00, 0.00
75, 0.00, -187500.02, -187500.02, -187500.02, -187500.02, -187500.02, 0.00, 0.00, 0.00, 0.00, 0.00
76, 0.00, -187500.02, -187500.02, -187500.02, -187500.02, -187500.02, 0.00, 0.00, 0.00, 0.00, 0.00
77, 0.00, -187500.02, -187500.02, -187500.02, -187500.02, -187500.02, 0.00, 0.00, 0.00, 0.00, 0.00
78, 0.00, -187500.02, -187500.02, -187500.02, -187500.02, -187500.02, 0.00, 0.00, 0.00, 0.00, 0.00
79, 0.00, -187500.02, -187500.02, -187500.02, -187500.02, -187500.02, 0.00, 0.00, 0.00, 0.00, 0.00
80, 0.00, -187500.02, -187500.02, -187500.02, -187500.02, -187500.02, 0.00, 0.00, 0.00, 0.00, 0.00
81, 0.00, -187500.02, -187500.02, -187500.02, -187500.02, -187500.02, 0.00, 0.00, 0.00, 0.00, 0.00
82, 0.00, -187500.02, -187500.02, -187500.02, -187500.02, -187500.02, 0.00, 0.00, 0.00, 0.00, 0.00
83, 0.00, -187500.02, -187500.02, -187500.02, -187500.02, -187500.02, 0.00, 0.00, 0.00, 0.00, 0.00
84, 0.00, -187500.02, -187500.02, -187500.02, -187500.02, -187500.02, 0.00, 0.00, 0.00, 0.00, 0.00
85, 0.00, -187500.02, -187500.02, -187500.02, -187500.02, -187500.02, 0.00, 0.00, 0.00, 0.00, 0.00
86, 0.00, -187500.02, -187500.02, -187500.02, -187500.02, -187500.02, 0.00, 0.00, 0.00, 0.00, 0.00
87, 0.00, -187500.02, -187500.02, -187500.02, -187500.02, -187500.02, 0.00, 0.00, 0.00, 0.00, 0.00
88, 0.00, -187500.02, -187500.02, -187500.02, -187500.02, -187500.02, 0.00, 0.00, 0.00, 0.00, 0.00
89, 0.00, -187500.02, -187500.02, -187500.02, -187500.02, -187500.02, 0.00, 0.00, 0.00, 0.00, 0.00
90, 0.00, -187500.02, -187500.02, -187500.02, -187500.02, -187500.02, 0.00, 0.00, 0.00, 0.00, 0.00
91, 0.00, -187500.02, -187500.02, -187500.02, -187500.02, -187500.02, 0.00, 0.00, 0.00, 0.00, 0.00
92, 0.00, -187500.02, -187500.02, -187500.02, -187500.02, -187500.02, 0.00, 0.00, 0.00, 0.00, 0.00
93, 0.00, -187500.02, -187500.02, -187500.02, -187500.02, -187500.02, 0.00, 0.00, 0.00, 0.00, 0.00
94, 0.00, -187500.02, -187500.02, -187500.02, -187500.02, -187500.02, 0.00, 0.00, 0.00, 0.00, 0.00
95, 0.00, -187500.02, -187500.02, -187500.02, -187500.02, -187500.02, 0.00, 0.00, 0.00, 0.00, 0.00
96, 0.00, -187500.02, -187500.02, -187500.02, -187500.02, -187500.02, 0.00, 0.00, 0.00, 0.00, 0.00
97, 0.00, -187500.02, -187500.02, -187500.02, -187500.02, -187500.02, 0.00, 0.00, 0.00, 0.00, 0.00
98, 0.00, -187500.02, -187500.02, -187500.02, -187500.02, -187500.02, 0.00, 0.00, 0.00, 0.00, 0.00
99, 0.00, -187500.02, -187500.02, -187500.02, -187500.02, -187500.02, 0.00, 0.00, 0.00, 0.00, 0.00
100, 0.00, -187500.02, -187500.02, -187500.02, -187500.02, -187500.02, 0.00, 0.00, 0.00, 0.00, 0.00
101, 0.00, -187500.02, -187500.02, -187500.02, -187500.02, -187500.02, 0.00, 0.00, 0.00, 0.00, 0.00
102, 0.00, -187500.02, -187500.02, -187500.02, -187500.02, -187500.02, 0.00, 0.00, 0.00, 0.00, 0.00
103, 0.00, -187500.02, -187500.02, -187500.02, -187500.02, -187500.02, 0.00, 0.00, 0.00, 0.00, 0.00
104, 0.00, -187500.02, -187500.02, -187500.02, -187500.02, -187500.02, 0.00, 0.00, 0.00, 0.00, 0.00
105, 0.00, -187500.02, -187500.02, -187500.02, -187500.02, -187500.02, 0.00, 0.00, 0.00, 0.00, 0.00
106, 0.00, -187500.02, -187500.02, -187500.02, -187500.02, -187500.02, 0.00, 0.00, 0.00, 0.00, 0.00
107, 0.00, -187500.02, -187500.02, -187500.02, -187500.02, -187500.02, 0.00, 0.00, 0.00, 0.00, 0.00
108, 0.00, -187500.02, -187500.02, -187500.02, -187500.02, -187500.02, 0.00, 0.00, 0.00, 0.00, 0.00
109, 0.00, -187500.02, -187500.02, -187500.02, -187500.02, -187500.02, 0.00, 0.00, 0.00, 0.00, 0.00
110, 0.00, -187500.02, -187500.02, -187500.02, -187500.02, -187500.02, 0.00, 0.00, 0.00, 0.00, 0.00
111, 0.00, -187500.02, -187500.02, -187500.02, -187500.02, -187500.02, 0.00, 0.00, 0.00, 0.00, 0.00
112, 0.00, -187500.02, -187500.02, -187500.02, -187500.02, -187500.02, 0.00, 0.00, 0.00, 0.00, 0.00
113, 0.00, -187500.02, -187500.02, -187500.02, -187500.02, -187500.02, 0.00, 0.00, 0.00, 0.00, 0.00
114, 0.00, -187500.02, -187500.02, -187500.02, -187500.02, -187500.02, 0.00, 0.00, 0.00, 0.00, 0.00
115, 0.00, -187500.02, -187500.02, -187500.02, -187500.02, -187500.02, 0.00, 0.00, 0.00, 0.00, 0.00
116, 0.00, -187500.02, -187500.02, -187500.02, -187500.02, -187500.02, 0.00, 0.00, 0.00, 0.00, 0.00
117, 0.00, -187500.02, -187500.02, -187500.02, -187500.02, -187500.02, 0.00, 0.00, 0.00, 0.00, 0.00
118, 0.00, -187500.02, -187500.02, -187500.02, -187500.02, -187500.02, 0.00, 0.00, 0.00, 0.00, 0.00
119, 0.00, -187500.02, -187500.02, -187500.02, -187500.02, -187500.02, 0.00, 0.00, 0.00, 0.00, 0.00
120, 0.00, -187500.02, -187500.02, -187500.02, -187500.02, -187500.02, 0.00, 0.00, 0.00, 0.00, 0.00
121, 0.00, -187500.02, -187500.02, -187500.02, -187500.02, -187500.02, 0.00, 0.00, 0.00, 0.00, 0.00
122, 0.00, -187500.02, -187500.02, -187500.02, -187500.02, -187500.02, 0.00, 0.00, 0.00, 0.00, 0.00
123, 0.00, -187500.02, -187500.02, -187500.02, -187500.02, -187500.02, 0.00, 0.00, 0.00, 0.00, 0.00
124, 0.00, -187500.02, -187500.02, -187500.02, -187500.02, -187500.02, 0.00, 0.00, 0.00, 0.00, 0.00
125, 0.00, -187500.02, -187500.02, -187500.02, -187500.02, -187500.02, 0.00, 0.00, 0.00, 0.00, 0.00
126, 0.00, -187500.02, -187500.02, -187500.02, -187500.02, -187500.02, 0.00, 0.00, 0.00, 0.00, 0.00
127, 0.00, -187500.02, -187500.02, -187500.02, -187500.02, -187500.02, 0.00, 0.00, 0.00, 0.00, 0.00
128, 0.00, -187500.02, -187500.02, -187500.02, -187500.02, -187500.02, 0.00, 0.00, 0.00, 0.00, 0.00
129, 0.00, -187500.02, -187500.02, -187500.02, -187500.02, -187500.02, 0.00, 0.00, 0.00, 0.00, 0.00
130, 0.00, -187500.02, -187500.02, -187500.02, -187500.02, -187500.02, 0.00, 0.00, 0.00, 0.00, 0.00
131, 0.00, -187500.02, -187500.02, -187500.02, -187500.02, -187500.02, 0.00, 0.00, 0.00, 0.00, 0.00
132, 0.00, -187500.02, -187500.02, -187500.02, -187500.02, -187500.02, 0.00, 0.00, 0.00, 0.00, 0.00
133, 0.00, -187500.02, -187500.02, -187500.02, -187500.02, -187500.02, 0.00, 0.00, 0.00, 0.00, 0.00
134, 0.00, -187500.02, -187500.02, -187500.02, -187500.02, -187500.02, 0.00, 0.00, 0.00, 0.00, 0.00
135, 0.00, -187500.02, -187500.02, -187500.02, -187500.02, -187500.02, 0.00, 0.00, 0.00, 0.00, 0.00
136, 0.00, -187500.02, -187500.02, -187500.02, -187500.02, -187500.02, 0.00, 0.00, 0.00, 0.00, 0.00
137, 0.00, -187500.02, -187500.02, -187500.02, -187500.02, -187500.02, 0.00, 0.00, 0.00, 0.00, 0.00
138, 0.00, -187500.02, -187500.02, -187500.02, -187500.02, -187500.02, 0.00, 0.00, 0.00, 0.00, 0.00
139, 0.00, -187500.02, -187500.02, -187500.02, -187500.02, -187500.02, 0.00, 0.00, 0.00, 0.00, 0.00
140, 0.00, -187500.02, -187500.02, -187500.02, -187500.02, -187500.02, 0.00, 0.00, 0.00, 0.00, 0.00
141, 0.00, -187500.02, -187500.02, -187500.02, -187500.02, -187500.02, 0.00, 0.00, 0.00, 0.00, 0.00
142, 0.00, -187500.02, -187500.02, -187500.02, -187500.02, -187500.02, 0.00, 0.00, 0.00, 0.00, 0.00
143, 0.00, -187500.02, -187500.02, -187500.02, -187500.02, -187500.02, 0.00, 0.00, 0.00, 0.00, 0.00
144, 0.00, -187500.02, -187500.02, -187500.02, -187500.02, -187500.02, 0.00, 0.00, 0.00, 0.00, 0.00
145, 0.00, -187500.02, -187500.02, -187500.02, -187500.02, -187500.02, 0.00, 0.00, 0.00, 0.00, 0.00
146, 0.00, -187500.02, -187500.02, -187500.02, -187500.02, -187500.02, 0.00, 0.00, 0.00, 0.00, 0.00
147, 0.00, -187500.02, -187500.02, -187500.02, -187500.02, -187500.02, 0.00, 0.00, 0.00, 0.00, 0.00
148, 0.00, -187500.02, -187500.02, -187500.02, -187500.02, -187500.02, 0.00, 0.00, 0.00, 0.00, 0.00
149, 0.00, -187500.02, -187500.02, -187500.02, -187500.02, -187500.02, 0.00, 0.00, 0.00, 0.00, 0.00
150, 0.00, -187500.02, -187500.02, -187500.02, -187500.02, -187500.02, 0.00, 0.00, 0.00, 0.00, 0.00
151, 0.00, -187500.02, -187500.02, -187500.02, -187500.02, -187500.02, 0.00, 0.00, 0.00, 0.00, 0.00
152, 0.00, -187500.02, -187500.02, -187500.02, -187500.02, -187500.02, 0.00, 0.00, 0.00, 0.00, 0.00
153, 0.00, -187500.02, -187500.02, -187500.02, -187500.02, -187500.02, 0.00, 0.00, 0.00, 0.00, 0.00
154, 0.00, -187500.02, -187500.02, -187500.02, -187500.02, -187500.02, 0.00, 0.00, 0.00, 0.00, 0.00
155, 0.00, -187500.02, -187500.02, -187500.02, -187500.02, -187500.02, 0.00, 0.00, 0.00, 0.00, 0.00
156, 0.00, -187500.02, -187500.02, -187500.02, -187500.02, -187500.02, 0.00, 0.00, 0.00, 0.00, 0.00
157, 0.00, -187500.02, -187500.02, -187500.02, -187500.02, -187500.02, 0.00, 0.00, 0.00, 0.00, 0.00
158, 0.00, -187500.02, -187500.02, -187500.02, -187500.02, -187500.02, 0.00, 0.00, 0.00, 0.00, 0.00
159, 0.00, -187500.02, -187500.02, -187500.02, -187500.02, -187500.02, 0.00, 0.00, 0.00, 0.00, 0.00
160, 0.00, -187500.02, -187500.02, -187500.02, -187500.02, -187500.02, 0.00, 0.00, 0.00, 0.00, 0.00
161, 0.00, -187500.02, -187500.02, -187500.02, -187500.02, -187500.02, 0.00, 0.00, 0.00, 0.00, 0.00
162, 0.00, -187500.02, -187500.02, -187500.02, -187500.02, -187500.02, 0.00, 0.00, 0.00, 0.00, 0.00
163, 0.00, -187500.02, -187500.02, -187500.02, -187500.02, -187500.02, 0.00, 0.00, 0.00, 0.00, 0.00
164, 0.00, -187500.02, -187500.02, -187500.02, -187500.02, -187500.02, 0.00, 0.00, 0.00, 0.00, 0.00
165, 0.00, -187500.02, -187500.02, -187500.02, -187500.02, -187500.02, 0.00, 0.00, 0.00, 0.00, 0.00
166, 0.00, -187500.02, -187500.02, -187500.02, -187500.02, -187500.02, 0.00, 0.00, 0.00, 0.00, 0.00
167, 0.00, -187500.02, -187500.02, -187500.02, -187500.02, -187500.02, 0.00, 0.00, 0.00, 0.00, 0.00
168, 0.00, -187500.02, -187500.02, -187500.02, -187500.02, -187500.02, 0.00, 0.00, 0.00, 0.00, 0.00
169, 0.00, -187500.02, -187500.02, -187500.02, -187500.02, -187500.02, 0.00, 0.00, 0.00, 0.00, 0.00
170, 0.00, -187500.02, -187500.02, -187500.02, -187500.02, -187500.02, 0.00, 0.00, 0.00, 0.00, 0.00
171, 0.00, -187500.02, -187500.02, -187500.02, -187500.02, -187500.02, 0.00, 0.00, 0.00, 0.00, 0.00
172, 0.00, -187500.02, -187500.02, -187500.02, -187500.02, -187500.02, 0.00, 0.00, 0.00, 0.00, 0.00
173, 0.00, -187500.02, -187500.02, -187500.02, -187500.02, -187500.02, 0.00, 0.00, 0.00, 0.00, 0.00
174, 0.00, -187500.02, -187500.02, -187500.02, -187500.02, -187500.02, 0.00, 0.00, 0.00, 0.00, 0.00
175, 0.00, -187500.02, -187500.02, -187500.02, -187500.02, -187500.02, 0.00, 0.00, 0.00, 0.00, 0.00
176, 0.00, -187500.02, -187500.02, -187500.02, -187500.02, -187500.02, 0.00, 0.00, 0.00, 0.00, 0.00
177, 0.00, -187500.02, -187500.02, -187500.02, -187500.02, -187500.02, 0.00, 0.00, 0.00, 0.00, 0.00
178, 0.00, -187500.02, -187500.02, -187500.02, -187500.02, -187500.02, 0.00, 0.00, 0.00, 0.00, 0.00
