%OpenBCI Raw EEG Data
%
%Sample Rate = 250.0 Hz
%First Column = SampleIndex
%Other Columns = EEG data in microvolts followed by Accel Data (in G) interleaved with Aux Data
0, -182836.64, -182777.42, -182894.44, -176738.75, 187500.00, -182943.88, -125066.45, -182972.88, -0.00, -0.00, -0.00
1, -182779.39, -182720.34, -182839.41, -179506.97, 187500.00, -182886.08, -123700.16, -182914.88, -0.00, -0.00, -0.00
2, -182677.67, -182618.59, -182742.61, -182555.77, 187500.00, -182783.27, -121699.50, -182811.64, -0.00, -0.00, -0.00
3, -182723.27, -182664.19, -182787.28, -181922.42, 187500.00, -182829.38, -122723.19, -182858.00, -0.00, -0.00, -0.00
4, -182838.36, -182779.16, -182896.83, -177386.48, 187500.00, -182945.58, -125183.00, -182974.56, -0.00, -0.00, -0.00
5, -182810.47, -182751.30, -182869.67, -178645.95, 187500.00, -182917.42, -124455.07, -182946.31, -0.00, -0.00, -0.00
6, -182696.63, -182637.69, -182761.31, -182385.77, 187500.00, -182802.48, -122186.90, -182830.94, -0.00, -0.00, -0.00
7, -182712.00, -182653.00, -182776.95, -182328.50, 187500.00, -182818.06, -122654.95, -182846.52, -0.00, -0.00, -0.00
8, -182831.27, -182772.02, -182890.55, -178285.38, 187500.00, -182938.41, -125235.45, -182967.16, -0.00, -0.00, -0.00
9, -182837.48, -182778.20, -182895.80, -177902.47, 187500.00, -182944.64, -125232.77, -182973.36, -0.00, -0.00, -0.00
10, -182720.28, -182661.27, -182784.20, -182097.63, 187500.00, -182826.33, -122865.23, -182854.66, -0.00, -0.00, -0.00
11, -182707.78, -182648.77, -182773.11, -182565.06, 187500.00, -182813.69, -122741.65, -182841.89, -0.00, -0.00, -0.00
12, -182822.89, -182763.75, -182883.28, -179222.92, 187500.00, -182930.05, -125237.45, -182958.56, -0.00, -0.00, -0.00
13, -182857.53, -182798.44, -182915.53, -177268.19, 187500.00, -182964.94, -125950.29, -182993.75, -0.00, -0.00, -0.00
14, -182751.30, -182692.22, -182814.44, -181642.31, 187500.00, -182857.48, -123637.09, -182886.06, -0.00, -0.00, -0.00
15, -182705.88, -182646.80, -182771.53, -182684.05, 187500.00, -182811.78, -122909.49, -182839.97, -0.00, -0.00, -0.00
16, -182808.16, -182749.00, -182869.77, -180146.11, 187500.00, -182915.19, -125132.34, -182943.64, -0.00, -0.00, -0.00
17, -182873.39, -182814.11, -182931.00, -176934.44, 187500.00, -182981.00, -126482.91, -183009.58, -0.00, -0.00, -0.00
18, -182780.06, -182720.97, -182842.05, -181030.06, 187500.00, -182886.75, -124387.54, -182915.16, -0.00, -0.00, -0.00
19, -182708.77, -182649.94, -182774.45, -182716.98, 187500.00, -182814.70, -123100.53, -182842.83, -0.00, -0.00, -0.00
20, -182796.22, -182737.27, -182859.03, -181008.80, 187500.00, -182902.95, -124919.13, -182931.44, -0.00, -0.00, -0.00
21, -182885.78, -182826.48, -182943.45, -176990.31, 187500.00, -182993.23, -126803.70, -183021.83, -0.00, -0.00, -0.00
22, -182811.05, -182751.86, -182872.00, -180284.67, 187500.00, -182917.81, -125170.08, -182946.36, -0.00, -0.00, -0.00
23, -182719.02, -182659.92, -182784.64, -182683.17, 187500.00, -182824.97, -123482.84, -182853.17, -0.00, -0.00, -0.00
24, -182779.13, -182720.05, -182842.94, -181701.03, 187500.00, -182885.72, -124799.44, -182914.17, -0.00, -0.00, -0.00
25, -182887.17, -182828.02, -182945.16, -177386.67, 187500.00, -182994.70, -127104.02, -183023.36, -0.00, -0.00, -0.00
26, -182840.02, -182780.88, -182899.94, -179441.81, 187500.00, -182947.08, -126062.18, -182975.64, -0.00, -0.00, -0.00
27, -182733.13, -182674.09, -182798.42, -182575.64, 187500.00, -182839.08, -124016.84, -182867.34, -0.00, -0.00, -0.00
28, -182767.33, -182708.25, -182831.98, -182182.20, 187500.00, -182873.58, -124773.89, -182901.95, -0.00, -0.00, -0.00
29, -182883.33, -182824.17, -182942.19, -177989.89, 187500.00, -182990.86, -127241.01, -183019.34, -0.00, -0.00, -0.00
30, -182867.13, -182807.94, -182926.25, -178588.02, 187500.00, -182974.45, -126821.49, -183002.94, -0.00, -0.00, -0.00
31, -182754.47, -182695.42, -182819.36, -182370.72, 187500.00, -182860.75, -124552.77, -182888.94, -0.00, -0.00, -0.00
32, -182759.30, -182700.19, -182824.75, -182487.92, 187500.00, -182865.66, -124727.60, -182893.67, -0.00, -0.00, -0.00
33, -182877.58, -182818.42, -182937.53, -178736.98, 187500.00, -182984.94, -127185.65, -183013.44, -0.00, -0.00, -0.00
34, -182891.28, -182832.14, -182949.83, -177750.59, 187500.00, -182998.83, -127453.71, -183027.34, -0.00, -0.00, -0.00
35, -182779.63, -182720.56, -182843.64, -182011.52, 187500.00, -182885.94, -125141.63, -182914.25, -0.00, -0.00, -0.00
36, -182753.06, -182694.02, -182818.88, -182669.88, 187500.00, -182859.19, -124747.77, -182887.38, -0.00, -0.00, -0.00
37, -182863.27, -182804.00, -182924.38, -179658.89, 187500.00, -182970.41, -127055.76, -182998.84, -0.00, -0.00, -0.00
38, -182908.83, -182849.52, -182966.81, -177226.28, 187500.00, -183016.48, -128034.01, -183044.83, -0.00, -0.00, -0.00
39, -182806.66, -182747.45, -182869.72, -181507.77, 187500.00, -182913.30, -125874.67, -182941.52, -0.00, -0.00, -0.00
40, -182752.59, -182693.50, -182818.72, -182755.66, 187500.00, -182858.83, -124947.72, -182886.81, -0.00, -0.00, -0.00
41, -182846.47, -182787.31, -182908.86, -180667.22, 187500.00, -182953.58, -126964.68, -182981.80, -0.00, -0.00, -0.00
42, -182923.08, -182863.84, -182980.52, -177674.45, 187500.00, -183030.94, -128566.88, -183059.03, -0.00, -0.00, -0.00
43, -182838.42, -182779.22, -182900.50, -181048.66, 187500.00, -182945.42, -126724.28, -182973.59, -0.00, -0.00, -0.00
44, -182758.86, -182699.73, -182824.92, -182760.39, 187500.00, -182865.09, -125308.66, -182893.08, -0.00, -0.00, -0.00
45, -182835.81, -182776.67, -182899.38, -181390.33, 187500.00, -182942.70, -126893.35, -182971.00, -0.00, -0.00, -0.00
46, -182931.30, -182872.17, -182989.03, -177717.42, 187500.00, -183039.19, -128946.83, -183067.48, -0.00, -0.00, -0.00
47, -182870.97, -182811.89, -182931.86, -180369.66, 187500.00, -182978.23, -127541.27, -183006.48, -0.00, -0.00, -0.00
48, -182772.94, -182713.88, -182838.84, -182703.28, 187500.00, -182879.27, -125696.30, -182907.17, -0.00, -0.00, -0.00
49, -182824.14, -182765.05, -182888.92, -181981.55, 187500.00, -182931.00, -126768.79, -182959.19, -0.00, -0.00, -0.00
50, -182936.69, -182877.47, -182995.89, -178096.89, 187500.00, -183044.67, -129115.98, -183072.89, -0.00, -0.00, -0.00
51, -182902.67, -182843.55, -182963.03, -179661.39, 187500.00, -183010.25, -128286.94, -183038.50, -0.00, -0.00, -0.00
52, -182795.11, -182735.98, -182860.69, -182583.80, 187500.00, -182901.66, -126141.55, -182929.67, -0.00, -0.00, -0.00
53, -182818.98, -182759.88, -182884.47, -182395.66, 187500.00, -182925.83, -126663.13, -182953.84, -0.00, -0.00, -0.00
54, -182934.50, -182875.28, -182994.78, -178729.61, 187500.00, -183042.52, -129121.27, -183070.64, -0.00, -0.00, -0.00
55, -182930.78, -182871.63, -182990.64, -178975.50, 187500.00, -183038.73, -128960.04, -183066.92, -0.00, -0.00, -0.00
56, -182815.81, -182756.84, -182880.89, -182365.19, 187500.00, -182922.67, -126676.20, -182950.67, -0.00, -0.00, -0.00
57, -182808.42, -182749.44, -182874.55, -182637.95, 187500.00, -182915.20, -126645.12, -182943.19, -0.00, -0.00, -0.00
58, -182924.91, -182865.81, -182985.95, -179460.36, 187500.00, -183032.75, -129052.87, -183060.95, -0.00, -0.00, -0.00
59, -182952.17, -182893.09, -183011.25, -178336.14, 187500.00, -183060.27, -129593.53, -183088.45, -0.00, -0.00, -0.00
60, -182844.58, -182785.58, -182908.75, -182007.83, 187500.00, -182951.61, -127346.42, -182979.63, -0.00, -0.00, -0.00
61, -182808.14, -182749.11, -182874.45, -182771.44, 187500.00, -182914.80, -126775.67, -182942.67, -0.00, -0.00, -0.00
62, -182913.28, -182854.20, -182975.00, -180163.56, 187500.00, -183021.02, -128966.23, -183049.05, -0.00, -0.00, -0.00
63, -182967.95, -182908.92, -183025.28, -177380.55, 187500.00, -183076.30, -130127.72, -183104.33, -0.00, -0.00, -0.00
64, -182869.47, -182810.33, -182932.44, -181370.14, 187500.00, -182976.77, -127993.70, -183004.77, -0.00, -0.00, -0.00
65, -182803.56, -182744.53, -182869.98, -182815.94, 187500.00, -182910.20, -126868.54, -182938.06, -0.00, -0.00, -0.00
66, -182892.45, -182833.33, -182955.55, -180952.94, 187500.00, -182999.89, -128775.64, -183027.95, -0.00, -0.00, -0.00
67, -182976.66, -182917.48, -183034.72, -177187.33, 187500.00, -183084.83, -130499.20, -183112.95, -0.00, -0.00, -0.00
68, -182895.27, -182836.25, -182957.34, -180654.55, 187500.00, -183002.69, -128692.73, -183030.83, -0.00, -0.00, -0.00
69, -182808.55, -182749.52, -182874.91, -182795.31, 187500.00, -182915.14, -127067.88, -182942.97, -0.00, -0.00, -0.00
70, -182875.13, -182816.08, -182939.34, -181640.02, 187500.00, -182982.42, -128525.25, -183010.41, -0.00, -0.00, -0.00
71, -182978.03, -182918.80, -183036.44, -177353.22, 187500.00, -183086.33, -130702.20, -183114.22, -0.00, -0.00, -0.00
72, -182923.67, -182864.52, -182984.53, -179772.64, 187500.00, -183031.41, -129430.50, -183059.38, -0.00, -0.00, -0.00
73, -182820.30, -182761.36, -182886.50, -182704.66, 187500.00, -182927.14, -127435.77, -182954.94, -0.00, -0.00, -0.00
74, -182860.91, -182801.83, -182926.05, -182152.41, 187500.00, -182968.06, -128392.35, -182995.95, -0.00, -0.00, -0.00
75, -182974.56, -182915.31, -183033.83, -177793.61, 187500.00, -183082.70, -130854.39, -183110.64, -0.00, -0.00, -0.00
76, -182950.19, -182891.00, -183010.13, -178829.02, 187500.00, -183058.09, -130220.84, -183086.02, -0.00, -0.00, -0.00
77, -182838.69, -182779.69, -182904.30, -182521.14, 187500.00, -182945.56, -127975.89, -182973.28, -0.00, -0.00, -0.00
78, -182852.16, -182793.08, -182918.00, -182510.23, 187500.00, -182959.13, -128377.69, -182986.91, -0.00, -0.00, -0.00
79, -182968.83, -182909.61, -183028.92, -178568.02, 187500.00, -183076.81, -130912.11, -183104.75, -0.00, -0.00, -0.00
80, -182975.20, -182915.92, -183034.30, -177998.92, 187500.00, -183083.27, -130977.91, -183111.09, -0.00, -0.00, -0.00
81, -182863.50, -182804.52, -182928.34, -182212.20, 187500.00, -182970.53, -128648.63, -182998.28, -0.00, -0.00, -0.00
82, -182847.48, -182788.53, -182913.91, -182728.39, 187500.00, -182954.34, -128461.28, -182982.08, -0.00, -0.00, -0.00
83, -182959.44, -182900.25, -183020.75, -179529.03, 187500.00, -183067.38, -130880.99, -183095.16, -0.00, -0.00, -0.00
84, -182999.11, -182939.80, -183057.70, -177468.58, 187500.00, -183107.39, -131638.45, -183135.25, -0.00, -0.00, -0.00
85, -182893.67, -182834.52, -182957.69, -181764.52, 187500.00, -183000.94, -129363.51, -183028.81, -0.00, -0.00, -0.00
86, -182846.92, -182787.83, -182913.58, -182836.64, 187500.00, -182953.84, -128572.75, -182981.47, -0.00, -0.00, -0.00
87, -182945.78, -182886.58, -183008.39, -180465.70, 187500.00, -183053.69, -130666.28, -183081.44, -0.00, -0.00, -0.00
88, -183013.64, -182954.36, -183071.84, -177212.25, 187500.00, -183122.11, -132058.75, -183149.78, -0.00, -0.00, -0.00
89, -182922.52, -182863.34, -182985.39, -181149.17, 187500.00, -183030.11, -130082.21, -183057.78, -0.00, -0.00, -0.00
90, -182850.09, -182791.08, -182916.77, -182861.05, 187500.00, -182957.09, -128764.95, -182984.58, -0.00, -0.00, -0.00
91, -182931.52, -182872.42, -182995.38, -181279.28, 187500.00, -183039.30, -130440.26, -183066.97, -0.00, -0.00, -0.00
92, -183022.25, -182963.02, -183080.58, -177303.84, 187500.00, -183130.78, -132362.98, -183158.50, -0.00, -0.00, -0.00
93, -182952.44, -182893.23, -183014.17, -180408.30, 187500.00, -183060.17, -130818.74, -183087.98, -0.00, -0.00, -0.00
94, -182858.59, -182799.33, -182925.08, -182818.13, 187500.00, -182965.45, -129085.63, -182993.08, -0.00, -0.00, -0.00
95, -182913.86, -182854.61, -182978.69, -181909.28, 187500.00, -183021.27, -130296.02, -183049.00, -0.00, -0.00, -0.00
96, -183020.44, -182961.11, -183079.11, -177617.84, 187500.00, -183128.97, -132575.34, -183156.52, -0.00, -0.00, -0.00
97, -182973.59, -182914.44, -183034.27, -179532.42, 187500.00, -183081.77, -131581.45, -183109.33, -0.00, -0.00, -0.00
98, -182866.86, -182807.84, -182932.97, -182698.06, 187500.00, -182973.98, -129516.87, -183001.48, -0.00, -0.00, -0.00
99, -182897.36, -182838.25, -182962.92, -182357.89, 187500.00, -183004.70, -130196.47, -183032.22, -0.00, -0.00, -0.00
100, -183013.95, -182954.61, -183073.44, -178216.00, 187500.00, -183122.31, -132646.17, -183149.86, -0.00, -0.00, -0.00
101, -183000.55, -182941.27, -183060.20, -178638.78, 187500.00, -183108.81, -132303.48, -183136.31, -0.00, -0.00, -0.00
102, -182886.73, -182827.52, -182952.28, -182475.97, 187500.00, -182994.00, -130051.95, -183021.44, -0.00, -0.00, -0.00
103, -182887.48, -182828.30, -182953.84, -182645.78, 187500.00, -182994.69, -130166.07, -183022.25, -0.00, -0.00, -0.00
104, -183001.80, -182942.58, -183062.61, -178982.13, 187500.00, -183109.98, -132587.39, -183137.53, -0.00, -0.00, -0.00
105, -183019.83, -182960.59, -183078.91, -177824.97, 187500.00, -183128.22, -132925.91, -183155.63, -0.00, -0.00, -0.00
106, -182911.61, -182852.38, -182976.22, -182103.41, 187500.00, -183018.92, -130644.80, -183046.39, -0.00, -0.00, -0.00
107, -182883.02, -182823.88, -182949.58, -182814.17, 187500.00, -182990.13, -130199.17, -183017.50, -0.00, -0.00, -0.00
108, -182990.80, -182931.52, -183052.73, -179893.25, 187500.00, -183098.80, -132446.31, -183126.36, -0.00, -0.00, -0.00
109, -183040.33, -182980.94, -183098.98, -177327.02, 187500.00, -183148.75, -133460.61, -183176.31, -0.00, -0.00, -0.00
110, -182939.81, -182880.52, -183003.42, -181574.66, 187500.00, -183047.34, -131333.75, -183074.77, -0.00, -0.00, -0.00
111, -182883.64, -182824.44, -182950.45, -182887.63, 187500.00, -182990.69, -130385.55, -183017.95, -0.00, -0.00, -0.00
112, -182978.48, -182919.19, -183041.67, -180740.72, 187500.00, -183086.42, -132355.92, -183113.86, -0.00, -0.00, -0.00
113, -183053.27, -182993.92, -183111.91, -177043.78, 187500.00, -183161.91, -133943.97, -183189.28, -0.00, -0.00, -0.00
114, -182971.13, -182911.97, -183033.78, -180869.27, 187500.00, -183079.02, -132082.53, -183106.41, -0.00, -0.00, -0.00
115, -182889.20, -182830.05, -182956.00, -182886.03, 187500.00, -182996.25, -130638.07, -183023.55, -0.00, -0.00, -0.00
116, -182963.64, -182904.34, -183027.95, -181512.61, 187500.00, -183071.38, -132255.02, -183098.73, -0.00, -0.00, -0.00
117, -183062.95, -183003.63, -183121.83, -177195.39, 187500.00, -183171.63, -134350.23, -183198.84, -0.00, -0.00, -0.00
118, -183003.81, -182944.59, -183065.34, -180040.56, 187500.00, -183111.81, -132941.58, -183139.22, -0.00, -0.00, -0.00
119, -182904.14, -182845.11, -182970.80, -182821.33, 187500.00, -183011.36, -131051.72, -183038.73, -0.00, -0.00, -0.00
120, -182952.75, -182893.72, -183018.22, -182122.03, 187500.00, -183060.56, -132142.08, -183087.94, -0.00, -0.00, -0.00
121, -183064.05, -183004.75, -183123.52, -177750.83, 187500.00, -183172.78, -134514.61, -183200.08, -0.00, -0.00, -0.00
122, -183031.19, -182972.02, -183091.94, -179202.94, 187500.00, -183139.61, -133691.67, -183167.02, -0.00, -0.00, -0.00
123, -182921.55, -182862.61, -182987.89, -182675.86, 187500.00, -183028.95, -131530.33, -183056.31, -0.00, -0.00, -0.00
124, -182939.70, -182880.67, -183006.00, -182525.19, 187500.00, -183047.38, -132024.34, -183074.61, -0.00, -0.00, -0.00
125, -183056.06, -182996.94, -183116.48, -178505.72, 187500.00, -183164.81, -134471.05, -183192.05, -0.00, -0.00, -0.00
126, -183053.19, -182994.08, -183113.02, -178355.67, 187500.00, -183161.86, -134368.42, -183189.13, -0.00, -0.00, -0.00
127, -182938.41, -182879.33, -183004.05, -182401.34, 187500.00, -183046.05, -132082.42, -183073.28, -0.00, -0.00, -0.00
128, -182930.84, -182871.73, -182997.66, -182764.33, 187500.00, -183038.39, -131979.27, -183065.56, -0.00, -0.00, -0.00
129, -183044.02, -182984.77, -183105.50, -179317.75, 187500.00, -183152.36, -134348.06, -183179.67, -0.00, -0.00, -0.00
130, -183072.66, -183013.38, -183131.84, -177590.33, 187500.00, -183181.30, -134938.44, -183208.45, -0.00, -0.00, -0.00
131, -182964.05, -182904.91, -183028.69, -181957.95, 187500.00, -183071.78, -132687.58, -183098.89, -0.00, -0.00, -0.00
132, -182922.53, -182863.33, -182989.45, -182888.63, 187500.00, -183029.89, -132028.42, -183056.91, -0.00, -0.00, -0.00
133, -183024.92, -182965.72, -183087.56, -180193.41, 187500.00, -183133.22, -134162.52, -183160.41, -0.00, -0.00, -0.00
134, -183083.38, -183024.03, -183142.34, -177090.66, 187500.00, -183192.23, -135398.89, -183219.34, -0.00, -0.00, -0.00
135, -182989.72, -182930.56, -183053.30, -181324.20, 187500.00, -183097.75, -133350.53, -183124.89, -0.00, -0.00, -0.00
136, -182923.78, -182864.78, -182990.97, -182931.72, 187500.00, -183031.20, -132165.34, -183058.30, -0.00, -0.00, -0.00
137, -183008.03, -182948.95, -183071.89, -181023.52, 187500.00, -183116.23, -133938.84, -183143.34, -0.00, -0.00, -0.00
138, -183089.84, -183030.58, -183148.73, -176933.70, 187500.00, -183198.73, -135706.72, -183225.77, -0.00, -0.00, -0.00
139, -183014.89, -182955.77, -183077.19, -180520.38, 187500.00, -183123.00, -133979.09, -183150.13, -0.00, -0.00, -0.00
140, -182928.19, -182869.20, -182995.09, -182899.31, 187500.00, -183035.55, -132337.55, -183062.50, -0.00, -0.00, -0.00
141, -182988.92, -182929.80, -183053.77, -181732.34, 187500.00, -183096.92, -133754.05, -183123.88, -0.00, -0.00, -0.00
142, -183091.30, -183031.98, -183150.66, -177162.00, 187500.00, -183200.23, -135977.86, -183227.13, -0.00, -0.00, -0.00
143, -183041.58, -182982.34, -183102.95, -179621.31, 187500.00, -183149.98, -134775.06, -183176.88, -0.00, -0.00, -0.00
144, -182937.80, -182878.75, -183004.39, -182790.69, 187500.00, -183045.33, -132753.48, -183072.11, -0.00, -0.00, -0.00
145, -182974.33, -182915.34, -183040.13, -182270.13, 187500.00, -183082.16, -133638.13, -183109.13, -0.00, -0.00, -0.00
146, -183088.23, -183029.11, -183148.31, -177720.25, 187500.00, -183197.11, -136097.31, -183224.00, -0.00, -0.00, -0.00
147, -183066.95, -183007.86, -183127.39, -178674.66, 187500.00, -183175.58, -135531.19, -183202.47, -0.00, -0.00, -0.00
148, -182954.81, -182895.84, -183020.97, -182584.84, 187500.00, -183062.38, -133273.23, -183089.30, -0.00, -0.00, -0.00
149, -182965.31, -182906.31, -183031.95, -182633.42, 187500.00, -183073.09, -133597.80, -183100.03, -0.00, -0.00, -0.00
150, -183083.73, -183024.44, -183144.69, -178586.23, 187500.00, -183192.52, -136112.89, -183219.30, -0.00, -0.00, -0.00
151, -183092.70, -183033.38, -183152.47, -177855.95, 187500.00, -183201.58, -136253.80, -183228.31, -0.00, -0.00, -0.00
152, -182981.56, -182922.45, -183046.94, -182249.55, 187500.00, -183089.38, -133942.05, -183116.09, -0.00, -0.00, -0.00
153, -182962.14, -182903.02, -183029.20, -182849.69, 187500.00, -183069.77, -133702.09, -183096.52, -0.00, -0.00, -0.00
154, -183073.91, -183014.61, -183136.00, -179579.25, 187500.00, -183182.55, -136041.45, -183209.23, -0.00, -0.00, -0.00
155, -183112.56, -183053.14, -183171.91, -177299.55, 187500.00, -183221.47, -136891.67, -183248.14, -0.00, -0.00, -0.00
156, -183010.22, -182950.94, -183074.66, -181764.14, 187500.00, -183118.27, -134718.45, -183144.95, -0.00, -0.00, -0.00
157, -182962.19, -182903.00, -183029.48, -182952.83, 187500.00, -183069.81, -133871.64, -183096.56, -0.00, -0.00, -0.00
158, -183057.92, -182998.73, -183121.28, -180548.22, 187500.00, -183166.48, -135889.97, -183193.19, -0.00, -0.00, -0.00
159, -183126.06, -183066.86, -183185.23, -177040.31, 187500.00, -183235.28, -137350.14, -183261.98, -0.00, -0.00, -0.00
160, -183039.30, -182980.14, -183102.72, -181096.75, 187500.00, -183147.70, -135426.02, -183174.47, -0.00, -0.00, -0.00
161, -182963.97, -182904.81, -183031.30, -182967.59, 187500.00, -183071.67, -134068.11, -183098.36, -0.00, -0.00, -0.00
162, -183042.81, -182983.53, -183107.19, -181350.22, 187500.00, -183151.13, -135680.73, -183177.84, -0.00, -0.00, -0.00
163, -183133.17, -183073.95, -183192.61, -177024.95, 187500.00, -183242.41, -137634.08, -183268.97, -0.00, -0.00, -0.00
164, -183067.58, -183008.50, -183129.89, -180234.22, 187500.00, -183176.25, -136139.05, -183202.84, -0.00, -0.00, -0.00
165, -182974.41, -182915.25, -183041.58, -182911.61, 187500.00, -183082.08, -134363.63, -183108.70, -0.00, -0.00, -0.00
166, -183027.41, -182968.17, -183092.91, -181988.83, 187500.00, -183135.48, -135503.77, -183162.19, -0.00, -0.00, -0.00
167, -183133.11, -183073.77, -183192.98, -177321.14, 187500.00, -183242.13, -137796.80, -183268.63, -0.00, -0.00, -0.00
168, -183092.98, -183033.78, -183154.17, -179262.89, 187500.00, -183201.64, -136867.55, -183228.11, -0.00, -0.00, -0.00
169, -182985.95, -182926.92, -183052.58, -182766.05, 187500.00, -183093.69, -134790.05, -183120.14, -0.00, -0.00, -0.00
170, -183011.11, -182951.95, -183077.25, -182452.30, 187500.00, -183118.98, -135455.75, -183145.53, -0.00, -0.00, -0.00
171, -183125.20, -183065.92, -183185.75, -177966.48, 187500.00, -183234.20, -137936.56, -183260.69, -0.00, -0.00, -0.00
172, -183115.59, -183056.36, -183175.94, -178327.33, 187500.00, -183224.53, -137611.11, -183250.95, -0.00, -0.00, -0.00
173, -183004.05, -182945.02, -183070.09, -182505.34, 187500.00, -183112.02, -135297.47, -183138.47, -0.00, -0.00, -0.00
174, -183000.30, -182941.33, -183067.23, -182751.88, 187500.00, -183108.19, -135397.66, -183134.61, -0.00, -0.00, -0.00
175, -183115.00, -183055.78, -183176.55, -178850.63, 187500.00, -183223.81, -137862.66, -183250.22, -0.00, -0.00, -0.00
176, -183134.03, -183074.77, -183193.91, -177501.72, 187500.00, -183243.11, -138235.63, -183269.45, -0.00, -0.00, -0.00
177, -183023.50, -182964.47, -183088.61, -182076.13, 187500.00, -183131.69, -135908.48, -183157.98, -0.00, -0.00, -0.00
178, -182992.03, -182932.97, -183059.08, -182919.42, 187500.00, -183099.83, -135428.52, -183126.14, -0.00, -0.00, -0.00
179, -183099.11, -183039.92, -183161.67, -179802.92, 187500.00, -183207.92, -137716.78, -183234.20, -0.00, -0.00, -0.00
180, -183149.20, -183089.88, -183208.66, -176926.44, 187500.00, -183258.53, -138775.03, -183284.77, -0.00, -0.00, -0.00
181, -183048.42, -182989.23, -183112.50, -181472.53, 187500.00, -183156.77, -136603.47, -183183.16, -0.00, -0.00, -0.00
182, -182991.38, -182932.23, -183058.70, -182989.41, 187500.00, -183099.06, -135570.92, -183125.52, -0.00, -0.00, -0.00
183, -183083.36, -183024.08, -183147.13, -180748.98, 187500.00, -183191.98, -137539.31, -183218.22, -0.00, -0.00, -0.00
184, -183160.88, -183101.50, -183220.28, -176734.20, 187500.00, -183270.13, -139199.42, -183296.33, -0.00, -0.00, -0.00
185, -183080.03, -183020.75, -183143.02, -180705.05, 187500.00, -183188.52, -137361.88, -183214.88, -0.00, -0.00, -0.00
186, -182998.55, -182939.39, -183065.97, -182980.14, 187500.00, -183106.38, -135836.94, -183132.64, -0.00, -0.00, -0.00
187, -183067.52, -183008.36, -183132.55, -181566.25, 187500.00, -183175.94, -137376.52, -183202.30, -0.00, -0.00, -0.00
188, -183165.75, -183106.47, -183225.61, -176946.17, 187500.00, -183275.06, -139499.28, -183301.27, -0.00, -0.00, -0.00
189, -183108.20, -183048.95, -183170.13, -179834.23, 187500.00, -183216.94, -138145.53, -183243.19, -0.00, -0.00, -0.00
190, -183009.59, -182950.45, -183076.66, -182892.52, 187500.00, -183117.38, -136231.83, -183143.58, -0.00, -0.00, -0.00
191, -183054.70, -182995.53, -183120.61, -182187.67, 187500.00, -183162.84, -137205.23, -183189.13, -0.00, -0.00, -0.00
192, -183163.70, -183104.30, -183224.00, -177449.58, 187500.00, -183272.81, -139576.00, -183299.00, -0.00, -0.00, -0.00
193, -183133.53, -183074.17, -183194.58, -178869.73, 187500.00, -183242.45, -138878.33, -183268.67, -0.00, -0.00, -0.00
194, -183024.55, -182965.42, -183091.20, -182707.44, 187500.00, -183132.55, -136704.22, -183158.70, -0.00, -0.00, -0.00
195, -183041.58, -182982.39, -183108.28, -182607.23, 187500.00, -183149.78, -137097.75, -183175.84, -0.00, -0.00, -0.00
196, -183155.23, -183095.89, -183216.27, -178253.34, 187500.00, -183264.41, -139532.53, -183290.38, -0.00, -0.00, -0.00
197, -183156.64, -183097.44, -183216.95, -177956.78, 187500.00, -183265.91, -139495.25, -183291.86, -0.00, -0.00, -0.00
198, -183043.09, -182984.03, -183108.95, -182381.20, 187500.00, -183151.27, -137200.05, -183177.39, -0.00, -0.00, -0.00
199, -183029.28, -182970.22, -183096.44, -182855.45, 187500.00, -183137.31, -137028.86, -183163.42, -0.00, -0.00, -0.00
200, -183140.63, -183081.39, -183202.67, -179168.84, 187500.00, -183249.63, -139356.23, -183275.67, -0.00, -0.00, -0.00
201, -183172.11, -183112.88, -183231.86, -177222.03, 187500.00, -183281.53, -139961.08, -183307.41, -0.00, -0.00, -0.00
202, -183063.42, -183004.31, -183128.34, -181886.58, 187500.00, -183171.94, -137672.81, -183197.84, -0.00, -0.00, -0.00
203, -183021.48, -182962.50, -183089.09, -182982.97, 187500.00, -183129.59, -136988.41, -183155.58, -0.00, -0.00, -0.00
204, -183122.06, -183062.91, -183185.25, -180117.22, 187500.00, -183230.97, -139177.20, -183256.97, -0.00, -0.00, -0.00
205, -183182.38, -183123.09, -183241.98, -176722.61, 187500.00, -183291.73, -140479.28, -183317.69, -0.00, -0.00, -0.00
206, -183087.64, -183028.45, -183151.44, -181190.59, 187500.00, -183196.17, -138425.31, -183222.14, -0.00, -0.00, -0.00
207, -183019.27, -182960.22, -183086.81, -183017.03, 187500.00, -183127.25, -137215.08, -183153.14, -0.00, -0.00, -0.00
208, -183103.41, -183044.27, -183167.75, -181021.20, 187500.00, -183212.06, -139036.39, -183238.03, -0.00, -0.00, -0.00
209, -183189.66, -183130.41, -183249.36, -176619.39, 187500.00, -183299.03, -140882.13, -183324.91, -0.00, -0.00, -0.00
210, -183114.69, -183055.55, -183177.45, -180322.11, 187500.00, -183223.48, -139201.00, -183249.36, -0.00, -0.00, -0.00
211, -183027.55, -182968.45, -183095.00, -182974.39, 187500.00, -183135.53, -137507.80, -183161.31, -0.00, -0.00, -0.00
212, -183088.75, -183029.63, -183154.19, -181778.14, 187500.00, -183197.39, -138849.39, -183223.17, -0.00, -0.00, -0.00
213, -183190.00, -183130.66, -183250.13, -176890.61, 187500.00, -183299.55, -141082.73, -183325.25, -0.00, -0.00, -0.00
214, -183143.14, -183084.00, -183205.00, -179347.75, 187500.00, -183252.25, -139929.94, -183278.05, -0.00, -0.00, -0.00
215, -183038.98, -182979.98, -183106.09, -182842.77, 187500.00, -183147.19, -137876.00, -183172.92, -0.00, -0.00, -0.00
216, -183075.16, -183016.03, -183141.53, -182348.50, 187500.00, -183183.72, -138696.69, -183209.52, -0.00, -0.00, -0.00
217, -183188.95, -183129.64, -183249.58, -177539.77, 187500.00, -183298.36, -141157.13, -183323.97, -0.00, -0.00, -0.00
218, -183169.25, -183109.98, -183229.98, -178360.00, 187500.00, -183278.44, -140655.48, -183303.98, -0.00, -0.00, -0.00
219, -183057.50, -182998.39, -183123.91, -182596.67, 187500.00, -183165.70, -138384.61, -183191.42, -0.00, -0.00, -0.00
220, -183063.16, -183004.13, -183130.19, -182718.78, 187500.00, -183171.52, -138645.86, -183197.27, -0.00, -0.00, -0.00
221, -183178.94, -183119.77, -183240.58, -178416.17, 187500.00, -183288.25, -141144.27, -183313.89, -0.00, -0.00, -0.00
222, -183189.39, -183130.20, -183249.67, -177504.83, 187500.00, -183298.77, -141340.77, -183324.36, -0.00, -0.00, -0.00
223, -183078.33, -183019.23, -183143.95, -182197.84, 187500.00, -183186.75, -139005.73, -183212.42, -0.00, -0.00, -0.00
224, -183053.98, -182994.91, -183121.44, -182931.05, 187500.00, -183162.23, -138679.16, -183187.83, -0.00, -0.00, -0.00
225, -183165.39, -183106.20, -183228.02, -179407.28, 187500.00, -183274.58, -141010.58, -183300.22, -0.00, -0.00, -0.00
226, -183210.14, -183150.91, -183270.02, -176813.72, 187500.00, -183319.66, -141895.98, -183345.30, -0.00, -0.00, -0.00
227, -183107.09, -183048.05, -183171.73, -181593.64, 187500.00, -183215.86, -139721.78, -183241.47, -0.00, -0.00, -0.00
228, -183051.55, -182992.47, -183119.39, -183029.17, 187500.00, -183159.80, -138811.86, -183185.45, -0.00, -0.00, -0.00
229, -183147.69, -183088.52, -183211.52, -180353.45, 187500.00, -183256.72, -140785.28, -183282.31, -0.00, -0.00, -0.00
230, -183218.63, -183159.33, -183278.39, -176395.98, 187500.00, -183328.27, -142288.39, -183353.67, -0.00, -0.00, -0.00
231, -183130.98, -183071.67, -183194.36, -180769.53, 187500.00, -183239.77, -140357.33, -183265.23, -0.00, -0.00, -0.00
232, -183053.16, -182994.00, -183120.73, -183031.77, 187500.00, -183161.30, -138929.14, -183186.67, -0.00, -0.00, -0.00
233, -183128.73, -183069.50, -183193.48, -181204.83, 187500.00, -183237.66, -140561.95, -183263.00, -0.00, -0.00, -0.00
234, -183222.72, -183163.38, -183282.72, -176345.36, 187500.00, -183332.44, -142548.27, -183357.77, -0.00, -0.00, -0.00
235, -183154.70, -183095.38, -183217.00, -179762.09, 187500.00, -183263.89, -141018.63, -183289.22, -0.00, -0.00, -0.00
236, -183056.72, -182997.55, -183124.13, -182938.78, 187500.00, -183165.03, -139155.23, -183190.36, -0.00, -0.00, -0.00
237, -183109.53, -183050.28, -183175.36, -181915.67, 187500.00, -183218.25, -140306.66, -183243.64, -0.00, -0.00, -0.00
238, -183217.78, -183158.45, -183278.08, -176684.80, 187500.00, -183327.39, -142649.81, -183352.66, -0.00, -0.00, -0.00
239, -183181.69, -183122.41, -183242.86, -178654.72, 187500.00, -183290.98, -141724.67, -183316.22, -0.00, -0.00, -0.00
240, -183072.56, -183013.22, -183139.25, -182736.81, 187500.00, -183180.78, -139569.41, -183206.05, -0.00, -0.00, -0.00
241, -183095.78, -183036.44, -183162.22, -182436.47, 187500.00, -183204.25, -140197.47, -183229.56, -0.00, -0.00, -0.00
242, -183208.95, -183149.58, -183269.97, -177367.28, 187500.00, -183318.55, -142708.94, -183343.63, -0.00, -0.00, -0.00
243, -183202.06, -183142.80, -183262.66, -177577.05, 187500.00, -183311.56, -142469.48, -183336.72, -0.00, -0.00, -0.00
244, -183088.88, -183029.72, -183155.00, -182376.03, 187500.00, -183197.44, -140153.81, -183222.63, -0.00, -0.00, -0.00
245, -183081.36, -183022.25, -183148.53, -182781.09, 187500.00, -183189.84, -140198.00, -183215.05, -0.00, -0.00, -0.00
246, -183196.83, -183137.42, -183258.66, -178353.33, 187500.00, -183306.14, -142659.38, -183331.38, -0.00, -0.00, -0.00
247, -183220.28, -183160.83, -183280.41, -176696.81, 187500.00, -183329.78, -143105.52, -183354.89, -0.00, -0.00, -0.00
248, -183110.78, -183051.69, -183175.92, -181830.56, 187500.00, -183219.41, -140769.66, -183244.64, -0.00, -0.00, -0.00
249, -183075.22, -183016.17, -183142.72, -182975.53, 187500.00, -183183.58, -140212.52, -183208.69, -0.00, -0.00, -0.00
250, -183182.44, -183123.19, -183245.39, -179424.36, 187500.00, -183291.78, -142459.75, -183316.81, -0.00, -0.00, -0.00
251, -183236.38, -183177.03, -183296.30, -176117.80, 187500.00, -183346.09, -143576.14, -183371.16, -0.00, -0.00, -0.00
252, -183139.14, -183079.98, -183203.14, -181102.20, 187500.00, -183248.02, -141425.05, -183273.14, -0.00, -0.00, -0.00
253, -183077.08, -183017.89, -183144.59, -183051.14, 187500.00, -183185.38, -140328.69, -183210.47, -0.00, -0.00, -0.00
254, -183165.63, -183106.31, -183229.64, -180499.14, 187500.00, -183274.73, -142252.86, -183299.75, -0.00, -0.00, -0.00
255, -183244.63, -183185.30, -183304.42, -175959.78, 187500.00, -183354.42, -143967.41, -183379.31, -0.00, -0.00, -0.00
0, -183167.08, -183107.78, -183229.84, -180205.39, 187500.00, -183276.13, -142172.63, -183301.00, -0.00, -0.00, -0.00
1, -183081.61, -183022.53, -183149.14, -183020.53, 187500.00, -183190.02, -140602.45, -183214.88, -0.00, -0.00, -0.00
2, -183148.42, -183089.25, -183213.48, -181422.83, 187500.00, -183257.39, -142092.30, -183282.17, -0.00, -0.00, -0.00
3, -183244.58, -183185.30, -183304.73, -176221.77, 187500.00, -183354.39, -144252.81, -183379.20, -0.00, -0.00, -0.00
4, -183189.42, -183130.23, -183251.27, -179221.52, 187500.00, -183298.72, -142950.80, -183323.64, -0.00, -0.00, -0.00
5, -183089.48, -183030.45, -183156.63, -182887.91, 187500.00, -183197.91, -140973.75, -183222.88, -0.00, -0.00, -0.00
6, -183129.98, -183070.80, -183196.08, -182120.80, 187500.00, -183238.67, -141935.22, -183263.75, -0.00, -0.00, -0.00
7, -183242.19, -183182.91, -183302.83, -176796.89, 187500.00, -183351.84, -144344.05, -183376.77, -0.00, -0.00, -0.00
8, -183213.72, -183154.53, -183274.75, -178162.06, 187500.00, -183323.33, -143640.94, -183348.06, -0.00, -0.00, -0.00
9, -183102.41, -183043.22, -183168.97, -182629.50, 187500.00, -183210.94, -141382.05, -183235.81, -0.00, -0.00, -0.00
10, -183117.31, -183058.05, -183184.08, -182606.61, 187500.00, -183225.92, -141771.09, -183250.75, -0.00, -0.00, -0.00
11, -183233.67, -183174.31, -183295.11, -177706.06, 187500.00, -183343.28, -144259.20, -183368.03, -0.00, -0.00, -0.00
12, -183237.09, -183177.84, -183297.47, -177205.05, 187500.00, -183346.81, -144250.27, -183371.53, -0.00, -0.00, -0.00
13, -183123.09, -183064.05, -183188.91, -182212.06, 187500.00, -183231.80, -141887.73, -183256.72, -0.00, -0.00, -0.00
14, -183106.13, -183046.94, -183173.41, -182900.39, 187500.00, -183214.61, -141696.94, -183239.55, -0.00, -0.00, -0.00
15, -183219.97, -183160.72, -183282.22, -178808.41, 187500.00, -183329.45, -144092.91, -183354.23, -0.00, -0.00, -0.00
16, -183255.70, -183196.48, -183315.86, -176520.97, 187500.00, -183365.55, -144795.80, -183390.16, -0.00, -0.00, -0.00
17, -183147.70, -183088.55, -183212.53, -181631.31, 187500.00, -183256.56, -142515.83, -183281.27, -0.00, -0.00, -0.00
18, -183102.09, -183042.97, -183169.77, -183047.66, 187500.00, -183210.52, -141764.06, -183235.33, -0.00, -0.00, -0.00
19, -183202.30, -183143.08, -183265.67, -179932.45, 187500.00, -183311.61, -143917.67, -183336.42, -0.00, -0.00, -0.00
20, -183267.52, -183208.22, -183327.34, -176145.17, 187500.00, -183377.38, -145278.59, -183401.98, -0.00, -0.00, -0.00
21, -183175.20, -183116.03, -183238.92, -180867.98, 187500.00, -183284.30, -143242.83, -183309.02, -0.00, -0.00, -0.00
22, -183105.97, -183046.72, -183173.59, -183083.84, 187500.00, -183214.38, -141962.05, -183239.06, -0.00, -0.00, -0.00
23, -183187.94, -183128.73, -183252.48, -180965.80, 187500.00, -183297.16, -143737.92, -183321.72, -0.00, -0.00, -0.00
24, -183274.95, -183215.72, -183335.02, -176201.13, 187500.00, -183384.91, -145639.69, -183409.36, -0.00, -0.00, -0.00
25, -183202.31, -183143.13, -183264.97, -179990.61, 187500.00, -183311.56, -144007.75, -183336.20, -0.00, -0.00, -0.00
26, -183109.78, -183050.75, -183177.33, -183019.44, 187500.00, -183218.22, -142264.77, -183242.91, -0.00, -0.00, -0.00
27, -183170.08, -183110.88, -183235.77, -181810.22, 187500.00, -183279.06, -143555.81, -183303.77, -0.00, -0.00, -0.00
28, -183277.61, -183218.27, -183337.97, -176645.97, 187500.00, -183387.52, -145828.86, -183412.13, -0.00, -0.00, -0.00
29, -183231.41, -183172.16, -183293.06, -179020.95, 187500.00, -183340.94, -144738.66, -183365.41, -0.00, -0.00, -0.00
30, -183124.61, -183065.45, -183191.73, -182864.22, 187500.00, -183233.14, -142636.61, -183257.75, -0.00, -0.00, -0.00
31, -183156.05, -183096.92, -183222.66, -182421.83, 187500.00, -183264.92, -143384.84, -183289.55, -0.00, -0.00, -0.00
32, -183267.95, -183208.75, -183328.94, -177426.78, 187500.00, -183377.89, -145850.69, -183402.25, -0.00, -0.00, -0.00
33, -183252.92, -183193.69, -183313.88, -178092.53, 187500.00, -183362.66, -145417.67, -183387.05, -0.00, -0.00, -0.00
34, -183140.28, -183081.19, -183206.89, -182587.75, 187500.00, -183249.09, -143118.30, -183273.56, -0.00, -0.00, -0.00
35, -183144.95, -183085.91, -183212.27, -182806.73, 187500.00, -183253.81, -143304.67, -183278.20, -0.00, -0.00, -0.00
36, -183260.47, -183201.31, -183322.45, -178414.45, 187500.00, -183370.27, -145793.09, -183394.63, -0.00, -0.00, -0.00
37, -183278.27, -183219.03, -183338.75, -177251.83, 187500.00, -183388.06, -146072.25, -183412.42, -0.00, -0.00, -0.00
38, -183166.23, -183107.11, -183232.02, -182146.13, 187500.00, -183275.16, -143738.91, -183299.56, -0.00, -0.00, -0.00
39, -183136.83, -183077.67, -183204.70, -183021.00, 187500.00, -183245.45, -143344.77, -183269.92, -0.00, -0.00, -0.00
40, -183245.52, -183186.38, -183308.69, -179458.55, 187500.00, -183355.13, -145665.59, -183379.42, -0.00, -0.00, -0.00
41, -183293.33, -183234.23, -183353.61, -176659.73, 187500.00, -183403.36, -146618.75, -183427.59, -0.00, -0.00, -0.00
42, -183192.23, -183133.06, -183256.98, -181533.42, 187500.00, -183301.33, -144400.41, -183325.73, -0.00, -0.00, -0.00
43, -183136.58, -183077.45, -183204.48, -183116.08, 187500.00, -183245.20, -143429.48, -183269.56, -0.00, -0.00, -0.00
44, -183228.23, -183169.03, -183292.30, -180499.20, 187500.00, -183337.70, -145431.75, -183362.00, -0.00, -0.00, -0.00
45, -183301.28, -183241.92, -183361.36, -176386.28, 187500.00, -183411.38, -146982.14, -183435.53, -0.00, -0.00, -0.00
46, -183217.44, -183158.22, -183280.98, -180719.38, 187500.00, -183326.78, -145052.88, -183351.11, -0.00, -0.00, -0.00
47, -183138.92, -183079.84, -183206.88, -183111.03, 187500.00, -183247.50, -143568.58, -183271.89, -0.00, -0.00, -0.00
48, -183212.19, -183153.00, -183277.45, -181401.98, 187500.00, -183321.38, -145151.64, -183345.72, -0.00, -0.00, -0.00
49, -183306.42, -183247.06, -183366.78, -176501.81, 187500.00, -183416.39, -147194.97, -183440.58, -0.00, -0.00, -0.00
50, -183242.95, -183183.64, -183305.52, -179752.97, 187500.00, -183352.30, -145742.28, -183376.64, -0.00, -0.00, -0.00
51, -183146.20, -183086.98, -183213.80, -183014.41, 187500.00, -183254.73, -143856.63, -183279.09, -0.00, -0.00, -0.00
52, -183195.77, -183136.53, -183261.98, -182112.33, 187500.00, -183304.80, -144963.66, -183329.09, -0.00, -0.00, -0.00
53, -183303.78, -183244.47, -183364.63, -176972.81, 187500.00, -183413.72, -147338.72, -183437.78, -0.00, -0.00, -0.00
54, -183269.36, -183210.14, -183330.97, -178727.47, 187500.00, -183378.89, -146490.80, -183403.17, -0.00, -0.00, -0.00
55, -183159.11, -183099.97, -183226.27, -182811.47, 187500.00, -183267.83, -144309.41, -183292.03, -0.00, -0.00, -0.00
56, -183179.64, -183120.50, -183246.69, -182613.45, 187500.00, -183288.56, -144863.03, -183312.73, -0.00, -0.00, -0.00
57, -183296.22, -183236.89, -183357.75, -177781.45, 187500.00, -183406.16, -147358.59, -183430.13, -0.00, -0.00, -0.00
58, -183292.72, -183233.42, -183353.59, -177765.67, 187500.00, -183402.67, -147176.94, -183426.59, -0.00, -0.00, -0.00
59, -183179.45, -183120.27, -183245.81, -182466.47, 187500.00, -183288.41, -144834.36, -183312.47, -0.00, -0.00, -0.00
60, -183169.13, -183109.89, -183236.72, -182920.34, 187500.00, -183277.92, -144804.14, -183302.11, -0.00, -0.00, -0.00
61, -183283.58, -183224.19, -183346.08, -178725.13, 187500.00, -183393.36, -147241.17, -183417.47, -0.00, -0.00, -0.00
62, -183309.41, -183249.92, -183369.88, -176906.63, 187500.00, -183419.34, -147753.52, -183443.36, -0.00, -0.00, -0.00
63, -183200.19, -183140.89, -183265.67, -181920.16, 187500.00, -183309.27, -145426.45, -183333.34, -0.00, -0.00, -0.00
64, -183162.09, -183102.94, -183230.19, -183086.42, 187500.00, -183270.84, -144812.52, -183294.95, -0.00, -0.00, -0.00
65, -183264.45, -183205.19, -183328.05, -179746.58, 187500.00, -183374.17, -147037.38, -183398.20, -0.00, -0.00, -0.00
66, -183319.75, -183260.42, -183380.05, -176323.39, 187500.00, -183429.94, -148224.45, -183453.86, -0.00, -0.00, -0.00
67, -183224.08, -183164.88, -183288.45, -181168.19, 187500.00, -183333.34, -146092.31, -183357.50, -0.00, -0.00, -0.00
68, -183159.63, -183100.50, -183227.80, -183139.22, 187500.00, -183268.41, -144937.33, -183292.48, -0.00, -0.00, -0.00
69, -183245.70, -183186.42, -183310.25, -180734.52, 187500.00, -183355.17, -146818.03, -183379.09, -0.00, -0.00, -0.00
70, -183328.70, -183269.36, -183388.95, -176112.31, 187500.00, -183438.91, -148578.03, -183462.64, -0.00, -0.00, -0.00
71, -183252.02, -183192.91, -183315.33, -180209.70, 187500.00, -183361.59, -146806.88, -183385.48, -0.00, -0.00, -0.00
72, -183163.27, -183104.05, -183231.14, -183092.59, 187500.00, -183271.92, -145161.33, -183295.98, -0.00, -0.00, -0.00
73, -183226.14, -183166.89, -183291.61, -181569.19, 187500.00, -183335.33, -146590.25, -183359.38, -0.00, -0.00, -0.00
74, -183328.70, -183269.36, -183389.17, -176269.97, 187500.00, -183438.84, -148784.27, -183462.58, -0.00, -0.00, -0.00
75, -183276.39, -183217.11, -183338.50, -179106.52, 187500.00, -183385.95, -147529.17, -183409.94, -0.00, -0.00, -0.00
76, -183172.52, -183113.28, -183240.02, -182935.77, 187500.00, -183281.22, -145497.89, -183305.20, -0.00, -0.00, -0.00
77, -183210.84, -183151.58, -183277.39, -182224.13, 187500.00, -183320.00, -146396.61, -183343.80, -0.00, -0.00, -0.00
78, -183323.69, -183264.27, -183384.80, -176788.08, 187500.00, -183433.73, -148829.63, -183457.38, -0.00, -0.00, -0.00
79, -183300.06, -183240.63, -183361.28, -177952.67, 187500.00, -183409.84, -148197.33, -183433.55, -0.00, -0.00, -0.00
80, -183186.94, -183127.66, -183253.66, -182633.19, 187500.00, -183295.72, -145908.19, -183319.48, -0.00, -0.00, -0.00
81, -183195.61, -183136.42, -183262.81, -182677.97, 187500.00, -183304.64, -146235.52, -183328.27, -0.00, -0.00, -0.00
82, -183312.55, -183253.28, -183374.39, -177599.44, 187500.00, -183422.66, -148726.58, -183446.17, -0.00, -0.00, -0.00
83, -183320.63, -183261.36, -183381.17, -176821.83, 187500.00, -183430.67, -148791.84, -183454.23, -0.00, -0.00, -0.00
84, -183207.39, -183148.16, -183273.03, -182111.72, 187500.00, -183316.31, -146424.27, -183340.00, -0.00, -0.00, -0.00
85, -183184.88, -183125.72, -183252.38, -182962.81, 187500.00, -183293.69, -146176.05, -183317.45, -0.00, -0.00, -0.00
86, -183295.67, -183236.44, -183358.30, -178614.55, 187500.00, -183405.47, -148561.78, -183429.14, -0.00, -0.00, -0.00
87, -183333.88, -183274.55, -183394.11, -175984.83, 187500.00, -183444.00, -149337.67, -183467.56, -0.00, -0.00, -0.00
88, -183226.58, -183167.38, -183291.16, -181374.08, 187500.00, -183335.70, -147057.70, -183359.36, -0.00, -0.00, -0.00
89, -183177.77, -183118.72, -183245.63, -183103.16, 187500.00, -183286.52, -146238.66, -183310.16, -0.00, -0.00, -0.00
90, -183275.38, -183216.27, -183338.97, -179686.00, 187500.00, -183385.13, -148359.67, -183408.59, -0.00, -0.00, -0.00
91, -183343.06, -183283.77, -183403.20, -175481.44, 187500.00, -183453.23, -149773.47, -183476.67, -0.00, -0.00, -0.00
92, -183250.77, -183191.63, -183314.30, -180416.33, 187500.00, -183360.19, -147744.22, -183383.67, -0.00, -0.00, -0.00
93, -183174.86, -183115.94, -183242.77, -183117.22, 187500.00, -183283.78, -146389.97, -183307.14, -0.00, -0.00, -0.00
94, -183253.52, -183194.31, -183318.14, -180701.42, 187500.00, -183363.06, -148112.38, -183386.52, -0.00, -0.00, -0.00
95, -183344.73, -183285.39, -183405.05, -175371.58, 187500.00, -183454.97, -150047.70, -183478.36, -0.00, -0.00, -0.00
96, -183274.19, -183214.88, -183336.47, -179255.03, 187500.00, -183383.73, -148440.66, -183407.13, -0.00, -0.00, -0.00
97, -183179.64, -183120.48, -183247.13, -183004.98, 187500.00, -183288.44, -146637.41, -183311.72, -0.00, -0.00, -0.00
98, -183235.34, -183176.08, -183300.91, -181590.11, 187500.00, -183344.58, -147884.08, -183367.98, -0.00, -0.00, -0.00
99, -183342.70, -183283.31, -183403.36, -175728.22, 187500.00, -183452.92, -150188.83, -183476.13, -0.00, -0.00, -0.00
100, -183299.59, -183240.31, -183361.13, -178049.94, 187500.00, -183409.48, -149147.44, -183432.73, -0.00, -0.00, -0.00
101, -183191.78, -183132.59, -183258.84, -182749.17, 187500.00, -183300.70, -147006.14, -183324.02, -0.00, -0.00, -0.00
102, -183220.08, -183160.97, -183286.56, -182268.13, 187500.00, -183329.25, -147712.59, -183352.52, -0.00, -0.00, -0.00
103, -183334.45, -183275.27, -183395.67, -176451.70, 187500.00, -183444.53, -150198.36, -183467.77, -0.00, -0.00, -0.00
104, -183321.09, -183261.83, -183381.84, -176901.25, 187500.00, -183430.91, -149814.84, -183454.19, -0.00, -0.00, -0.00
105, -183207.39, -183148.20, -183273.53, -182310.88, 187500.00, -183316.31, -147479.22, -183339.69, -0.00, -0.00, -0.00
106, -183204.08, -183144.83, -183271.00, -182726.94, 187500.00, -183313.05, -147606.53, -183336.25, -0.00, -0.00, -0.00
107, -183320.42, -183261.09, -183382.13, -177462.77, 187500.00, -183430.45, -150069.16, -183453.55, -0.00, -0.00, -0.00
108, -183342.45, -183283.20, -183402.97, -175943.11, 187500.00, -183452.77, -150387.03, -183475.86, -0.00, -0.00, -0.00
109, -183230.70, -183171.59, -183295.83, -181661.77, 187500.00, -183339.86, -148050.39, -183363.02, -0.00, -0.00, -0.00
110, -183199.19, -183140.02, -183266.64, -183007.63, 187500.00, -183308.11, -147599.94, -183331.19, -0.00, -0.00, -0.00
111, -183302.92, -183243.55, -183365.56, -178671.23, 187500.00, -183412.73, -149859.33, -183435.75, -0.00, -0.00, -0.00
112, -183351.63, -183292.20, -183411.80, -175306.89, 187500.00, -183461.80, -150855.70, -183484.91, -0.00, -0.00, -0.00
113, -183253.83, -183194.56, -183317.73, -180801.27, 187500.00, -183363.11, -148647.39, -183386.17, -0.00, -0.00, -0.00
114, -183193.06, -183133.84, -183260.69, -183118.58, 187500.00, -183301.83, -147620.13, -183324.84, -0.00, -0.00, -0.00
115, -183285.06, -183225.80, -183348.58, -179884.91, 187500.00, -183394.69, -149612.20, -183417.66, -0.00, -0.00, -0.00
116, -183361.45, -183302.05, -183421.50, -175088.30, 187500.00, -183471.66, -151247.44, -183494.63, -0.00, -0.00, -0.00
117, -183275.48, -183216.19, -183338.20, -179803.84, 187500.00, -183384.95, -149357.45, -183408.02, -0.00, -0.00, -0.00
118, -183191.36, -183132.17, -183258.89, -183088.03, 187500.00, -183300.14, -147825.89, -183323.23, -0.00, -0.00, -0.00
119, -183261.55, -183202.31, -183326.14, -180952.20, 187500.00, -183370.95, -149387.25, -183393.95, -0.00, -0.00, -0.00
120, -183360.20, -183300.84, -183420.48, -175254.25, 187500.00, -183470.47, -151488.72, -183493.33, -0.00, -0.00, -0.00
121, -183300.38, -183241.06, -183362.27, -178674.78, 187500.00, -183410.11, -150078.92, -183432.98, -0.00, -0.00, -0.00
122, -183200.08, -183140.75, -183267.33, -182924.30, 187500.00, -183308.97, -148125.25, -183331.89, -0.00, -0.00, -0.00
123, -183245.88, -183186.58, -183311.59, -181847.63, 187500.00, -183355.16, -149172.83, -183377.97, -0.00, -0.00, -0.00
124, -183357.19, -183297.84, -183417.97, -175885.80, 187500.00, -183467.45, -151582.19, -183490.09, -0.00, -0.00, -0.00
125, -183325.98, -183266.64, -183387.16, -177589.61, 187500.00, -183435.94, -150781.78, -183458.69, -0.00, -0.00, -0.00
126, -183215.03, -183155.78, -183281.81, -182621.19, 187500.00, -183324.00, -148532.66, -183346.91, -0.00, -0.00, -0.00
127, -183230.34, -183171.13, -183297.00, -182489.56, 187500.00, -183339.47, -149015.39, -183362.33, -0.00, -0.00, -0.00
128, -183347.48, -183288.14, -183408.78, -176869.61, 187500.00, -183457.66, -151530.45, -183480.41, -0.00, -0.00, -0.00
129, -183346.23, -183286.95, -183406.83, -176604.95, 187500.00, -183456.42, -151421.58, -183479.23, -0.00, -0.00, -0.00
130, -183230.81, -183171.69, -183296.77, -182136.63, 187500.00, -183340.11, -149043.38, -183362.80, -0.00, -0.00, -0.00
131, -183216.77, -183157.58, -183284.19, -182891.36, 187500.00, -183325.92, -148939.30, -183348.61, -0.00, -0.00, -0.00
132, -183331.39, -183272.05, -183393.64, -178084.77, 187500.00, -183441.52, -151384.50, -183464.16, -0.00, -0.00, -0.00
133, -183364.19, -183304.84, -183424.52, -175897.19, 187500.00, -183474.53, -151988.11, -183497.13, -0.00, -0.00, -0.00
134, -183255.08, -183195.86, -183319.91, -181489.00, 187500.00, -183364.31, -149650.83, -183387.09, -0.00, -0.00, -0.00
135, -183213.13, -183153.92, -183280.83, -183103.67, 187500.00, -183322.00, -148957.39, -183344.78, -0.00, -0.00, -0.00
136, -183316.08, -183256.89, -183379.45, -179362.73, 187500.00, -183426.02, -151161.16, -183448.72, -0.00, -0.00, -0.00
137, -183376.41, -183317.06, -183436.64, -175531.75, 187500.00, -183486.77, -152422.47, -183509.36, -0.00, -0.00, -0.00
138, -183283.00, -183223.75, -183346.80, -180687.72, 187500.00, -183392.53, -150295.42, -183415.14, -0.00, -0.00, -0.00
139, -183213.13, -183153.97, -183280.92, -183164.98, 187500.00, -183322.08, -149051.80, -183344.63, -0.00, -0.00, -0.00
140, -183298.45, -183239.17, -183362.84, -180566.64, 187500.00, -183408.11, -150891.06, -183430.67, -0.00, -0.00, -0.00
141, -183383.98, -183324.69, -183444.41, -175579.73, 187500.00, -183494.45, -152718.78, -183516.95, -0.00, -0.00, -0.00
142, -183306.11, -183246.92, -183369.03, -179770.42, 187500.00, -183415.95, -150979.39, -183438.45, -0.00, -0.00, -0.00
143, -183216.17, -183156.84, -183283.89, -183103.05, 187500.00, -183325.14, -149259.06, -183347.59, -0.00, -0.00, -0.00
144, -183278.39, -183219.02, -183343.83, -181584.06, 187500.00, -183387.86, -150631.55, -183410.30, -0.00, -0.00, -0.00
145, -183382.36, -183322.92, -183442.89, -176066.39, 187500.00, -183492.80, -152876.09, -183515.14, -0.00, -0.00, -0.00
146, -183331.59, -183272.30, -183393.42, -178793.81, 187500.00, -183441.67, -151680.00, -183464.00, -0.00, -0.00, -0.00
147, -183225.77, -183166.64, -183293.06, -182930.77, 187500.00, -183334.91, -149587.75, -183357.30, -0.00, -0.00, -0.00
148, -183262.39, -183203.31, -183329.05, -182325.44, 187500.00, -183371.88, -150421.89, -183394.31, -0.00, -0.00, -0.00
149, -183376.95, -183317.52, -183437.98, -176894.92, 187500.00, -183487.23, -152893.69, -183509.63, -0.00, -0.00, -0.00
150, -183356.41, -183297.00, -183417.48, -177894.53, 187500.00, -183466.59, -152340.25, -183488.89, -0.00, -0.00, -0.00
151, -183240.58, -183181.39, -183307.28, -182647.25, 187500.00, -183349.78, -150009.50, -183372.19, -0.00, -0.00, -0.00
152, -183247.58, -183188.50, -183314.88, -182809.28, 187500.00, -183356.77, -150265.56, -183379.19, -0.00, -0.00, -0.00
153, -183363.38, -183304.13, -183425.20, -178016.03, 187500.00, -183473.55, -152778.95, -183495.81, -0.00, -0.00, -0.00
154, -183375.58, -183316.28, -183436.22, -177118.84, 187500.00, -183485.84, -152934.78, -183508.06, -0.00, -0.00, -0.00
155, -183262.73, -183203.58, -183328.42, -182219.14, 187500.00, -183372.05, -150538.41, -183394.31, -0.00, -0.00, -0.00
156, -183238.50, -183179.41, -183306.19, -183080.77, 187500.00, -183347.64, -150203.66, -183369.92, -0.00, -0.00, -0.00
157, -183348.97, -183289.69, -183411.77, -179216.86, 187500.00, -183459.05, -152582.53, -183481.31, -0.00, -0.00, -0.00
158, -183392.03, -183332.73, -183452.36, -176595.50, 187500.00, -183502.42, -153444.88, -183524.64, -0.00, -0.00, -0.00
159, -183287.14, -183227.86, -183351.94, -181640.94, 187500.00, -183396.55, -151156.11, -183418.81, -0.00, -0.00, -0.00
160, -183235.33, -183176.14, -183303.30, -183201.89, 187500.00, -183344.41, -150240.91, -183366.53, -0.00, -0.00, -0.00
161, -183334.28, -183274.95, -183398.34, -180396.31, 187500.00, -183444.20, -152331.36, -183466.36, -0.00, -0.00, -0.00
162, -183403.55, -183344.14, -183463.77, -176404.88, 187500.00, -183514.00, -153829.63, -183536.20, -0.00, -0.00, -0.00
163, -183313.25, -183253.97, -183377.13, -180893.27, 187500.00, -183422.97, -151820.80, -183445.20, -0.00, -0.00, -0.00
164, -183236.69, -183177.55, -183304.66, -183214.03, 187500.00, -183345.75, -150378.28, -183367.95, -0.00, -0.00, -0.00
165, -183313.98, -183254.80, -183379.19, -181390.45, 187500.00, -183423.70, -152059.27, -183445.83, -0.00, -0.00, -0.00
166, -183408.50, -183349.20, -183468.97, -176605.48, 187500.00, -183518.98, -154072.64, -183541.08, -0.00, -0.00, -0.00
167, -183344.30, -183285.11, -183407.20, -180052.03, 187500.00, -183454.27, -152507.11, -183476.39, -0.00, -0.00, -0.00
168, -183246.84, -183187.67, -183314.77, -183141.97, 187500.00, -183355.95, -150614.70, -183378.20, -0.00, -0.00, -0.00
169, -183297.47, -183238.28, -183363.84, -182174.05, 187500.00, -183407.02, -151799.55, -183429.30, -0.00, -0.00, -0.00
170, -183404.75, -183345.47, -183465.66, -177180.58, 187500.00, -183515.23, -154169.55, -183537.41, -0.00, -0.00, -0.00
171, -183365.53, -183306.34, -183427.63, -179172.25, 187500.00, -183475.66, -153198.73, -183497.91, -0.00, -0.00, -0.00
172, -183257.50, -183198.44, -183325.11, -182981.19, 187500.00, -183366.64, -150984.28, -183388.95, -0.00, -0.00, -0.00
173, -183282.64, -183223.55, -183350.08, -182714.38, 187500.00, -183392.13, -151613.75, -183414.30, -0.00, -0.00, -0.00
174, -183400.23, -183340.94, -183461.88, -178085.22, 187500.00, -183510.66, -154143.81, -183532.69, -0.00, -0.00, -0.00
175, -183390.47, -183331.22, -183451.64, -178349.69, 187500.00, -183500.84, -153852.64, -183522.81, -0.00, -0.00, -0.00
176, -183274.94, -183215.83, -183341.72, -182712.34, 187500.00, -183384.33, -151458.25, -183406.25, -0.00, -0.00, -0.00
177, -183268.78, -183209.67, -183336.69, -183033.09, 187500.00, -183378.11, -151491.20, -183400.14, -0.00, -0.00, -0.00
178, -183387.00, -183327.73, -183449.59, -179141.63, 187500.00, -183497.36, -153990.22, -183519.27, -0.00, -0.00, -0.00
179, -183410.34, -183351.17, -183470.98, -177655.34, 187500.00, -183520.83, -154415.33, -183542.78, -0.00, -0.00, -0.00
180, -183297.31, -183238.28, -183363.38, -182292.86, 187500.00, -183406.83, -152018.52, -183428.95, -0.00, -0.00, -0.00
181, -183261.92, -183202.88, -183330.23, -183201.08, 187500.00, -183371.16, -151453.50, -183393.28, -0.00, -0.00, -0.00
182, -183368.78, -183309.47, -183432.47, -180190.53, 187500.00, -183478.89, -153755.28, -183500.97, -0.00, -0.00, -0.00
183, -183421.41, -183362.08, -183481.84, -177240.86, 187500.00, -183532.00, -154873.02, -183554.00, -0.00, -0.00, -0.00
184, -183322.31, -183263.11, -183387.36, -181724.84, 187500.00, -183432.05, -152651.50, -183454.13, -0.00, -0.00, -0.00
185, -183259.39, -183200.23, -183327.75, -183262.50, 187500.00, -183368.56, -151521.67, -183390.56, -0.00, -0.00, -0.00
186, -183350.03, -183290.78, -183414.92, -181152.20, 187500.00, -183459.89, -153489.69, -183481.83, -0.00, -0.00, -0.00
187, -183429.83, -183370.55, -183490.25, -177139.72, 187500.00, -183540.45, -155215.30, -183562.33, -0.00, -0.00, -0.00
188, -183349.05, -183289.94, -183412.98, -180989.42, 187500.00, -183459.00, -153350.70, -183480.95, -0.00, -0.00, -0.00
189, -183264.66, -183205.58, -183332.95, -183247.78, 187500.00, -183373.81, -151718.73, -183395.88, -0.00, -0.00, -0.00
190, -183333.58, -183274.33, -183399.59, -181964.11, 187500.00, -183443.36, -153235.55, -183465.25, -0.00, -0.00, -0.00
191, -183434.39, -183375.06, -183495.02, -177458.47, 187500.00, -183545.05, -155423.16, -183566.84, -0.00, -0.00, -0.00
192, -183377.39, -183318.19, -183440.36, -180169.20, 187500.00, -183487.41, -154063.34, -183509.36, -0.00, -0.00, -0.00
193, -183274.59, -183215.45, -183342.64, -183162.22, 187500.00, -183383.73, -152021.78, -183405.72, -0.00, -0.00, -0.00
194, -183319.23, -183259.94, -183386.16, -182559.86, 187500.00, -183428.78, -153007.86, -183450.73, -0.00, -0.00, -0.00
195, -183433.31, -183373.95, -183494.38, -178094.69, 187500.00, -183543.73, -155472.14, -183565.61, -0.00, -0.00, -0.00
196, -183403.30, -183343.98, -183465.06, -179300.56, 187500.00, -183513.50, -154744.03, -183535.33, -0.00, -0.00, -0.00
197, -183288.95, -183229.78, -183356.47, -182991.94, 187500.00, -183398.27, -152425.13, -183420.16, -0.00, -0.00, -0.00
198, -183302.94, -183243.70, -183370.63, -182941.98, 187500.00, -183412.39, -152835.09, -183434.34, -0.00, -0.00, -0.00
199, -183421.72, -183362.31, -183483.55, -178969.72, 187500.00, -183532.22, -155388.50, -183553.97, -0.00, -0.00, -0.00
200, -183425.19, -183365.88, -183486.33, -178544.14, 187500.00, -183535.80, -155364.17, -183557.41, -0.00, -0.00, -0.00
201, -183310.81, -183251.63, -183377.80, -182705.48, 187500.00, -183420.42, -152936.00, -183442.14, -0.00, -0.00, -0.00
202, -183295.00, -183235.75, -183363.27, -183166.22, 187500.00, -183404.45, -152747.70, -183426.17, -0.00, -0.00, -0.00
203, -183407.59, -183348.25, -183470.63, -179907.17, 187500.00, -183518.08, -155211.14, -183539.64, -0.00, -0.00, -0.00
204, -183444.27, -183384.95, -183504.63, -177937.97, 187500.00, -183554.89, -155913.67, -183576.59, -0.00, -0.00, -0.00
205, -183335.69, -183276.44, -183401.52, -182260.45, 187500.00, -183445.39, -153558.11, -183467.19, -0.00, -0.00, -0.00
206, -183290.11, -183230.92, -183358.59, -183276.39, 187500.00, -183399.45, -152777.41, -183421.22, -0.00, -0.00, -0.00
207, -183393.69, -183334.50, -183458.06, -180834.64, 187500.00, -183504.00, -154950.16, -183525.73, -0.00, -0.00, -0.00
208, -183458.33, -183399.08, -183518.59, -177626.98, 187500.00, -183569.19, -156320.83, -183590.73, -0.00, -0.00, -0.00
209, -183364.03, -183304.81, -183428.95, -181658.33, 187500.00, -183474.09, -154272.72, -183495.67, -0.00, -0.00, -0.00
210, -183291.97, -183232.83, -183360.61, -183304.66, 187500.00, -183401.41, -152959.64, -183423.11, -0.00, -0.00, -0.00
211, -183374.80, -183315.69, -183440.48, -181642.16, 187500.00, -183484.97, -154700.22, -183506.72, -0.00, -0.00, -0.00
212, -183465.48, -183406.25, -183525.94, -177598.03, 187500.00, -183576.33, -156607.89, -183597.94, -0.00, -0.00, -0.00
213, -183392.02, -183332.78, -183455.78, -180874.36, 187500.00, -183502.09, -154946.02, -183523.81, -0.00, -0.00, -0.00
214, -183299.56, -183240.47, -183368.05, -183265.67, 187500.00, -183408.94, -153145.59, -183430.41, -0.00, -0.00, -0.00
215, -183360.52, -183301.38, -183427.27, -182283.66, 187500.00, -183470.48, -154478.22, -183492.02, -0.00, -0.00, -0.00
216, -183467.00, -183407.70, -183527.81, -177824.80, 187500.00, -183577.84, -156789.45, -183599.25, -0.00, -0.00, -0.00
217, -183419.28, -183360.00, -183481.94, -179947.11, 187500.00, -183529.72, -155645.61, -183551.17, -0.00, -0.00, -0.00
218, -183311.19, -183252.09, -183379.20, -183150.17, 187500.00, -183420.58, -153475.09, -183442.14, -0.00, -0.00, -0.00
219, -183342.69, -183283.45, -183410.14, -182754.66, 187500.00, -183452.36, -154252.05, -183473.86, -0.00, -0.00, -0.00
220, -183458.84, -183399.45, -183520.33, -178394.83, 187500.00, -183569.53, -156791.00, -183590.77, -0.00, -0.00, -0.00
221, -183444.73, -183385.53, -183506.45, -178985.70, 187500.00, -183555.31, -156331.09, -183576.66, -0.00, -0.00, -0.00
222, -183327.91, -183268.73, -183395.36, -182922.41, 187500.00, -183437.50, -153953.16, -183459.02, -0.00, -0.00, -0.00
223, -183329.84, -183270.55, -183397.91, -183057.19, 187500.00, -183439.47, -154152.16, -183460.91, -0.00, -0.00, -0.00
224, -183448.38, -183389.06, -183510.98, -179155.59, 187500.00, -183559.02, -156709.84, -183580.30, -0.00, -0.00, -0.00
225, -183463.56, -183404.22, -183524.67, -178094.78, 187500.00, -183574.36, -156963.38, -183595.64, -0.00, -0.00, -0.00
226, -183350.23, -183290.95, -183416.70, -182536.14, 187500.00, -183459.98, -154531.55, -183481.33, -0.00, -0.00, -0.00
227, -183323.70, -183264.53, -183392.09, -183236.91, 187500.00, -183433.14, -154115.77, -183454.59, -0.00, -0.00, -0.00
228, -183434.50, -183375.27, -183498.11, -180057.48, 187500.00, -183544.89, -156511.89, -183566.28, -0.00, -0.00, -0.00
229, -183480.97, -183421.69, -183541.61, -177437.55, 187500.00, -183591.86, -157474.27, -183613.06, -0.00, -0.00, -0.00
230, -183376.92, -183317.69, -183442.30, -181962.45, 187500.00, -183486.89, -155175.89, -183508.23, -0.00, -0.00, -0.00
231, -183321.80, -183262.58, -183390.33, -183317.80, 187500.00, -183431.31, -154175.22, -183452.55, -0.00, -0.00, -0.00
232, -183416.38, -183357.03, -183481.23, -180952.20, 187500.00, -183526.75, -156260.02, -183547.95, -0.00, -0.00, -0.00
233, -183493.31, -183433.98, -183553.86, -177090.98, 187500.00, -183604.28, -157862.59, -183625.36, -0.00, -0.00, -0.00
234, -183405.73, -183346.64, -183470.16, -181187.33, 187500.00, -183516.00, -155883.27, -183537.14, -0.00, -0.00, -0.00
235, -183324.47, -183265.34, -183393.05, -183315.64, 187500.00, -183434.03, -154363.36, -183455.20, -0.00, -0.00, -0.00
236, -183399.47, -183340.16, -183465.34, -181741.72, 187500.00, -183509.63, -156024.02, -183530.75, -0.00, -0.00, -0.00
237, -183494.16, -183434.84, -183554.98, -177091.50, 187500.00, -183605.02, -158130.45, -183626.14, -0.00, -0.00, -0.00
238, -183430.95, -183371.69, -183494.20, -180226.38, 187500.00, -183541.25, -156626.42, -183562.52, -0.00, -0.00, -0.00
239, -183332.63, -183273.48, -183400.97, -183231.38, 187500.00, -183442.06, -154665.08, -183463.45, -0.00, -0.00, -0.00
240, -183381.50, -183322.23, -183448.31, -182370.88, 187500.00, -183491.41, -155801.00, -183512.64, -0.00, -0.00, -0.00
241, -183491.09, -183431.80, -183552.39, -177438.00, 187500.00, -183601.98, -158235.73, -183623.13, -0.00, -0.00, -0.00
242, -183456.36, -183397.08, -183518.48, -179147.42, 187500.00, -183566.88, -157340.55, -183587.97, -0.00, -0.00, -0.00
243, -183345.23, -183286.06, -183412.89, -183037.77, 187500.00, -183454.78, -155068.17, -183475.88, -0.00, -0.00, -0.00
244, -183367.27, -183308.13, -183434.81, -182820.20, 187500.00, -183477.08, -155632.44, -183498.11, -0.00, -0.00, -0.00
245, -183485.38, -183426.03, -183547.31, -178072.67, 187500.00, -183596.16, -158198.88, -183617.25, -0.00, -0.00, -0.00
246, -183479.86, -183420.55, -183541.28, -178084.92, 187500.00, -183590.63, -157997.28, -183611.59, -0.00, -0.00, -0.00
247, -183364.05, -183304.89, -183431.00, -182693.63, 187500.00, -183473.78, -155571.25, -183494.88, -0.00, -0.00, -0.00
248, -183353.56, -183294.48, -183421.77, -183112.88, 187500.00, -183463.25, -155533.92, -183484.39, -0.00, -0.00, -0.00
249, -183471.25, -183411.95, -183534.19, -179000.14, 187500.00, -183581.83, -158049.58, -183602.91, -0.00, -0.00, -0.00
250, -183498.14, -183438.84, -183559.02, -177203.64, 187500.00, -183608.89, -158576.55, -183629.91, -0.00, -0.00, -0.00
251, -183386.73, -183327.53, -183452.66, -182154.34, 187500.00, -183496.55, -156176.44, -183517.61, -0.00, -0.00, -0.00
252, -183349.00, -183289.70, -183417.45, -183277.06, 187500.00, -183458.58, -155541.78, -183479.55, -0.00, -0.00, -0.00
253, -183453.08, -183393.80, -183517.05, -179995.48, 187500.00, -183563.56, -157843.75, -183584.48, -0.00, -0.00, -0.00
254, -183509.06, -183449.75, -183569.75, -176605.44, 187500.00, -183620.05, -159063.75, -183640.86, -0.00, -0.00, -0.00
255, -183410.67, -183351.53, -183475.50, -181410.13, 187500.00, -183520.83, -156865.56, -183541.67, -0.00, -0.00, -0.00
0, -183344.09, -183284.91, -183412.58, -183327.91, 187500.00, -183453.70, -155658.77, -183474.48, -0.00, -0.00, -0.00
1, -183433.77, -183374.44, -183498.66, -180952.88, 187500.00, -183544.03, -157599.59, -183564.86, -0.00, -0.00, -0.00
2, -183516.63, -183457.30, -183577.33, -176381.23, 187500.00, -183627.64, -159411.86, -183648.34, -0.00, -0.00, -0.00
3, -183435.70, -183376.55, -183499.48, -180475.94, 187500.00, -183546.13, -157585.58, -183566.91, -0.00, -0.00, -0.00
4, -183346.64, -183287.56, -183415.19, -183285.13, 187500.00, -183456.36, -155886.89, -183477.13, -0.00, -0.00, -0.00
5, -183412.50, -183353.30, -183478.67, -181799.31, 187500.00, -183522.72, -157354.89, -183543.56, -0.00, -0.00, -0.00
6, -183516.28, -183456.98, -183577.36, -176583.53, 187500.00, -183627.44, -159581.97, -183648.05, -0.00, -0.00, -0.00
7, -183463.20, -183403.97, -183525.86, -179424.73, 187500.00, -183573.81, -158314.31, -183594.47, -0.00, -0.00, -0.00
8, -183358.80, -183299.70, -183426.83, -183143.73, 187500.00, -183468.52, -156264.08, -183489.27, -0.00, -0.00, -0.00
9, -183399.05, -183339.91, -183466.06, -182471.16, 187500.00, -183508.95, -157149.77, -183529.77, -0.00, -0.00, -0.00
10, -183513.77, -183454.50, -183575.36, -177211.73, 187500.00, -183624.64, -159606.22, -183645.39, -0.00, -0.00, -0.00
11, -183488.61, -183429.39, -183550.39, -178398.59, 187500.00, -183599.33, -158999.63, -183620.05, -0.00, -0.00, -0.00
12, -183375.25, -183315.97, -183442.58, -182883.00, 187500.00, -183484.91, -156701.84, -183505.80, -0.00, -0.00, -0.00
13, -183384.28, -183324.91, -183452.03, -182928.95, 187500.00, -183493.98, -157013.31, -183514.80, -0.00, -0.00, -0.00
14, -183501.80, -183442.45, -183564.23, -178166.42, 187500.00, -183612.63, -159523.41, -183633.23, -0.00, -0.00, -0.00
15, -183509.36, -183449.97, -183570.59, -177491.78, 187500.00, -183620.20, -159618.81, -183640.81, -0.00, -0.00, -0.00
16, -183393.73, -183334.44, -183460.30, -182464.89, 187500.00, -183503.53, -157231.52, -183524.28, -0.00, -0.00, -0.00
17, -183372.34, -183313.11, -183440.63, -183200.19, 187500.00, -183481.95, -156962.77, -183502.72, -0.00, -0.00, -0.00
18, -183485.38, -183426.23, -183548.86, -179291.67, 187500.00, -183596.19, -159352.83, -183616.83, -0.00, -0.00, -0.00
19, -183525.41, -183466.11, -183586.36, -176874.63, 187500.00, -183636.47, -160140.05, -183657.03, -0.00, -0.00, -0.00
20, -183418.75, -183359.53, -183484.44, -181900.53, 187500.00, -183528.84, -157837.95, -183549.44, -0.00, -0.00, -0.00
21, -183368.61, -183309.47, -183437.34, -183331.06, 187500.00, -183478.41, -156988.28, -183498.94, -0.00, -0.00, -0.00
22, -183468.47, -183409.17, -183533.09, -180421.70, 187500.00, -183579.03, -159096.98, -183599.61, -0.00, -0.00, -0.00
23, -183538.84, -183479.47, -183599.66, -176578.27, 187500.00, -183649.95, -160534.20, -183670.33, -0.00, -0.00, -0.00
24, -183444.09, -183384.91, -183508.75, -181157.89, 187500.00, -183554.52, -158498.34, -183574.94, -0.00, -0.00, -0.00
25, -183370.02, -183310.88, -183438.77, -183353.55, 187500.00, -183479.73, -157108.13, -183500.28, -0.00, -0.00, -0.00
26, -183450.19, -183390.94, -183516.02, -181414.63, 187500.00, -183560.61, -158813.86, -183581.11, -0.00, -0.00, -0.00
27, -183541.08, -183481.69, -183602.16, -176679.31, 187500.00, -183652.19, -160789.53, -183672.53, -0.00, -0.00, -0.00
28, -183472.03, -183412.64, -183535.58, -180297.86, 187500.00, -183582.41, -159193.59, -183602.81, -0.00, -0.00, -0.00
29, -183376.77, -183317.58, -183445.25, -183287.70, 187500.00, -183486.41, -157357.19, -183506.94, -0.00, -0.00, -0.00
30, -183433.25, -183373.95, -183499.97, -182201.45, 187500.00, -183543.42, -158598.50, -183563.89, -0.00, -0.00, -0.00
31, -183540.98, -183481.58, -183602.31, -177127.64, 187500.00, -183652.13, -160949.86, -183672.41, -0.00, -0.00, -0.00
32, -183497.09, -183437.78, -183559.69, -179326.75, 187500.00, -183607.77, -159878.00, -183628.16, -0.00, -0.00, -0.00
33, -183388.13, -183329.05, -183456.34, -183128.22, 187500.00, -183498.00, -157649.95, -183518.41, -0.00, -0.00, -0.00
34, -183415.55, -183356.47, -183483.20, -182755.72, 187500.00, -183525.61, -158368.41, -183545.92, -0.00, -0.00, -0.00
35, -183533.78, -183474.48, -183595.81, -177886.86, 187500.00, -183644.86, -160943.70, -183665.02, -0.00, -0.00, -0.00
36, -183520.13, -183460.78, -183581.95, -178377.78, 187500.00, -183631.05, -160563.22, -183651.20, -0.00, -0.00, -0.00
37, -183404.13, -183344.89, -183471.47, -182842.34, 187500.00, -183514.03, -158137.00, -183534.30, -0.00, -0.00, -0.00
38, -183401.84, -183342.72, -183470.13, -183100.30, 187500.00, -183511.75, -158250.61, -183532.09, -0.00, -0.00, -0.00
39, -183521.25, -183461.92, -183584.13, -178809.30, 187500.00, -183632.19, -160808.22, -183652.44, -0.00, -0.00, -0.00
40, -183538.03, -183478.69, -183599.38, -177499.95, 187500.00, -183649.09, -161151.77, -183669.34, -0.00, -0.00, -0.00
41, -183426.81, -183367.61, -183493.38, -182380.03, 187500.00, -183536.89, -158753.81, -183557.22, -0.00, -0.00, -0.00
42, -183395.03, -183335.94, -183463.64, -183296.38, 187500.00, -183504.91, -158250.80, -183525.23, -0.00, -0.00, -0.00
43, -183504.28, -183445.13, -183568.25, -179847.19, 187500.00, -183615.19, -160552.27, -183635.36, -0.00, -0.00, -0.00
44, -183554.13, -183494.88, -183615.13, -176867.89, 187500.00, -183665.53, -161611.98, -183685.48, -0.00, -0.00, -0.00
45, -183450.73, -183391.56, -183516.13, -181711.94, 187500.00, -183561.17, -159383.88, -183581.23, -0.00, -0.00, -0.00
46, -183392.69, -183333.58, -183461.44, -183375.84, 187500.00, -183502.52, -158308.61, -183522.66, -0.00, -0.00, -0.00
47, -183487.88, -183428.73, -183552.98, -180832.38, 187500.00, -183598.50, -160282.61, -183618.69, -0.00, -0.00, -0.00
48, -183563.14, -183503.81, -183624.09, -176573.88, 187500.00, -183674.41, -161946.66, -183694.39, -0.00, -0.00, -0.00
49, -183477.02, -183417.77, -183541.30, -180855.72, 187500.00, -183587.55, -160015.55, -183607.70, -0.00, -0.00, -0.00
50, -183392.45, -183333.38, -183461.19, -183357.70, 187500.00, -183502.42, -158417.30, -183522.55, -0.00, -0.00, -0.00
51, -183469.17, -183410.03, -183535.28, -181706.02, 187500.00, -183579.75, -160037.45, -183599.86, -0.00, -0.00, -0.00
52, -183568.72, -183509.52, -183629.92, -176681.66, 187500.00, -183680.03, -162216.89, -183700.06, -0.00, -0.00, -0.00
53, -183506.34, -183447.17, -183569.53, -179833.91, 187500.00, -183617.03, -160764.67, -183637.08, -0.00, -0.00, -0.00
54, -183402.83, -183343.69, -183471.09, -183247.58, 187500.00, -183512.67, -158734.86, -183532.67, -0.00, -0.00, -0.00
55, -183448.89, -183389.73, -183515.81, -182388.00, 187500.00, -183559.09, -159818.05, -183579.16, -0.00, -0.00, -0.00
56, -183560.88, -183501.61, -183622.38, -177131.73, 187500.00, -183672.02, -162297.53, -183691.92, -0.00, -0.00, -0.00
57, -183525.78, -183466.52, -183587.81, -178732.23, 187500.00, -183636.56, -161478.03, -183656.56, -0.00, -0.00, -0.00
58, -183413.45, -183354.22, -183480.97, -183011.88, 187500.00, -183523.27, -159183.73, -183543.28, -0.00, -0.00, -0.00
59, -183430.92, -183371.73, -183498.56, -182869.92, 187500.00, -183540.98, -159662.44, -183560.97, -0.00, -0.00, -0.00
60, -183550.73, -183491.45, -183613.06, -177904.66, 187500.00, -183661.95, -162191.98, -183681.80, -0.00, -0.00, -0.00
61, -183551.05, -183491.70, -183612.52, -177685.00, 187500.00, -183662.17, -162081.02, -183682.00, -0.00, -0.00, -0.00
62, -183434.86, -183375.63, -183501.69, -182613.19, 187500.00, -183544.97, -159632.17, -183564.77, -0.00, -0.00, -0.00
63, -183420.00, -183360.83, -183488.25, -183176.30, 187500.00, -183529.98, -159520.58, -183549.84, -0.00, -0.00, -0.00
64, -183536.67, -183477.34, -183599.80, -178908.19, 187500.00, -183647.56, -162049.38, -183667.42, -0.00, -0.00, -0.00
65, -183570.59, -183511.30, -183631.53, -176834.61, 187500.00, -183681.69, -162671.67, -183701.56, -0.00, -0.00, -0.00
66, -183458.58, -183399.39, -183524.38, -182011.61, 187500.00, -183568.75, -160260.45, -183588.66, -0.00, -0.00, -0.00
67, -183415.53, -183356.45, -183484.23, -183340.72, 187500.00, -183525.45, -159545.36, -183545.34, -0.00, -0.00, -0.00
68, -183522.09, -183462.83, -183586.31, -179967.34, 187500.00, -183632.84, -161843.92, -183652.56, -0.00, -0.00, -0.00
69, -183582.17, -183522.80, -183643.02, -176310.69, 187500.00, -183693.41, -163160.16, -183713.08, -0.00, -0.00, -0.00
70, -183482.48, -183423.42, -183547.38, -181222.91, 187500.00, -183593.05, -160976.25, -183612.73, -0.00, -0.00, -0.00
71, -183411.77, -183352.78, -183480.66, -183383.47, 187500.00, -183521.73, -159689.39, -183541.55, -0.00, -0.00, -0.00
72, -183498.67, -183439.52, -183564.03, -180957.59, 187500.00, -183609.31, -161600.30, -183629.13, -0.00, -0.00, -0.00
73, -183586.81, -183527.58, -183647.73, -176102.92, 187500.00, -183698.09, -163489.48, -183717.81, -0.00, -0.00, -0.00
74, -183509.22, -183450.13, -183572.84, -180192.30, 187500.00, -183619.89, -161701.05, -183639.63, -0.00, -0.00, -0.00
75, -183418.86, -183359.83, -183487.39, -183324.89, 187500.00, -183528.80, -159935.27, -183548.50, -0.00, -0.00, -0.00
76, -183482.73, -183423.70, -183549.13, -181828.13, 187500.00, -183593.28, -161314.86, -183612.89, -0.00, -0.00, -0.00
77, -183587.91, -183528.69, -183649.19, -176340.75, 187500.00, -183699.28, -163598.27, -183718.86, -0.00, -0.00, -0.00
78, -183537.63, -183478.44, -183600.19, -179071.86, 187500.00, -183648.50, -162420.48, -183668.14, -0.00, -0.00, -0.00
79, -183429.67, -183370.52, -183497.72, -183146.36, 187500.00, -183539.59, -160297.47, -183559.30, -0.00, -0.00, -0.00
80, -183465.92, -183406.70, -183533.05, -182510.50, 187500.00, -183576.13, -161102.14, -183595.75, -0.00, -0.00, -0.00
81, -183581.38, -183522.09, -183643.14, -176995.77, 187500.00, -183692.69, -163611.77, -183712.05, -0.00, -0.00, -0.00
82, -183560.39, -183501.20, -183622.19, -177957.13, 187500.00, -183671.55, -163093.91, -183691.02, -0.00, -0.00, -0.00
83, -183444.89, -183385.70, -183512.22, -182821.33, 187500.00, -183554.94, -160734.98, -183574.58, -0.00, -0.00, -0.00
84, -183453.25, -183394.16, -183521.19, -182970.91, 187500.00, -183563.42, -161026.67, -183583.05, -0.00, -0.00, -0.00
85, -183572.08, -183512.83, -183634.70, -177920.34, 187500.00, -183683.36, -163631.89, -183702.81, -0.00, -0.00, -0.00
86, -183585.63, -183526.41, -183646.98, -176975.52, 187500.00, -183697.02, -163785.22, -183716.33, -0.00, -0.00, -0.00
87, -183469.06, -183409.95, -183535.53, -182313.31, 187500.00, -183579.47, -161325.19, -183598.88, -0.00, -0.00, -0.00
88, -183444.38, -183385.23, -183512.83, -183247.34, 187500.00, -183554.63, -161015.17, -183573.94, -0.00, -0.00, -0.00
89, -183555.89, -183496.69, -183619.38, -179002.05, 187500.00, -183667.00, -163427.02, -183686.30, -0.00, -0.00, -0.00
90, -183599.95, -183540.77, -183661.02, -176236.70, 187500.00, -183711.48, -164249.94, -183730.69, -0.00, -0.00, -0.00
91, -183490.92, -183431.80, -183556.34, -181591.09, 187500.00, -183601.52, -161946.03, -183620.83, -0.00, -0.00, -0.00
92, -183436.94, -183377.75, -183505.45, -183376.25, 187500.00, -183546.95, -161019.19, -183566.31, -0.00, -0.00, -0.00
93, -183537.00, -183477.91, -183601.52, -180141.36, 187500.00, -183647.94, -163088.38, -183667.23, -0.00, -0.00, -0.00
94, -183608.64, -183549.59, -183669.63, -175841.70, 187500.00, -183720.25, -164613.31, -183739.48, -0.00, -0.00, -0.00
95, -183515.28, -183456.16, -183579.45, -180660.61, 187500.00, -183625.94, -162614.91, -183645.38, -0.00, -0.00, -0.00
96, -183433.19, -183374.11, -183501.89, -183379.25, 187500.00, -183543.22, -161155.64, -183562.63, -0.00, -0.00, -0.00
97, -183512.98, -183453.81, -183578.61, -181162.72, 187500.00, -183623.69, -162816.42, -183643.02, -0.00, -0.00, -0.00
98, -183607.75, -183548.52, -183668.88, -175856.56, 187500.00, -183719.17, -164866.50, -183738.39, -0.00, -0.00, -0.00
99, -183540.20, -183480.97, -183603.41, -179593.44, 187500.00, -183651.11, -163333.11, -183670.33, -0.00, -0.00, -0.00
100, -183444.19, -183385.03, -183512.67, -183273.92, 187500.00, -183554.33, -161436.11, -183573.50, -0.00, -0.00, -0.00
101, -183496.75, -183437.55, -183563.38, -182043.31, 187500.00, -183607.22, -162599.44, -183626.53, -0.00, -0.00, -0.00
102, -183607.28, -183547.89, -183668.72, -176326.41, 187500.00, -183718.69, -165003.56, -183737.86, -0.00, -0.00, -0.00
103, -183565.58, -183506.19, -183627.64, -178465.91, 187500.00, -183676.53, -164060.41, -183695.70, -0.00, -0.00, -0.00
104, -183451.95, -183392.75, -183519.73, -183027.52, 187500.00, -183562.06, -161824.64, -183581.22, -0.00, -0.00, -0.00
105, -183478.94, -183419.81, -183546.38, -182682.98, 187500.00, -183589.31, -162414.39, -183608.39, -0.00, -0.00, -0.00
106, -183596.89, -183537.67, -183658.91, -177162.53, 187500.00, -183708.25, -164958.42, -183727.33, -0.00, -0.00, -0.00
107, -183589.98, -183530.75, -183651.53, -177437.27, 187500.00, -183701.25, -164696.92, -183720.36, -0.00, -0.00, -0.00
108, -183474.72, -183415.53, -183541.66, -182637.17, 187500.00, -183584.97, -162287.27, -183604.13, -0.00, -0.00, -0.00
109, -183468.97, -183409.77, -183537.03, -183103.73, 187500.00, -183579.16, -162275.00, -183598.31, -0.00, -0.00, -0.00
110, -183585.23, -183526.02, -183648.19, -178277.13, 187500.00, -183696.52, -164778.63, -183715.58, -0.00, -0.00, -0.00
111, -183609.31, -183550.16, -183670.47, -176590.75, 187500.00, -183720.81, -165247.42, -183739.95, -0.00, -0.00, -0.00
112, -183495.02, -183435.84, -183561.03, -182047.55, 187500.00, -183605.47, -162850.13, -183624.69, -0.00, -0.00, -0.00
113, -183458.53, -183399.44, -183527.16, -183329.53, 187500.00, -183568.81, -162253.25, -183587.88, -0.00, -0.00, -0.00
114, -183567.88, -183508.69, -183631.80, -179448.77, 187500.00, -183679.00, -164557.89, -183697.92, -0.00, -0.00, -0.00
115, -183622.53, -183563.30, -183683.56, -176060.91, 187500.00, -183734.08, -165730.61, -183752.95, -0.00, -0.00, -0.00
116, -183521.94, -183462.80, -183586.97, -181294.44, 187500.00, -183632.67, -163526.63, -183651.63, -0.00, -0.00, -0.00
117, -183457.69, -183398.66, -183526.45, -183416.73, 187500.00, -183567.92, -162366.84, -183586.89, -0.00, -0.00, -0.00
118, -183549.33, -183490.14, -183614.34, -180610.20, 187500.00, -183660.34, -164316.09, -183679.28, -0.00, -0.00, -0.00
119, -183628.88, -183569.59, -183689.84, -175901.42, 187500.00, -183740.56, -166088.81, -183759.42, -0.00, -0.00, -0.00
120, -183545.72, -183486.52, -183609.69, -180351.59, 187500.00, -183656.67, -164241.28, -183675.67, -0.00, -0.00, -0.00
121, -183458.89, -183399.72, -183527.55, -183381.91, 187500.00, -183569.02, -162581.94, -183587.95, -0.00, -0.00, -0.00
122, -183530.14, -183470.89, -183596.23, -181613.94, 187500.00, -183640.83, -164065.91, -183659.77, -0.00, -0.00, -0.00
123, -183633.70, -183574.33, -183694.98, -176173.78, 187500.00, -183745.17, -166284.20, -183764.03, -0.00, -0.00, -0.00
124, -183577.27, -183517.88, -183640.00, -179335.45, 187500.00, -183688.11, -164950.08, -183707.06, -0.00, -0.00, -0.00
125, -183471.94, -183412.70, -183540.14, -183241.09, 187500.00, -183581.98, -162896.09, -183600.95, -0.00, -0.00, -0.00
126, -183515.30, -183456.00, -183582.31, -182396.53, 187500.00, -183625.78, -163854.52, -183644.70, -0.00, -0.00, -0.00
127, -183630.27, -183570.88, -183691.91, -176827.02, 187500.00, -183741.77, -166338.81, -183760.48, -0.00, -0.00, -0.00
128, -183600.63, -183541.25, -183662.63, -178271.25, 187500.00, -183711.86, -165644.34, -183730.78, -0.00, -0.00, -0.00
129, -183484.06, -183424.98, -183551.77, -182963.30, 187500.00, -183594.45, -163326.66, -183613.41, -0.00, -0.00, -0.00
130, -183499.50, -183440.30, -183567.41, -182927.30, 187500.00, -183610.05, -163723.39, -183628.89, -0.00, -0.00, -0.00
131, -183619.16, -183559.69, -183681.42, -177775.20, 187500.00, -183730.59, -166299.03, -183749.19, -0.00, -0.00, -0.00
132, -183620.98, -183561.53, -183682.34, -177332.23, 187500.00, -183732.39, -166272.88, -183750.98, -0.00, -0.00, -0.00
133, -183503.59, -183444.25, -183570.27, -182529.41, 187500.00, -183613.92, -163788.58, -183632.63, -0.00, -0.00, -0.00
134, -183486.61, -183427.39, -183555.06, -183247.69, 187500.00, -183596.89, -163600.50, -183615.69, -0.00, -0.00, -0.00
135, -183605.98, -183546.73, -183669.39, -178900.94, 187500.00, -183717.30, -166133.89, -183735.95, -0.00, -0.00, -0.00
136, -183641.80, -183582.36, -183702.70, -176610.78, 187500.00, -183753.17, -166852.45, -183771.92, -0.00, -0.00, -0.00
137, -183528.77, -183469.53, -183594.42, -181916.34, 187500.00, -183639.33, -164444.45, -183658.22, -0.00, -0.00, -0.00
138, -183482.30, -183423.08, -183551.05, -183411.66, 187500.00, -183592.58, -163650.27, -183611.39, -0.00, -0.00, -0.00
139, -183587.70, -183528.38, -183652.09, -180070.52, 187500.00, -183698.83, -165920.48, -183717.55, -0.00, -0.00, -0.00
140, -183654.47, -183595.14, -183715.47, -176207.98, 187500.00, -183766.20, -167315.61, -183784.73, -0.00, -0.00, -0.00
141, -183556.92, -183497.73, -183621.61, -181115.16, 187500.00, -183667.81, -165150.48, -183686.55, -0.00, -0.00, -0.00
142, -183483.75, -183424.56, -183552.55, -183451.63, 187500.00, -183593.92, -163783.25, -183612.78, -0.00, -0.00, -0.00
143, -183568.05, -183508.78, -183633.55, -181149.19, 187500.00, -183679.00, -165651.92, -183697.73, -0.00, -0.00, -0.00
144, -183658.59, -183599.28, -183719.70, -176229.34, 187500.00, -183770.27, -167608.27, -183788.95, -0.00, -0.00, -0.00
145, -183584.86, -183525.67, -183648.47, -180191.95, 187500.00, -183696.02, -165863.14, -183714.61, -0.00, -0.00, -0.00
146, -183489.42, -183430.30, -183557.97, -183384.80, 187500.00, -183599.64, -164016.83, -183618.28, -0.00, -0.00, -0.00
147, -183549.95, -183490.67, -183616.52, -182041.86, 187500.00, -183660.61, -165397.88, -183679.28, -0.00, -0.00, -0.00
148, -183657.94, -183598.55, -183719.39, -176654.30, 187500.00, -183769.55, -167770.67, -183787.97, -0.00, -0.00, -0.00
149, -183610.16, -183550.86, -183672.97, -179201.13, 187500.00, -183721.44, -166603.97, -183740.00, -0.00, -0.00, -0.00
150, -183501.77, -183442.45, -183570.00, -183216.11, 187500.00, -183612.05, -164395.53, -183630.66, -0.00, -0.00, -0.00
151, -183536.61, -183477.33, -183604.13, -182707.69, 187500.00, -183647.20, -165217.36, -183665.78, -0.00, -0.00, -0.00
152, -183653.39, -183594.08, -183715.44, -177439.78, 187500.00, -183765.00, -167810.88, -183783.44, -0.00, -0.00, -0.00
153, -183636.81, -183577.47, -183698.77, -178217.41, 187500.00, -183748.25, -167325.56, -183766.67, -0.00, -0.00, -0.00
154, -183520.48, -183461.19, -183588.02, -182921.31, 187500.00, -183630.95, -164895.08, -183649.41, -0.00, -0.00, -0.00
155, -183524.25, -183464.98, -183592.55, -183140.48, 187500.00, -183634.86, -165109.06, -183653.22, -0.00, -0.00, -0.00
156, -183643.47, -183584.17, -183706.39, -178506.81, 187500.00, -183754.95, -167726.41, -183773.41, -0.00, -0.00, -0.00
157, -183661.13, -183601.84, -183722.75, -177430.88, 187500.00, -183772.73, -167974.88, -183791.09, -0.00, -0.00, -0.00
158, -183546.95, -183487.75, -183613.73, -182484.48, 187500.00, -183657.58, -165497.66, -183676.11, -0.00, -0.00, -0.00
159, -183517.63, -183458.42, -183586.34, -183384.23, 187500.00, -183628.00, -165095.17, -183646.42, -0.00, -0.00, -0.00
160, -183632.11, -183572.75, -183696.00, -179667.56, 187500.00, -183743.48, -167545.91, -183761.78, -0.00, -0.00, -0.00
161, -183680.61, -183621.19, -183741.80, -176870.39, 187500.00, -183792.38, -168507.98, -183810.72, -0.00, -0.00, -0.00
162, -183575.23, -183515.97, -183641.02, -181868.63, 187500.00, -183686.14, -166180.13, -183704.53, -0.00, -0.00, -0.00
163, -183518.30, -183459.09, -183587.36, -183492.27, 187500.00, -183628.69, -165199.56, -183647.06, -0.00, -0.00, -0.00
164, -183615.55, -183556.31, -183680.77, -180784.77, 187500.00, -183726.89, -167320.61, -183745.13, -0.00, -0.00, -0.00
165, -183688.19, -183628.83, -183749.45, -176681.30, 187500.00, -183800.11, -168913.64, -183818.23, -0.00, -0.00, -0.00
166, -183600.03, -183540.73, -183664.75, -181106.05, 187500.00, -183711.13, -166914.31, -183729.36, -0.00, -0.00, -0.00
167, -183520.05, -183460.77, -183589.06, -183492.69, 187500.00, -183630.45, -165414.39, -183648.75, -0.00, -0.00, -0.00
168, -183597.14, -183537.86, -183663.41, -181728.73, 187500.00, -183708.22, -167096.86, -183726.44, -0.00, -0.00, -0.00
169, -183693.48, -183634.19, -183754.94, -176820.83, 187500.00, -183805.45, -169192.23, -183823.47, -0.00, -0.00, -0.00
170, -183629.39, -183570.05, -183693.00, -180161.56, 187500.00, -183740.56, -167671.88, -183758.84, -0.00, -0.00, -0.00
171, -183528.53, -183469.17, -183597.25, -183401.94, 187500.00, -183638.95, -165735.59, -183657.19, -0.00, -0.00, -0.00
172, -183580.50, -183521.06, -183647.72, -182462.17, 187500.00, -183691.34, -166907.11, -183709.56, -0.00, -0.00, -0.00
173, -183692.34, -183632.92, -183754.16, -177313.45, 187500.00, -183804.13, -169335.25, -183822.34, -0.00, -0.00, -0.00
174, -183657.17, -183597.88, -183719.98, -179161.09, 187500.00, -183768.70, -168424.88, -183786.92, -0.00, -0.00, -0.00
175, -183545.80, -183486.53, -183614.14, -183210.00, 187500.00, -183656.34, -166173.13, -183674.56, -0.00, -0.00, -0.00
176, -183567.97, -183508.64, -183636.14, -182971.69, 187500.00, -183678.83, -166776.50, -183696.94, -0.00, -0.00, -0.00
177, -183688.02, -183628.67, -183750.69, -178064.08, 187500.00, -183799.95, -169348.05, -183817.95, -0.00, -0.00, -0.00
178, -183681.47, -183622.19, -183743.56, -178147.38, 187500.00, -183793.25, -169132.41, -183811.28, -0.00, -0.00, -0.00
179, -183565.64, -183506.47, -183633.28, -182864.64, 187500.00, -183676.48, -166725.70, -183694.66, -0.00, -0.00, -0.00
180, -183558.05, -183498.89, -183626.81, -183295.97, 187500.00, -183668.84, -166739.11, -183686.98, -0.00, -0.00, -0.00
181, -183677.78, -183618.48, -183741.30, -179057.11, 187500.00, -183789.52, -169274.16, -183807.59, -0.00, -0.00, -0.00
182, -183704.83, -183645.38, -183766.41, -177306.23, 187500.00, -183816.73, -169778.38, -183834.75, -0.00, -0.00, -0.00
183, -183593.27, -183534.02, -183659.89, -182333.88, 187500.00, -183704.22, -167361.75, -183722.42, -0.00, -0.00, -0.00
184, -183555.67, -183496.48, -183624.69, -183473.75, 187500.00, -183666.25, -166757.86, -183684.39, -0.00, -0.00, -0.00
185, -183665.11, -183605.81, -183729.64, -180090.28, 187500.00, -183776.58, -169104.70, -183794.67, -0.00, -0.00, -0.00
186, -183721.78, -183662.47, -183783.14, -176724.13, 187500.00, -183833.86, -170317.92, -183851.83, -0.00, -0.00, -0.00
187, -183621.77, -183562.56, -183687.36, -181598.78, 187500.00, -183733.02, -168096.78, -183751.05, -0.00, -0.00, -0.00
188, -183555.53, -183496.38, -183624.77, -183535.33, 187500.00, -183666.20, -166912.86, -183684.14, -0.00, -0.00, -0.00
189, -183647.33, -183588.03, -183713.05, -181110.30, 187500.00, -183758.72, -168895.55, -183776.64, -0.00, -0.00, -0.00
190, -183730.28, -183670.83, -183791.66, -176557.11, 187500.00, -183842.33, -170702.19, -183860.17, -0.00, -0.00, -0.00
191, -183650.13, -183590.88, -183714.61, -180690.42, 187500.00, -183761.55, -168858.95, -183779.52, -0.00, -0.00, -0.00
192, -183560.97, -183501.78, -183630.13, -183499.39, 187500.00, -183671.67, -167182.58, -183689.58, -0.00, -0.00, -0.00
193, -183628.53, -183569.19, -183695.33, -181982.89, 187500.00, -183739.77, -168701.33, -183757.75, -0.00, -0.00, -0.00
194, -183731.75, -183672.39, -183793.52, -176797.16, 187500.00, -183843.83, -170951.17, -183861.83, -0.00, -0.00, -0.00
195, -183677.94, -183618.69, -183741.30, -179700.53, 187500.00, -183789.67, -169643.97, -183807.53, -0.00, -0.00, -0.00
196, -183573.73, -183514.56, -183642.53, -183366.67, 187500.00, -183684.58, -167581.80, -183702.44, -0.00, -0.00, -0.00
197, -183617.36, -183558.08, -183685.11, -182669.16, 187500.00, -183728.47, -168561.03, -183746.38, -0.00, -0.00, -0.00
198, -183729.83, -183670.41, -183792.05, -177413.95, 187500.00, -183841.84, -171069.66, -183859.61, -0.00, -0.00, -0.00
199, -183704.72, -183645.39, -183767.31, -178646.80, 187500.00, -183816.63, -170404.33, -183834.42, -0.00, -0.00, -0.00
200, -183589.59, -183530.48, -183657.84, -183106.20, 187500.00, -183700.53, -168079.22, -183718.38, -0.00, -0.00, -0.00
201, -183599.59, -183540.42, -183668.22, -183124.80, 187500.00, -183710.64, -168461.45, -183728.47, -0.00, -0.00, -0.00
202, -183716.61, -183657.30, -183779.72, -178318.70, 187500.00, -183828.61, -171015.20, -183846.42, -0.00, -0.00, -0.00
203, -183724.94, -183665.64, -183786.97, -177686.55, 187500.00, -183836.97, -171063.33, -183854.72, -0.00, -0.00, -0.00
204, -183610.08, -183550.89, -183677.48, -182676.67, 187500.00, -183721.16, -168663.31, -183738.95, -0.00, -0.00, -0.00
205, -183592.06, -183532.92, -183661.33, -183400.08, 187500.00, -183703.06, -168446.56, -183720.84, -0.00, -0.00, -0.00
206, -183706.70, -183647.38, -183770.83, -179351.06, 187500.00, -183818.59, -170879.86, -183836.34, -0.00, -0.00, -0.00
207, -183745.23, -183685.94, -183806.88, -176927.95, 187500.00, -183857.39, -171645.92, -183875.03, -0.00, -0.00, -0.00
208, -183637.17, -183577.91, -183703.48, -182049.75, 187500.00, -183748.34, -169337.53, -183766.00, -0.00, -0.00, -0.00
209, -183589.00, -183529.81, -183658.28, -183536.36, 187500.00, -183699.91, -168538.72, -183717.59, -0.00, -0.00, -0.00
210, -183692.44, -183633.23, -183757.63, -180433.05, 187500.00, -183804.28, -170703.75, -183821.88, -0.00, -0.00, -0.00
211, -183760.59, -183701.30, -183822.11, -176519.56, 187500.00, -183872.84, -172126.58, -183890.34, -0.00, -0.00, -0.00
212, -183667.30, -183608.11, -183732.56, -181244.05, 187500.00, -183778.88, -170078.75, -183796.47, -0.00, -0.00, -0.00
213, -183594.19, -183535.06, -183663.58, -183564.20, 187500.00, -183705.14, -168740.16, -183722.70, -0.00, -0.00, -0.00
214, -183676.66, -183617.36, -183742.86, -181406.23, 187500.00, -183788.23, -170536.94, -183805.81, -0.00, -0.00, -0.00
215, -183766.88, -183707.50, -183828.56, -176455.77, 187500.00, -183879.22, -172517.33, -183896.73, -0.00, -0.00, -0.00
216, -183696.31, -183636.92, -183760.44, -180247.45, 187500.00, -183808.06, -170857.42, -183825.56, -0.00, -0.00, -0.00
217, -183601.45, -183542.06, -183670.58, -183485.73, 187500.00, -183712.38, -169018.56, -183729.92, -0.00, -0.00, -0.00
218, -183659.56, -183600.17, -183726.81, -182226.70, 187500.00, -183770.92, -170329.98, -183788.53, -0.00, -0.00, -0.00
219, -183766.73, -183707.33, -183828.77, -176801.02, 187500.00, -183878.94, -172683.89, -183896.53, -0.00, -0.00, -0.00
220, -183724.97, -183665.48, -183788.13, -179163.70, 187500.00, -183836.75, -171612.06, -183854.41, -0.00, -0.00, -0.00
221, -183613.73, -183554.47, -183682.53, -183292.84, 187500.00, -183724.78, -169456.89, -183742.33, -0.00, -0.00, -0.00
222, -183642.84, -183583.61, -183711.06, -182848.48, 187500.00, -183754.17, -170200.08, -183771.72, -0.00, -0.00, -0.00
223, -183760.92, -183701.63, -183823.64, -177546.05, 187500.00, -183873.20, -172715.55, -183890.75, -0.00, -0.00, -0.00
224, -183747.94, -183688.64, -183810.39, -178101.31, 187500.00, -183860.17, -172350.34, -183877.56, -0.00, -0.00, -0.00
225, -183631.20, -183571.89, -183699.19, -182951.50, 187500.00, -183742.42, -170019.00, -183759.81, -0.00, -0.00, -0.00
226, -183630.14, -183570.88, -183698.98, -183250.70, 187500.00, -183741.25, -170120.69, -183758.80, -0.00, -0.00, -0.00
227, -183749.80, -183690.47, -183813.36, -178513.30, 187500.00, -183861.89, -172621.16, -183879.45, -0.00, -0.00, -0.00
228, -183771.98, -183712.63, -183833.91, -177185.20, 187500.00, -183884.23, -172993.05, -183901.67, -0.00, -0.00, -0.00
229, -183657.84, -183598.56, -183724.94, -182428.20, 187500.00, -183769.23, -170640.50, -183786.67, -0.00, -0.00, -0.00
230, -183626.30, -183567.09, -183695.72, -183487.30, 187500.00, -183737.56, -170156.31, -183754.95, -0.00, -0.00, -0.00
231, -183734.97, -183675.72, -183799.59, -179624.48, 187500.00, -183847.06, -172467.16, -183864.53, -0.00, -0.00, -0.00
232, -183786.20, -183726.95, -183847.86, -176525.53, 187500.00, -183898.66, -173526.67, -183916.05, -0.00, -0.00, -0.00
233, -183682.09, -183622.92, -183748.08, -181687.59, 187500.00, -183793.67, -171331.97, -183811.08, -0.00, -0.00, -0.00
234, -183625.47, -183566.25, -183694.92, -183584.34, 187500.00, -183736.52, -170305.33, -183753.97, -0.00, -0.00, -0.00
235, -183720.16, -183660.72, -183785.52, -180683.52, 187500.00, -183831.89, -172300.58, -183849.31, -0.00, -0.00, -0.00
236, -183795.81, -183736.27, -183857.31, -176197.91, 187500.00, -183908.05, -173921.64, -183925.44, -0.00, -0.00, -0.00
237, -183709.50, -183650.08, -183774.30, -180742.55, 187500.00, -183821.09, -171977.41, -183838.48, -0.00, -0.00, -0.00
238, -183627.38, -183567.98, -183696.80, -183565.61, 187500.00, -183738.33, -170433.03, -183755.73, -0.00, -0.00, -0.00
239, -183700.91, -183641.45, -183767.59, -181628.77, 187500.00, -183812.45, -172062.19, -183829.92, -0.00, -0.00, -0.00
240, -183797.88, -183738.50, -183859.88, -176247.91, 187500.00, -183910.33, -174187.47, -183927.67, -0.00, -0.00, -0.00
241, -183736.45, -183677.17, -183800.27, -179610.00, 187500.00, -183848.48, -172742.20, -183865.73, -0.00, -0.00, -0.00
242, -183636.14, -183576.86, -183705.22, -183428.84, 187500.00, -183747.20, -170806.92, -183764.50, -0.00, -0.00, -0.00
243, -183684.13, -183624.77, -183751.83, -182412.38, 187500.00, -183795.58, -171916.47, -183812.94, -0.00, -0.00, -0.00
244, -183794.39, -183734.95, -183856.81, -176735.95, 187500.00, -183906.73, -174334.02, -183924.14, -0.00, -0.00, -0.00
245, -183761.83, -183702.50, -183824.81, -178446.95, 187500.00, -183873.88, -173488.17, -183891.23, -0.00, -0.00, -0.00
246, -183650.89, -183591.67, -183719.52, -183150.95, 187500.00, -183762.09, -171242.78, -183779.39, -0.00, -0.00, -0.00
247, -183666.16, -183606.92, -183734.73, -182972.42, 187500.00, -183777.64, -171794.92, -183794.80, -0.00, -0.00, -0.00
248, -183786.03, -183726.58, -183849.13, -177546.58, 187500.00, -183898.34, -174351.22, -183915.56, -0.00, -0.00, -0.00
249, -183783.66, -183724.16, -183845.86, -177366.88, 187500.00, -183895.86, -174196.84, -183913.05, -0.00, -0.00, -0.00
250, -183667.09, -183607.84, -183734.78, -182687.78, 187500.00, -183778.45, -171783.67, -183795.64, -0.00, -0.00, -0.00
251, -183654.83, -183595.59, -183723.94, -183337.63, 187500.00, -183766.11, -171714.52, -183783.23, -0.00, -0.00, -0.00
252, -183770.92, -183711.59, -183834.89, -178593.19, 187500.00, -183883.17, -174224.33, -183900.38, -0.00, -0.00, -0.00
253, -183804.80, -183745.30, -183866.72, -176483.53, 187500.00, -183917.19, -174821.73, -183934.36, -0.00, -0.00, -0.00
254, -183692.91, -183633.59, -183759.52, -182006.89, 187500.00, -183804.45, -172447.91, -183821.55, -0.00, -0.00, -0.00
255, -183653.08, -183593.83, -183722.44, -183537.86, 187500.00, -183764.19, -171774.95, -183781.42, -0.00, -0.00, -0.00
0, -183759.45, -183700.17, -183824.30, -179738.17, 187500.00, -183871.50, -174039.27, -183888.63, -0.00, -0.00, -0.00
1, -183817.92, -183758.63, -183879.75, -175914.58, 187500.00, -183930.53, -175297.27, -183947.61, -0.00, -0.00, -0.00
2, -183716.89, -183657.75, -183782.45, -181101.58, 187500.00, -183828.70, -173140.67, -183845.80, -0.00, -0.00, -0.00
3, -183647.11, -183587.97, -183716.67, -183590.36, 187500.00, -183758.25, -171923.52, -183775.33, -0.00, -0.00, -0.00
4, -183735.05, -183675.70, -183800.88, -180814.83, 187500.00, -183846.94, -173798.83, -183863.98, -0.00, -0.00, -0.00
5, -183822.78, -183763.41, -183884.69, -175707.55, 187500.00, -183935.25, -175615.80, -183952.50, -0.00, -0.00, -0.00
6, -183744.28, -183684.89, -183808.42, -179978.30, 187500.00, -183856.06, -173863.69, -183873.22, -0.00, -0.00, -0.00
7, -183652.88, -183593.56, -183722.09, -183516.44, 187500.00, -183764.02, -172180.00, -183781.05, -0.00, -0.00, -0.00
8, -183716.73, -183657.38, -183783.55, -181758.75, 187500.00, -183828.50, -173593.83, -183845.48, -0.00, -0.00, -0.00
9, -183822.70, -183763.20, -183884.75, -175917.98, 187500.00, -183935.19, -175830.58, -183952.33, -0.00, -0.00, -0.00
10, -183772.53, -183713.03, -183835.69, -178764.91, 187500.00, -183884.48, -174607.23, -183901.63, -0.00, -0.00, -0.00
11, -183665.91, -183606.47, -183734.55, -183297.94, 187500.00, -183776.97, -172521.75, -183794.00, -0.00, -0.00, -0.00
12, -183702.61, -183643.16, -183770.14, -182517.95, 187500.00, -183814.02, -173413.48, -183830.95, -0.00, -0.00, -0.00
13, -183817.72, -183758.06, -183880.02, -176522.72, 187500.00, -183929.97, -175927.31, -183947.03, -0.00, -0.00, -0.00
14, -183794.97, -183735.38, -183857.28, -177532.05, 187500.00, -183907.06, -175348.20, -183924.11, -0.00, -0.00, -0.00
15, -183679.25, -183619.86, -183747.19, -182889.36, 187500.00, -183790.44, -172996.89, -183807.42, -0.00, -0.00, -0.00
16, -183686.66, -183627.27, -183755.03, -183032.44, 187500.00, -183797.97, -173294.80, -183814.86, -0.00, -0.00, -0.00
17, -183804.84, -183745.28, -183867.95, -177362.56, 187500.00, -183917.17, -175848.70, -183934.16, -0.00, -0.00, -0.00
18, -183814.64, -183755.08, -183876.70, -176391.63, 187500.00, -183926.94, -175980.64, -183944.02, -0.00, -0.00, -0.00
19, -183699.42, -183640.00, -183766.36, -182230.13, 187500.00, -183810.86, -173582.20, -183827.64, -0.00, -0.00, -0.00
20, -183676.33, -183616.88, -183745.19, -183370.08, 187500.00, -183787.55, -173297.06, -183804.28, -0.00, -0.00, -0.00
21, -183788.94, -183729.41, -183852.69, -178468.02, 187500.00, -183901.08, -175677.19, -183917.66, -0.00, -0.00, -0.00
22, -183831.20, -183771.61, -183892.95, -175555.83, 187500.00, -183943.58, -176450.19, -183959.98, -0.00, -0.00, -0.00
23, -183724.31, -183665.03, -183790.09, -181336.72, 187500.00, -183835.97, -174146.02, -183852.81, -0.00, -0.00, -0.00
24, -183670.56, -183611.22, -183739.77, -183536.36, 187500.00, -183781.84, -173292.75, -183798.64, -0.00, -0.00, -0.00
25, -183769.75, -183710.34, -183834.47, -179616.17, 187500.00, -183881.84, -175386.17, -183898.56, -0.00, -0.00, -0.00
26, -183840.91, -183781.53, -183902.66, -175053.78, 187500.00, -183953.44, -176780.19, -183970.16, -0.00, -0.00, -0.00
27, -183749.70, -183690.36, -183814.30, -180192.73, 187500.00, -183861.58, -174720.30, -183878.36, -0.00, -0.00, -0.00
28, -183671.23, -183611.86, -183740.36, -183543.16, 187500.00, -183782.47, -173342.08, -183799.17, -0.00, -0.00, -0.00
29, -183752.55, -183693.09, -183818.13, -180729.67, 187500.00, -183864.53, -175082.30, -183881.17, -0.00, -0.00, -0.00
30, -183846.25, -183786.78, -183908.22, -174981.31, 187500.00, -183959.05, -177028.30, -183975.61, -0.00, -0.00, -0.00
31, -183778.70, -183719.31, -183842.33, -178940.39, 187500.00, -183890.91, -175345.61, -183907.53, -0.00, -0.00, -0.00
32, -183681.22, -183621.78, -183750.09, -183389.38, 187500.00, -183792.55, -173469.20, -183809.16, -0.00, -0.00, -0.00
33, -183738.69, -183679.23, -183805.20, -181717.06, 187500.00, -183850.42, -174702.17, -183867.05, -0.00, -0.00, -0.00
34, -183847.81, -183788.22, -183909.91, -175347.66, 187500.00, -183960.34, -177011.77, -183977.11, -0.00, -0.00, -0.00
35, -183804.52, -183745.08, -183867.20, -177652.53, 187500.00, -183916.77, -175888.63, -183933.48, -0.00, -0.00, -0.00
36, -183691.97, -183632.63, -183760.22, -183044.80, 187500.00, -183803.39, -173688.36, -183820.11, -0.00, -0.00, -0.00
37, -183719.08, -183659.72, -183786.56, -182501.52, 187500.00, -183830.66, -174358.16, -183847.42, -0.00, -0.00, -0.00
38, -183838.64, -183779.13, -183901.09, -176116.39, 187500.00, -183951.14, -176803.45, -183967.80, -0.00, -0.00, -0.00
39, -183828.14, -183768.59, -183890.19, -176415.83, 187500.00, -183940.55, -176352.38, -183957.11, -0.00, -0.00, -0.00
40, -183711.94, -183652.45, -183779.20, -182456.36, 187500.00, -183823.52, -173985.34, -183840.00, -0.00, -0.00, -0.00
41, -183706.56, -183647.09, -183774.69, -183045.88, 187500.00, -183818.08, -174071.38, -183834.73, -0.00, -0.00, -0.00
42, -183822.58, -183763.09, -183885.67, -177151.19, 187500.00, -183935.16, -176499.41, -183951.78, -0.00, -0.00, -0.00
43, -183845.14, -183785.64, -183907.22, -175438.41, 187500.00, -183957.89, -176762.55, -183974.50, -0.00, -0.00, -0.00
44, -183732.50, -183673.06, -183798.83, -181631.52, 187500.00, -183844.33, -174370.16, -183860.92, -0.00, -0.00, -0.00
45, -183699.58, -183640.27, -183768.39, -183382.13, 187500.00, -183811.06, -173900.13, -183827.67, -0.00, -0.00, -0.00
46, -183809.25, -183749.95, -183873.09, -178366.48, 187500.00, -183921.64, -176216.30, -183938.11, -0.00, -0.00, -0.00
47, -183861.38, -183801.89, -183923.36, -174794.02, 187500.00, -183974.20, -177168.19, -183990.75, -0.00, -0.00, -0.00
48, -183760.45, -183701.03, -183825.61, -180626.94, 187500.00, -183872.42, -174861.20, -183888.94, -0.00, -0.00, -0.00
49, -183698.47, -183639.11, -183767.36, -183529.05, 187500.00, -183809.88, -173799.14, -183826.34, -0.00, -0.00, -0.00
50, -183791.69, -183732.14, -183856.09, -179667.70, 187500.00, -183903.80, -175792.08, -183920.27, -0.00, -0.00, -0.00
51, -183870.70, -183811.06, -183932.52, -174542.44, 187500.00, -183983.44, -177353.69, -184000.00, -0.00, -0.00, -0.00
52, -183786.09, -183726.55, -183850.06, -179440.61, 187500.00, -183898.13, -175351.02, -183914.66, -0.00, -0.00, -0.00
53, -183700.63, -183641.28, -183769.64, -183484.34, 187500.00, -183812.00, -173768.06, -183828.52, -0.00, -0.00, -0.00
54, -183771.41, -183711.95, -183836.98, -180873.14, 187500.00, -183883.39, -175324.94, -183899.91, -0.00, -0.00, -0.00
55, -183870.72, -183811.27, -183932.88, -174733.08, 187500.00, -183983.50, -177369.78, -184000.16, -0.00, -0.00, -0.00
56, -183811.53, -183752.03, -183874.78, -178205.77, 187500.00, -183923.83, -175836.00, -183940.36, -0.00, -0.00, -0.00
57, -183709.88, -183650.44, -183778.55, -183256.83, 187500.00, -183821.33, -173835.48, -183837.81, -0.00, -0.00, -0.00
58, -183753.14, -183693.80, -183819.94, -181937.00, 187500.00, -183865.11, -174877.53, -183881.52, -0.00, -0.00, -0.00
59, -183866.97, -183807.48, -183929.39, -175426.81, 187500.00, -183979.81, -177230.64, -183996.33, -0.00, -0.00, -0.00
60, -183838.80, -183779.33, -183901.56, -177096.33, 187500.00, -183951.36, -176309.95, -183967.91, -0.00, -0.00, -0.00
61, -183725.72, -183666.31, -183793.84, -182857.27, 187500.00, -183837.33, -174022.45, -183853.86, -0.00, -0.00, -0.00
62, -183741.34, -183681.91, -183809.23, -182753.31, 187500.00, -183853.02, -174506.33, -183869.64, -0.00, -0.00, -0.00
63, -183861.33, -183801.88, -183924.14, -176541.20, 187500.00, -183974.03, -176979.19, -183990.70, -0.00, -0.00, -0.00
64, -183865.05, -183805.56, -183927.31, -176167.06, 187500.00, -183977.73, -176732.36, -183994.34, -0.00, -0.00, -0.00
65, -183749.03, -183689.72, -183816.30, -182269.42, 187500.00, -183860.80, -174279.72, -183877.33, -0.00, -0.00, -0.00
66, -183734.81, -183675.44, -183803.48, -183271.33, 187500.00, -183846.44, -174169.72, -183863.05, -0.00, -0.00, -0.00
67, -183848.05, -183788.64, -183911.53, -177865.44, 187500.00, -183960.66, -176595.73, -183977.30, -0.00, -0.00, -0.00
68, -183881.41, -183821.91, -183943.50, -175503.30, 187500.00, -183994.23, -177089.06, -184010.81, -0.00, -0.00, -0.00
69, -183772.75, -183713.41, -183838.98, -181495.23, 187500.00, -183884.69, -174669.58, -183901.14, -0.00, -0.00, -0.00
70, -183726.75, -183667.45, -183795.97, -183541.72, 187500.00, -183838.33, -173956.56, -183854.77, -0.00, -0.00, -0.00
71, -183830.55, -183771.14, -183894.97, -179264.61, 187500.00, -183942.98, -176151.61, -183959.48, -0.00, -0.00, -0.00
72, -183892.52, -183833.08, -183954.53, -175165.56, 187500.00, -184005.45, -177322.84, -184022.08, -0.00, -0.00, -0.00
73, -183795.59, -183736.25, -183860.77, -180561.59, 187500.00, -183907.73, -175107.47, -183924.31, -0.00, -0.00, -0.00
74, -183725.61, -183666.31, -183795.02, -183614.48, 187500.00, -183837.22, -173851.70, -183853.64, -0.00, -0.00, -0.00
75, -183812.09, -183752.70, -183877.58, -180583.11, 187500.00, -183924.47, -175679.61, -183940.75, -0.00, -0.00, -0.00
76, -183900.20, -183840.77, -183962.27, -175215.97, 187500.00, -184013.19, -177426.70, -184029.77, -0.00, -0.00, -0.00
77, -183826.22, -183766.83, -183890.34, -179519.64, 187500.00, -183938.56, -175585.11, -183955.16, -0.00, -0.00, -0.00
78, -183733.72, -183674.38, -183802.97, -183528.17, 187500.00, -183845.38, -173843.80, -183861.89, -0.00, -0.00, -0.00
79, -183794.92, -183735.52, -183861.63, -181702.05, 187500.00, -183907.13, -175219.25, -183923.58, -0.00, -0.00, -0.00
80, -183901.34, -183841.80, -183963.70, -175654.75, 187500.00, -184014.34, -177411.88, -184030.94, -0.00, -0.00, -0.00
81, -183853.44, -183793.94, -183916.83, -178412.42, 187500.00, -183966.09, -176101.16, -183982.59, -0.00, -0.00, -0.00
82, -183746.27, -183686.98, -183815.17, -183285.23, 187500.00, -183858.05, -173977.81, -183874.47, -0.00, -0.00, -0.00
83, -183781.27, -183721.81, -183849.03, -182558.67, 187500.00, -183893.27, -174821.75, -183909.72, -0.00, -0.00, -0.00
84, -183899.44, -183839.92, -183962.25, -176462.70, 187500.00, -184012.45, -177258.98, -184029.06, -0.00, -0.00, -0.00
85, -183882.00, -183822.45, -183944.72, -177328.34, 187500.00, -183994.84, -176590.48, -184011.33, -0.00, -0.00, -0.00
86, -183765.22, -183705.88, -183833.30, -182863.44, 187500.00, -183877.11, -174216.52, -183893.58, -0.00, -0.00, -0.00
87, -183768.33, -183709.03, -183837.03, -183142.31, 187500.00, -183880.33, -174476.42, -183896.78, -0.00, -0.00, -0.00
88, -183888.89, -183829.50, -183952.41, -177558.09, 187500.00, -184001.88, -176958.11, -184018.47, -0.00, -0.00, -0.00
89, -183901.20, -183841.77, -183963.67, -176432.03, 187500.00, -184014.17, -176993.33, -184030.75, -0.00, -0.00, -0.00
90, -183785.17, -183725.88, -183852.44, -182251.48, 187500.00, -183897.25, -174539.22, -183913.70, -0.00, -0.00, -0.00
91, -183759.31, -183699.95, -183828.47, -183492.22, 187500.00, -183871.02, -174202.50, -183887.39, -0.00, -0.00, -0.00
92, -183871.67, -183812.17, -183935.81, -178819.30, 187500.00, -183984.33, -176525.52, -184000.73, -0.00, -0.00, -0.00
93, -183918.00, -183858.42, -183980.16, -175804.00, 187500.00, -184031.03, -177292.67, -184047.59, -0.00, -0.00, -0.00
94, -183812.69, -183753.30, -183878.77, -181429.78, 187500.00, -183924.91, -174986.33, -183941.47, -0.00, -0.00, -0.00
95, -183756.95, -183697.63, -183826.50, -183655.27, 187500.00, -183868.78, -174028.42, -183885.20, -0.00, -0.00, -0.00
96, -183857.00, -183797.66, -183922.27, -180110.78, 187500.00, -183969.77, -176020.63, -183986.13, -0.00, -0.00, -0.00
97, -183932.03, -183872.58, -183994.09, -175565.61, 187500.00, -184045.33, -177466.25, -184061.72, -0.00, -0.00, -0.00
98, -183844.45, -183785.02, -183909.39, -180476.06, 187500.00, -183956.91, -175446.38, -183973.31, -0.00, -0.00, -0.00
99, -183762.27, -183702.95, -183831.83, -183661.84, 187500.00, -183874.00, -173988.14, -183890.45, -0.00, -0.00, -0.00
100, -183839.98, -183780.48, -183906.25, -181275.70, 187500.00, -183952.25, -175578.73, -183968.70, -0.00, -0.00, -0.00
101, -183935.50, -183875.95, -183997.78, -175724.06, 187500.00, -184048.64, -177536.38, -184065.14, -0.00, -0.00, -0.00
102, -183872.95, -183813.52, -183936.98, -179413.36, 187500.00, -183985.61, -175953.13, -184001.98, -0.00, -0.00, -0.00
103, -183772.50, -183713.11, -183841.91, -183527.59, 187500.00, -183884.42, -174082.73, -183900.80, -0.00, -0.00, -0.00
104, -183823.05, -183763.61, -183890.45, -182228.45, 187500.00, -183935.38, -175202.31, -183951.70, -0.00, -0.00, -0.00
105, -183934.48, -183874.97, -183997.09, -176278.41, 187500.00, -184047.66, -177440.61, -184064.17, -0.00, -0.00, -0.00
106, -183900.41, -183840.86, -183963.66, -178293.84, 187500.00, -184013.28, -176403.69, -184029.73, -0.00, -0.00, -0.00
107, -183788.55, -183729.14, -183857.39, -183241.03, 187500.00, -183900.52, -174205.64, -183916.98, -0.00, -0.00, -0.00
108, -183807.80, -183748.39, -183876.38, -182934.73, 187500.00, -183919.92, -174748.09, -183936.41, -0.00, -0.00, -0.00
109, -183929.13, -183869.59, -183992.25, -177211.34, 187500.00, -184042.20, -177181.48, -184058.73, -0.00, -0.00, -0.00
110, -183924.88, -183865.36, -183987.47, -177327.69, 187500.00, -184037.81, -176846.30, -184054.36, -0.00, -0.00, -0.00
111, -183809.36, -183749.86, -183877.45, -182799.02, 187500.00, -183921.34, -174473.17, -183937.89, -0.00, -0.00, -0.00
112, -183800.20, -183740.66, -183869.47, -183397.08, 187500.00, -183912.16, -174457.44, -183928.59, -0.00, -0.00, -0.00
113, -183916.50, -183856.77, -183980.42, -178410.61, 187500.00, -184029.38, -176879.45, -184045.75, -0.00, -0.00, -0.00
114, -183944.20, -183884.42, -184006.53, -176612.77, 187500.00, -184057.22, -177189.47, -184073.77, -0.00, -0.00, -0.00
115, -183832.52, -183773.05, -183899.69, -182197.36, 187500.00, -183944.77, -174769.38, -183961.25, -0.00, -0.00, -0.00
116, -183794.77, -183735.38, -183864.69, -183651.45, 187500.00, -183906.77, -174238.30, -183923.16, -0.00, -0.00, -0.00
117, -183904.81, -183845.30, -183969.92, -179715.86, 187500.00, -184017.64, -176515.00, -184034.02, -0.00, -0.00, -0.00
118, -183964.34, -183904.81, -184026.73, -176228.23, 187500.00, -184077.66, -177519.88, -184094.14, -0.00, -0.00, -0.00
119, -183864.66, -183805.14, -183930.84, -181448.59, 187500.00, -183977.06, -175249.05, -183993.56, -0.00, -0.00, -0.00
120, -183798.08, -183738.63, -183868.22, -183746.44, 187500.00, -183910.06, -174144.25, -183926.55, -0.00, -0.00, -0.00
121, -183890.03, -183830.59, -183956.53, -180978.25, 187500.00, -184002.92, -176077.53, -184019.36, -0.00, -0.00, -0.00
122, -183973.80, -183914.27, -184036.25, -176248.28, 187500.00, -184087.22, -177676.53, -184103.63, -0.00, -0.00, -0.00
123, -183894.03, -183834.58, -183959.25, -180579.63, 187500.00, -184006.77, -175731.58, -184023.14, -0.00, -0.00, -0.00
124, -183806.14, -183746.84, -183876.38, -183714.22, 187500.00, -183918.22, -174140.16, -183934.64, -0.00, -0.00, -0.00
125, -183874.55, -183815.13, -183942.27, -182027.39, 187500.00, -183987.19, -175613.45, -184003.64, -0.00, -0.00, -0.00
126, -183978.70, -183919.25, -184041.58, -176680.00, 187500.00, -184092.27, -177651.30, -184108.88, -0.00, -0.00, -0.00
127, -183922.75, -183863.19, -183987.22, -179691.80, 187500.00, -184035.72, -176220.00, -184052.34, -0.00, -0.00, -0.00
128, -183820.22, -183760.70, -183890.13, -183578.02, 187500.00, -183932.31, -174240.53, -183948.92, -0.00, -0.00, -0.00
129, -183864.23, -183804.72, -183933.06, -182832.44, 187500.00, -183976.67, -175177.39, -183993.19, -0.00, -0.00, -0.00
130, -183978.67, -183919.06, -184041.94, -177489.70, 187500.00, -184092.00, -177497.70, -184108.58, -0.00, -0.00, -0.00
131, -183953.78, -183894.25, -184017.41, -178815.63, 187500.00, -184066.97, -176689.22, -184083.50, -0.00, -0.00, -0.00
132, -183840.39, -183781.00, -183909.63, -183333.72, 187500.00, -183952.69, -174441.92, -183969.20, -0.00, -0.00, -0.00
133, -183851.89, -183792.38, -183921.33, -183347.13, 187500.00, -183964.08, -174852.73, -183980.80, -0.00, -0.00, -0.00
134, -183970.77, -183911.13, -184034.73, -178508.00, 187500.00, -184083.97, -177282.77, -184100.56, -0.00, -0.00, -0.00
135, -183978.81, -183919.17, -184041.89, -177984.00, 187500.00, -184092.09, -177124.25, -184108.58, -0.00, -0.00, -0.00
136, -183863.67, -183804.13, -183932.14, -182938.67, 187500.00, -183976.02, -174700.80, -183992.45, -0.00, -0.00, -0.00
137, -183845.53, -183786.16, -183915.67, -183648.20, 187500.00, -183957.84, -174532.55, -183974.34, -0.00, -0.00, -0.00
138, -183962.31, -183902.80, -184027.41, -179673.64, 187500.00, -184075.53, -176919.08, -184092.09, -0.00, -0.00, -0.00
139, -184002.50, -183942.92, -184065.36, -177386.81, 187500.00, -184115.97, -177472.22, -184132.55, -0.00, -0.00, -0.00
140, -183894.09, -183834.55, -183961.59, -182385.53, 187500.00, -184006.64, -175076.41, -184023.25, -0.00, -0.00, -0.00
141, -183843.77, -183784.23, -183914.22, -183793.19, 187500.00, -183956.06, -174310.86, -183972.53, -0.00, -0.00, -0.00
142, -183944.75, -183885.16, -184011.00, -180791.83, 187500.00, -184057.84, -176459.47, -184074.45, -0.00, -0.00, -0.00
143, -184010.91, -183951.30, -184073.58, -177062.16, 187500.00, -184124.64, -177679.86, -184141.13, -0.00, -0.00, -0.00
144, -183918.84, -183859.31, -183985.30, -181646.47, 187500.00, -184031.78, -175498.36, -184048.14, -0.00, -0.00, -0.00
145, -183848.39, -183788.91, -183918.95, -183827.20, 187500.00, -183960.70, -174203.88, -183977.11, -0.00, -0.00, -0.00
146, -183932.36, -183872.91, -183999.83, -181800.67, 187500.00, -184045.36, -175965.48, -184061.78, -0.00, -0.00, -0.00
147, -184020.94, -183961.42, -184083.80, -177150.16, 187500.00, -184134.56, -177740.19, -184151.14, -0.00, -0.00, -0.00
148, -183949.59, -183890.19, -184015.30, -180802.83, 187500.00, -184062.78, -175992.02, -184079.33, -0.00, -0.00, -0.00
149, -183855.86, -183796.52, -183926.39, -183766.84, 187500.00, -183968.31, -174253.72, -183984.83, -0.00, -0.00, -0.00
150, -183915.47, -183855.98, -183984.05, -182618.13, 187500.00, -184028.34, -175498.58, -184044.91, -0.00, -0.00, -0.00
151, -184024.61, -183965.02, -184087.78, -177608.63, 187500.00, -184138.27, -177687.44, -184154.88, -0.00, -0.00, -0.00
152, -183982.80, -183923.27, -184047.30, -179887.22, 187500.00, -184096.11, -176521.28, -184112.70, -0.00, -0.00, -0.00
153, -183873.78, -183814.30, -183943.88, -183618.48, 187500.00, -183986.23, -174410.59, -184002.81, -0.00, -0.00, -0.00
154, -183903.13, -183843.67, -183972.67, -183203.52, 187500.00, -184015.92, -175102.86, -184032.44, -0.00, -0.00, -0.00
155, -184022.11, -183962.56, -184086.06, -178359.98, 187500.00, -184135.83, -177507.13, -184152.42, -0.00, -0.00, -0.00
156, -184010.38, -183950.77, -184074.36, -178949.47, 187500.00, -184123.94, -176986.27, -184140.44, -0.00, -0.00, -0.00
157, -183894.50, -183834.91, -183963.95, -183346.69, 187500.00, -184006.97, -174648.08, -184023.52, -0.00, -0.00, -0.00
158, -183894.09, -183834.53, -183964.33, -183574.72, 187500.00, -184006.66, -174760.81, -184023.27, -0.00, -0.00, -0.00
159, -184014.13, -183954.53, -184078.86, -179338.72, 187500.00, -184127.66, -177169.23, -184144.23, -0.00, -0.00, -0.00
160, -184033.97, -183974.45, -184097.13, -178152.20, 187500.00, -184147.66, -177341.95, -184164.22, -0.00, -0.00, -0.00
161, -183920.42, -183860.95, -183989.03, -182919.23, 187500.00, -184033.22, -174949.16, -184049.75, -0.00, -0.00, -0.00
162, -183891.58, -183832.14, -183962.27, -183785.92, 187500.00, -184004.14, -174487.39, -184020.70, -0.00, -0.00, -0.00
163, -184002.53, -183943.03, -184068.48, -180399.50, 187500.00, -184115.89, -176736.25, -184132.53, -0.00, -0.00, -0.00
164, -184052.89, -183993.31, -184116.00, -177631.47, 187500.00, -184166.64, -177609.13, -184183.39, -0.00, -0.00, -0.00
165, -183951.20, -183891.86, -184019.05, -182333.30, 187500.00, -184064.22, -175339.95, -184081.00, -0.00, -0.00, -0.00
166, -183892.80, -183833.48, -183963.92, -183877.02, 187500.00, -184005.23, -174331.38, -184022.11, -0.00, -0.00, -0.00
167, -183988.48, -183928.94, -184055.64, -181410.42, 187500.00, -184101.61, -176276.77, -184118.44, -0.00, -0.00, -0.00
168, -184065.38, -184005.72, -184128.33, -177414.95, 187500.00, -184179.17, -177775.80, -184195.94, -0.00, -0.00, -0.00
169, -183980.16, -183920.63, -184046.81, -181559.17, 187500.00, -184093.30, -175806.59, -184110.03, -0.00, -0.00, -0.00
170, -183897.52, -183838.05, -183968.42, -183873.42, 187500.00, -184009.97, -174305.06, -184026.73, -0.00, -0.00, -0.00
171, -183971.33, -183911.75, -184039.58, -182282.47, 187500.00, -184084.33, -175829.77, -184101.02, -0.00, -0.00, -0.00
172, -184070.66, -184011.05, -184133.89, -177587.64, 187500.00, -184184.47, -177820.30, -184201.19, -0.00, -0.00, -0.00
173, -184010.11, -183950.69, -184075.75, -180675.05, 187500.00, -184123.53, -176301.41, -184140.19, -0.00, -0.00, -0.00
174, -183909.97, -183850.56, -183980.72, -183787.17, 187500.00, -184022.64, -174383.92, -184039.27, -0.00, -0.00, -0.00
175, -183957.00, -183897.55, -184026.28, -182955.42, 187500.00, -184070.05, -175402.97, -184086.75, -0.00, -0.00, -0.00
176, -184072.22, -184012.67, -184135.92, -178065.72, 187500.00, -184186.14, -177695.05, -184202.89, -0.00, -0.00, -0.00
177, -184037.69, -183978.25, -184102.34, -179706.50, 187500.00, -184151.33, -176753.98, -184167.91, -0.00, -0.00, -0.00
178, -183926.13, -183866.72, -183996.42, -183601.73, 187500.00, -184038.84, -174538.58, -184055.56, -0.00, -0.00, -0.00
179, -183945.03, -183885.69, -184015.27, -183432.17, 187500.00, -184057.98, -175017.23, -184074.64, -0.00, -0.00, -0.00
180, -184064.34, -184004.84, -184128.95, -178879.84, 187500.00, -184178.14, -177446.52, -184194.91, -0.00, -0.00, -0.00
181, -184065.84, -184006.30, -184129.75, -178796.50, 187500.00, -184179.59, -177184.16, -184196.31, -0.00, -0.00, -0.00
182, -183951.19, -183891.73, -184020.72, -183284.23, 187500.00, -184064.03, -174814.59, -184080.73, -0.00, -0.00, -0.00
183, -183941.06, -183881.58, -184011.75, -183728.47, 187500.00, -184053.80, -174713.41, -184070.63, -0.00, -0.00, -0.00
184, -184054.41, -183994.77, -184119.78, -179880.70, 187500.00, -184168.11, -177072.48, -184184.78, -0.00, -0.00, -0.00
185, -184084.47, -184024.88, -184147.86, -178108.50, 187500.00, -184198.42, -177510.39, -184215.11, -0.00, -0.00, -0.00
186, -183976.36, -183916.73, -184044.91, -182813.28, 187500.00, -184089.34, -175154.55, -184106.19, -0.00, -0.00, -0.00
187, -183936.36, -183876.78, -184007.41, -183882.16, 187500.00, -184048.97, -174487.48, -184065.80, -0.00, -0.00, -0.00
188, -184040.38, -183980.83, -184106.97, -180909.11, 187500.00, -184153.88, -176630.83, -184170.66, -0.00, -0.00, -0.00
189, -184100.31, -184040.69, -184163.55, -177662.70, 187500.00, -184214.36, -177742.94, -184231.16, -0.00, -0.00, -0.00
190, -184004.03, -183944.56, -184071.69, -182154.94, 187500.00, -184117.28, -175563.42, -184134.09, -0.00, -0.00, -0.00
191, -183936.77, -183877.25, -184007.91, -183932.56, 187500.00, -184049.38, -174352.58, -184066.19, -0.00, -0.00, -0.00
192, -184022.63, -183963.13, -184090.33, -181874.47, 187500.00, -184135.94, -176140.09, -184152.73, -0.00, -0.00, -0.00
193, -184110.50, -184050.97, -184173.63, -177637.16, 187500.00, -184224.50, -177834.31, -184241.27, -0.00, -0.00, -0.00
194, -184035.45, -183975.95, -184101.80, -181379.95, 187500.00, -184148.89, -176008.78, -184165.66, -0.00, -0.00, -0.00
195, -183946.47, -183886.95, -184017.56, -183902.92, 187500.00, -184059.14, -174328.31, -184075.89, -0.00, -0.00, -0.00
196, -184011.72, -183952.17, -184080.67, -182679.92, 187500.00, -184124.92, -175660.44, -184141.63, -0.00, -0.00, -0.00
197, -184115.81, -184056.17, -184179.31, -177992.02, 187500.00, -184229.80, -177783.69, -184246.58, -0.00, -0.00, -0.00
198, -184063.56, -184003.95, -184128.97, -180514.98, 187500.00, -184177.11, -176460.44, -184193.77, -0.00, -0.00, -0.00
199, -183954.56, -183895.08, -184025.42, -183791.66, 187500.00, -184067.38, -174425.67, -184084.05, -0.00, -0.00, -0.00
200, -183991.75, -183932.25, -184061.78, -183280.83, 187500.00, -184104.98, -175328.02, -184121.61, -0.00, -0.00, -0.00
201, -184111.58, -184051.98, -184175.63, -178805.83, 187500.00, -184225.64, -177696.78, -184242.45, -0.00, -0.00, -0.00
202, -184090.41, -184030.80, -184154.94, -179770.05, 187500.00, -184204.27, -176916.08, -184220.91, -0.00, -0.00, -0.00
203, -183975.22, -183915.83, -184045.52, -183614.56, 187500.00, -184088.20, -174591.30, -184104.88, -0.00, -0.00, -0.00
204, -183983.33, -183923.92, -184054.11, -183672.45, 187500.00, -184096.47, -174930.47, -184113.13, -0.00, -0.00, -0.00
205, -184102.73, -184043.08, -184167.17, -180117.59, 187500.00, -184216.77, -177374.39, -184233.39, -0.00, -0.00, -0.00
206, -184113.53, -184053.89, -184176.58, -179731.83, 187500.00, -184227.70, -177295.44, -184244.28, -0.00, -0.00, -0.00
207, -184000.81, -183941.31, -184070.55, -183356.52, 187500.00, -184114.08, -174842.89, -184130.80, -0.00, -0.00, -0.00
208, -183979.34, -183919.84, -184050.72, -183881.09, 187500.00, -184092.41, -174579.23, -184109.13, -0.00, -0.00, -0.00
209, -184094.02, -184034.44, -184160.73, -180993.17, 187500.00, -184208.03, -176942.58, -184224.66, -0.00, -0.00, -0.00
210, -184136.45, -184076.88, -184200.56, -179327.53, 187500.00, -184250.70, -177576.47, -184267.53, -0.00, -0.00, -0.00
211, -184030.63, -183971.19, -184099.63, -182993.34, 187500.00, -184144.08, -175180.97, -184160.86, -0.00, -0.00, -0.00
212, -183980.42, -183921.08, -184052.19, -183983.33, 187500.00, -184093.52, -174327.17, -184110.22, -0.00, -0.00, -0.00
213, -184081.88, -184022.38, -184149.80, -181921.92, 187500.00, -184195.67, -176442.16, -184212.52, -0.00, -0.00, -0.00
214, -184153.61, -184094.03, -184217.75, -179253.36, 187500.00, -184268.02, -177796.19, -184284.88, -0.00, -0.00, -0.00
215, -184064.42, -184004.94, -184132.53, -182578.34, 187500.00, -184178.09, -175666.69, -184194.97, -0.00, -0.00, -0.00
216, -183990.45, -183931.06, -184062.39, -184010.48, 187500.00, -184103.58, -174251.09, -184120.45, -0.00, -0.00, -0.00
217, -184071.61, -184012.08, -184140.89, -182741.64, 187500.00, -184185.36, -175967.61, -184202.27, -0.00, -0.00, -0.00
218, -184166.05, -184106.50, -184230.58, -179520.16, 187500.00, -184280.53, -177861.19, -184297.48, -0.00, -0.00, -0.00
219, -184099.53, -184040.08, -184166.80, -182151.42, 187500.00, -184213.42, -176139.81, -184230.31, -0.00, -0.00, -0.00
220, -184003.59, -183944.09, -184075.42, -183990.44, 187500.00, -184116.75, -174251.69, -184133.64, -0.00, -0.00, -0.00
221, -184059.81, -184000.36, -184130.25, -183356.41, 187500.00, -184173.50, -175460.55, -184190.33, -0.00, -0.00, -0.00
222, -184170.80, -184111.30, -184235.81, -180080.38, 187500.00, -184285.19, -177712.34, -184301.91, -0.00, -0.00, -0.00
223, -184131.58, -184072.13, -184198.17, -181747.91, 187500.00, -184245.69, -176531.70, -184262.45, -0.00, -0.00, -0.00
224, -184022.58, -183963.20, -184094.19, -183948.23, 187500.00, -184135.86, -174332.94, -184152.78, -0.00, -0.00, -0.00
225, -184050.61, -183991.33, -184121.91, -183750.58, 187500.00, -184164.23, -174978.09, -184181.03, -0.00, -0.00, -0.00
226, -184168.48, -184108.94, -184234.38, -180845.33, 187500.00, -184282.95, -177389.73, -184299.61, -0.00, -0.00, -0.00
227, -184159.09, -184099.52, -184225.11, -181378.80, 187500.00, -184273.45, -176933.00, -184290.27, -0.00, -0.00, -0.00
228, -184044.86, -183985.38, -184116.20, -183875.34, 187500.00, -184158.34, -174556.75, -184175.22, -0.00, -0.00, -0.00
229, -184045.23, -183985.89, -184117.39, -183967.05, 187500.00, -184158.75, -174640.55, -184175.78, -0.00, -0.00, -0.00
230, -184163.81, -184104.47, -184231.09, -181707.19, 187500.00, -184278.19, -177097.14, -184295.20, -0.00, -0.00, -0.00
231, -184186.75, -184127.39, -184252.55, -181165.11, 187500.00, -184301.41, -177332.55, -184318.27, -0.00, -0.00, -0.00
232, -184077.52, -184018.19, -184148.63, -183780.23, 187500.00, -184191.36, -174890.02, -184208.23, -0.00, -0.00, -0.00
233, -184044.41, -183985.05, -184116.88, -184065.14, 187500.00, -184157.95, -174417.11, -184174.72, -0.00, -0.00, -0.00
