%OpenBCI Raw EEG Data
%
%Sample Rate = 250.0 Hz
%First Column = SampleIndex
%Other Columns = EEG data in microvolts followed by Accel Data (in G) interleaved with Aux Data
0, -182913.69, -62441.07, 187500.00, 187500.00, -53716.20, -187500.02, -187500.02, 187500.00, -0.00, -0.00, -0.00
1, -165627.56, -69911.91, 187500.00, 187500.00, -60890.29, -187500.02, -187500.02, 187500.00, -0.00, -0.00, -0.00
2, -109108.34, -94535.18, 187500.00, 187500.00, -84849.14, -187500.02, -187500.02, 187500.00, -0.00, -0.00, -0.00
3, -95485.33, -100345.83, 187500.00, 187500.00, -90996.77, -187500.02, -187500.02, 187500.00, -0.00, -0.00, -0.00
4, -95847.05, -101405.41, 187500.00, 187500.00, -92239.92, -187500.02, -187500.02, 187500.00, -0.00, -0.00, -0.00
5, -95313.27, -101017.72, 187500.00, 187500.00, -92079.04, -187500.02, -187500.02, 187500.00, -0.00, -0.00, -0.00
6, -93565.49, -99326.32, 187500.00, 187500.00, -90537.86, -187500.02, -187500.02, 187500.00, -0.00, -0.00, -0.00
7, -92936.07, -98836.55, 187500.00, 187500.00, -89996.01, -187500.02, -187500.02, 187500.00, -0.00, -0.00, -0.00
8, -93869.92, -99910.10, 187500.00, 187500.00, -91005.10, -187500.02, -187500.02, 187500.00, -0.00, -0.00, -0.00
9, -93982.66, -100010.53, 187500.00, 187500.00, -91202.76, -187500.02, -187500.02, 187500.00, -0.00, -0.00, -0.00
10, -92621.52, -98592.11, 187500.00, 187500.00, -89903.50, -187500.02, -187500.02, 187500.00, -0.00, -0.00, -0.00
11, -91954.76, -97982.60, 187500.00, 187500.00, -89245.23, -187500.02, -187500.02, 187500.00, -0.00, -0.00, -0.00
12, -92882.58, -99016.68, 187500.00, 187500.00, -90170.33, -187500.02, -187500.02, 187500.00, -0.00, -0.00, -0.00
13, -93392.88, -99517.80, 187500.00, 187500.00, -90738.45, -187500.02, -187500.02, 187500.00, -0.00, -0.00, -0.00
14, -92197.52, -98244.92, 187500.00, 187500.00, -89593.43, -187500.02, -187500.02, 187500.00, -0.00, -0.00, -0.00
15, -91367.49, -97444.08, 187500.00, 187500.00, -88745.95, -187500.02, -187500.02, 187500.00, -0.00, -0.00, -0.00
16, -92384.85, -98569.55, 187500.00, 187500.00, -89740.15, -187500.02, -187500.02, 187500.00, -0.00, -0.00, -0.00
17, -93221.44, -99404.06, 187500.00, 187500.00, -90617.37, -187500.02, -187500.02, 187500.00, -0.00, -0.00, -0.00
18, -92242.20, -98343.16, 187500.00, 187500.00, -89690.22, -187500.02, -187500.02, 187500.00, -0.00, -0.00, -0.00
19, -91204.44, -97302.33, 187500.00, 187500.00, -88626.92, -187500.02, -187500.02, 187500.00, -0.00, -0.00, -0.00
20, -91796.91, -97978.42, 187500.00, 187500.00, -89181.87, -187500.02, -187500.02, 187500.00, -0.00, -0.00, -0.00
21, -92769.66, -98975.53, 187500.00, 187500.00, -90193.22, -187500.02, -187500.02, 187500.00, -0.00, -0.00, -0.00
22, -92099.13, -98225.19, 187500.00, 187500.00, -89566.70, -187500.02, -187500.02, 187500.00, -0.00, -0.00, -0.00
23, -90811.83, -96913.70, 187500.00, 187500.00, -88273.74, -187500.02, -187500.02, 187500.00, -0.00, -0.00, -0.00
24, -91132.28, -97313.16, 187500.00, 187500.00, -88542.79, -187500.02, -187500.02, 187500.00, -0.00, -0.00, -0.00
25, -92289.30, -98510.86, 187500.00, 187500.00, -89708.99, -187500.02, -187500.02, 187500.00, -0.00, -0.00, -0.00
26, -91867.01, -98005.13, 187500.00, 187500.00, -89341.80, -187500.02, -187500.02, 187500.00, -0.00, -0.00, -0.00
27, -90546.87, -96633.63, 187500.00, 187500.00, -88020.98, -187500.02, -187500.02, 187500.00, -0.00, -0.00, -0.00
28, -90573.89, -96730.21, 187500.00, 187500.00, -87992.31, -187500.02, -187500.02, 187500.00, -0.00, -0.00, -0.00
29, -91710.77, -97930.30, 187500.00, 187500.00, -89128.56, -187500.02, -187500.02, 187500.00, -0.00, -0.00, -0.00
30, -91558.84, -97707.92, 187500.00, 187500.00, -89029.03, -187500.02, -187500.02, 187500.00, -0.00, -0.00, -0.00
31, -90066.26, -96147.30, 187500.00, 187500.00, -87554.38, -187500.02, -187500.02, 187500.00, -0.00, -0.00, -0.00
32, -89740.17, -95882.86, 187500.00, 187500.00, -87184.32, -187500.02, -187500.02, 187500.00, -0.00, -0.00, -0.00
33, -90768.58, -96970.85, 187500.00, 187500.00, -88170.19, -187500.02, -187500.02, 187500.00, -0.00, -0.00, -0.00
34, -90826.73, -96974.18, 187500.00, 187500.00, -88264.22, -187500.02, -187500.02, 187500.00, -0.00, -0.00, -0.00
35, -89499.35, -95577.40, 187500.00, 187500.00, -86973.32, -187500.02, -187500.02, 187500.00, -0.00, -0.00, -0.00
36, -88823.68, -94938.18, 187500.00, 187500.00, -86263.25, -187500.02, -187500.02, 187500.00, -0.00, -0.00, -0.00
37, -89769.34, -95967.66, 187500.00, 187500.00, -87171.66, -187500.02, -187500.02, 187500.00, -0.00, -0.00, -0.00
38, -90334.98, -96499.05, 187500.00, 187500.00, -87756.14, -187500.02, -187500.02, 187500.00, -0.00, -0.00, -0.00
39, -89113.79, -95180.07, 187500.00, 187500.00, -86564.37, -187500.02, -187500.02, 187500.00, -0.00, -0.00, -0.00
40, -88078.07, -94158.44, 187500.00, 187500.00, -85506.41, -187500.02, -187500.02, 187500.00, -0.00, -0.00, -0.00
41, -88801.16, -94979.33, 187500.00, 187500.00, -86186.47, -187500.02, -187500.02, 187500.00, -0.00, -0.00, -0.00
42, -89487.66, -95665.82, 187500.00, 187500.00, -86901.55, -187500.02, -187500.02, 187500.00, -0.00, -0.00, -0.00
43, -88369.12, -94444.07, 187500.00, 187500.00, -85830.41, -187500.02, -187500.02, 187500.00, -0.00, -0.00, -0.00
44, -87090.48, -93144.32, 187500.00, 187500.00, -84525.82, -187500.02, -187500.02, 187500.00, -0.00, -0.00, -0.00
45, -87554.22, -93690.46, 187500.00, 187500.00, -84925.09, -187500.02, -187500.02, 187500.00, -0.00, -0.00, -0.00
46, -88107.11, -94249.59, 187500.00, 187500.00, -85466.27, -187500.02, -187500.02, 187500.00, -0.00, -0.00, -0.00
47, -86842.96, -92893.83, 187500.00, 187500.00, -84247.95, -187500.02, -187500.02, 187500.00, -0.00, -0.00, -0.00
48, -85258.09, -91278.84, 187500.00, 187500.00, -82649.38, -187500.02, -187500.02, 187500.00, -0.00, -0.00, -0.00
49, -85240.88, -91338.32, 187500.00, 187500.00, -82587.44, -187500.02, -187500.02, 187500.00, -0.00, -0.00, -0.00
50, -86184.57, -92334.47, 187500.00, 187500.00, -83540.47, -187500.02, -187500.02, 187500.00, -0.00, -0.00, -0.00
51, -85534.09, -91607.28, 187500.00, 187500.00, -82932.99, -187500.02, -187500.02, 187500.00, -0.00, -0.00, -0.00
52, -83932.45, -89949.41, 187500.00, 187500.00, -81331.36, -187500.02, -187500.02, 187500.00, -0.00, -0.00, -0.00
53, -83676.97, -89759.28, 187500.00, 187500.00, -81035.71, -187500.02, -187500.02, 187500.00, -0.00, -0.00, -0.00
54, -84703.32, -90857.89, 187500.00, 187500.00, -82057.63, -187500.02, -187500.02, 187500.00, -0.00, -0.00, -0.00
55, -84568.00, -90658.47, 187500.00, 187500.00, -81958.88, -187500.02, -187500.02, 187500.00, -0.00, -0.00, -0.00
56, -83028.37, -89031.17, 187500.00, 187500.00, -80412.16, -187500.02, -187500.02, 187500.00, -0.00, -0.00, -0.00
57, -82492.26, -88539.23, 187500.00, 187500.00, -79827.17, -187500.02, -187500.02, 187500.00, -0.00, -0.00, -0.00
58, -83555.53, -89688.49, 187500.00, 187500.00, -80876.74, -187500.02, -187500.02, 187500.00, -0.00, -0.00, -0.00
59, -83752.50, -89837.73, 187500.00, 187500.00, -81099.50, -187500.02, -187500.02, 187500.00, -0.00, -0.00, -0.00
60, -82304.98, -88301.57, 187500.00, 187500.00, -79664.32, -187500.02, -187500.02, 187500.00, -0.00, -0.00, -0.00
61, -81553.80, -87575.72, 187500.00, 187500.00, -78876.02, -187500.02, -187500.02, 187500.00, -0.00, -0.00, -0.00
62, -82462.58, -88572.34, 187500.00, 187500.00, -79746.59, -187500.02, -187500.02, 187500.00, -0.00, -0.00, -0.00
63, -83052.30, -89141.86, 187500.00, 187500.00, -80366.34, -187500.02, -187500.02, 187500.00, -0.00, -0.00, -0.00
64, -81865.09, -87863.34, 187500.00, 187500.00, -79210.98, -187500.02, -187500.02, 187500.00, -0.00, -0.00, -0.00
65, -80888.10, -86887.46, 187500.00, 187500.00, -78201.30, -187500.02, -187500.02, 187500.00, -0.00, -0.00, -0.00
66, -81557.02, -87640.38, 187500.00, 187500.00, -78830.09, -187500.02, -187500.02, 187500.00, -0.00, -0.00, -0.00
67, -82380.19, -88476.52, 187500.00, 187500.00, -79681.22, -187500.02, -187500.02, 187500.00, -0.00, -0.00, -0.00
68, -81438.60, -87444.70, 187500.00, 187500.00, -78782.12, -187500.02, -187500.02, 187500.00, -0.00, -0.00, -0.00
69, -80133.39, -86116.15, 187500.00, 187500.00, -77452.19, -187500.02, -187500.02, 187500.00, -0.00, -0.00, -0.00
70, -80559.75, -86620.72, 187500.00, 187500.00, -77820.26, -187500.02, -187500.02, 187500.00, -0.00, -0.00, -0.00
71, -81622.47, -87717.09, 187500.00, 187500.00, -78889.92, -187500.02, -187500.02, 187500.00, -0.00, -0.00, -0.00
72, -81005.22, -87026.05, 187500.00, 187500.00, -78336.16, -187500.02, -187500.02, 187500.00, -0.00, -0.00, -0.00
73, -79587.63, -85568.45, 187500.00, 187500.00, -76921.60, -187500.02, -187500.02, 187500.00, -0.00, -0.00, -0.00
74, -79794.45, -85846.66, 187500.00, 187500.00, -77070.31, -187500.02, -187500.02, 187500.00, -0.00, -0.00, -0.00
75, -80941.61, -87044.15, 187500.00, 187500.00, -78200.21, -187500.02, -187500.02, 187500.00, -0.00, -0.00, -0.00
76, -80682.40, -86725.68, 187500.00, 187500.00, -78001.70, -187500.02, -187500.02, 187500.00, -0.00, -0.00, -0.00
77, -79225.02, -85215.73, 187500.00, 187500.00, -76572.58, -187500.02, -187500.02, 187500.00, -0.00, -0.00, -0.00
78, -78989.88, -85035.94, 187500.00, 187500.00, -76284.31, -187500.02, -187500.02, 187500.00, -0.00, -0.00, -0.00
79, -80084.27, -86194.09, 187500.00, 187500.00, -77342.33, -187500.02, -187500.02, 187500.00, -0.00, -0.00, -0.00
80, -80182.90, -86238.55, 187500.00, 187500.00, -77475.39, -187500.02, -187500.02, 187500.00, -0.00, -0.00, -0.00
81, -78859.34, -84844.70, 187500.00, 187500.00, -76185.12, -187500.02, -187500.02, 187500.00, -0.00, -0.00, -0.00
82, -78310.88, -84333.95, 187500.00, 187500.00, -75600.50, -187500.02, -187500.02, 187500.00, -0.00, -0.00, -0.00
83, -79184.61, -85285.41, 187500.00, 187500.00, -76438.31, -187500.02, -187500.02, 187500.00, -0.00, -0.00, -0.00
84, -79600.05, -85677.67, 187500.00, 187500.00, -76893.71, -187500.02, -187500.02, 187500.00, -0.00, -0.00, -0.00
85, -78371.70, -84373.83, 187500.00, 187500.00, -75714.32, -187500.02, -187500.02, 187500.00, -0.00, -0.00, -0.00
86, -77540.26, -83561.68, 187500.00, 187500.00, -74845.57, -187500.02, -187500.02, 187500.00, -0.00, -0.00, -0.00
87, -78275.29, -84367.04, 187500.00, 187500.00, -75516.69, -187500.02, -187500.02, 187500.00, -0.00, -0.00, -0.00
88, -78880.00, -84963.65, 187500.00, 187500.00, -76149.20, -187500.02, -187500.02, 187500.00, -0.00, -0.00, -0.00
89, -77830.83, -83829.74, 187500.00, 187500.00, -75152.55, -187500.02, -187500.02, 187500.00, -0.00, -0.00, -0.00
90, -76741.25, -82726.40, 187500.00, 187500.00, -74035.52, -187500.02, -187500.02, 187500.00, -0.00, -0.00, -0.00
91, -77241.13, -83309.28, 187500.00, 187500.00, -74479.83, -187500.02, -187500.02, 187500.00, -0.00, -0.00, -0.00
92, -78101.40, -84189.72, 187500.00, 187500.00, -75351.59, -187500.02, -187500.02, 187500.00, -0.00, -0.00, -0.00
93, -77284.41, -83286.42, 187500.00, 187500.00, -74580.15, -187500.02, -187500.02, 187500.00, -0.00, -0.00, -0.00
94, -75912.96, -81874.15, 187500.00, 187500.00, -73185.35, -187500.02, -187500.02, 187500.00, -0.00, -0.00, -0.00
95, -76108.83, -82146.77, 187500.00, 187500.00, -73338.69, -187500.02, -187500.02, 187500.00, -0.00, -0.00, -0.00
96, -77187.79, -83281.75, 187500.00, 187500.00, -74430.62, -187500.02, -187500.02, 187500.00, -0.00, -0.00, -0.00
97, -76939.44, -82963.13, 187500.00, 187500.00, -74223.81, -187500.02, -187500.02, 187500.00, -0.00, -0.00, -0.00
98, -75498.22, -81459.37, 187500.00, 187500.00, -72783.07, -187500.02, -187500.02, 187500.00, -0.00, -0.00, -0.00
99, -75203.00, -81231.06, 187500.00, 187500.00, -72452.33, -187500.02, -187500.02, 187500.00, -0.00, -0.00, -0.00
100, -76100.27, -82204.23, 187500.00, 187500.00, -73356.12, -187500.02, -187500.02, 187500.00, -0.00, -0.00, -0.00
101, -75970.63, -82015.52, 187500.00, 187500.00, -73272.97, -187500.02, -187500.02, 187500.00, -0.00, -0.00, -0.00
102, -74621.72, -80580.59, 187500.00, 187500.00, -71915.22, -187500.02, -187500.02, 187500.00, -0.00, -0.00, -0.00
103, -74089.70, -80083.15, 187500.00, 187500.00, -71318.40, -187500.02, -187500.02, 187500.00, -0.00, -0.00, -0.00
104, -75013.55, -81091.92, 187500.00, 187500.00, -72225.55, -187500.02, -187500.02, 187500.00, -0.00, -0.00, -0.00
105, -75199.00, -81252.88, 187500.00, 187500.00, -72478.91, -187500.02, -187500.02, 187500.00, -0.00, -0.00, -0.00
106, -73735.63, -79705.31, 187500.00, 187500.00, -71040.10, -187500.02, -187500.02, 187500.00, -0.00, -0.00, -0.00
107, -72887.27, -78880.09, 187500.00, 187500.00, -70143.64, -187500.02, -187500.02, 187500.00, -0.00, -0.00, -0.00
108, -73696.42, -79784.33, 187500.00, 187500.00, -70920.18, -187500.02, -187500.02, 187500.00, -0.00, -0.00, -0.00
109, -74254.93, -80329.73, 187500.00, 187500.00, -71515.34, -187500.02, -187500.02, 187500.00, -0.00, -0.00, -0.00
110, -72972.01, -78947.34, 187500.00, 187500.00, -70266.30, -187500.02, -187500.02, 187500.00, -0.00, -0.00, -0.00
111, -71955.02, -77930.67, 187500.00, 187500.00, -69204.20, -187500.02, -187500.02, 187500.00, -0.00, -0.00, -0.00
112, -72498.98, -78557.46, 187500.00, 187500.00, -69704.02, -187500.02, -187500.02, 187500.00, -0.00, -0.00, -0.00
113, -73199.75, -79279.38, 187500.00, 187500.00, -70448.13, -187500.02, -187500.02, 187500.00, -0.00, -0.00, -0.00
114, -72230.69, -78229.67, 187500.00, 187500.00, -69535.36, -187500.02, -187500.02, 187500.00, -0.00, -0.00, -0.00
115, -70907.94, -76880.99, 187500.00, 187500.00, -68189.98, -187500.02, -187500.02, 187500.00, -0.00, -0.00, -0.00
116, -71246.32, -77297.72, 187500.00, 187500.00, -68472.02, -187500.02, -187500.02, 187500.00, -0.00, -0.00, -0.00
117, -72150.63, -78224.27, 187500.00, 187500.00, -69372.68, -187500.02, -187500.02, 187500.00, -0.00, -0.00, -0.00
118, -71501.98, -77496.38, 187500.00, 187500.00, -68770.19, -187500.02, -187500.02, 187500.00, -0.00, -0.00, -0.00
119, -69978.15, -75937.92, 187500.00, 187500.00, -67259.66, -187500.02, -187500.02, 187500.00, -0.00, -0.00, -0.00
120, -69941.20, -75979.16, 187500.00, 187500.00, -67182.93, -187500.02, -187500.02, 187500.00, -0.00, -0.00, -0.00
121, -70974.45, -77064.32, 187500.00, 187500.00, -68214.44, -187500.02, -187500.02, 187500.00, -0.00, -0.00, -0.00
122, -70520.13, -76529.73, 187500.00, 187500.00, -67794.42, -187500.02, -187500.02, 187500.00, -0.00, -0.00, -0.00
123, -68969.26, -74910.62, 187500.00, 187500.00, -66241.09, -187500.02, -187500.02, 187500.00, -0.00, -0.00, -0.00
124, -68639.92, -74639.42, 187500.00, 187500.00, -65869.43, -187500.02, -187500.02, 187500.00, -0.00, -0.00, -0.00
125, -69702.26, -75786.13, 187500.00, 187500.00, -66934.06, -187500.02, -187500.02, 187500.00, -0.00, -0.00, -0.00
126, -69638.24, -75674.11, 187500.00, 187500.00, -66927.65, -187500.02, -187500.02, 187500.00, -0.00, -0.00, -0.00
127, -68199.48, -74156.63, 187500.00, 187500.00, -65505.76, -187500.02, -187500.02, 187500.00, -0.00, -0.00, -0.00
128, -67511.03, -73507.40, 187500.00, 187500.00, -64772.27, -187500.02, -187500.02, 187500.00, -0.00, -0.00, -0.00
129, -68386.81, -74465.70, 187500.00, 187500.00, -65613.81, -187500.02, -187500.02, 187500.00, -0.00, -0.00, -0.00
130, -68787.45, -74844.16, 187500.00, 187500.00, -66057.98, -187500.02, -187500.02, 187500.00, -0.00, -0.00, -0.00
131, -67555.06, -73530.66, 187500.00, 187500.00, -64868.49, -187500.02, -187500.02, 187500.00, -0.00, -0.00, -0.00
132, -66642.82, -72634.92, 187500.00, 187500.00, -63918.88, -187500.02, -187500.02, 187500.00, -0.00, -0.00, -0.00
133, -67344.95, -73409.09, 187500.00, 187500.00, -64557.47, -187500.02, -187500.02, 187500.00, -0.00, -0.00, -0.00
134, -67884.86, -73934.70, 187500.00, 187500.00, -65122.99, -187500.02, -187500.02, 187500.00, -0.00, -0.00, -0.00
135, -66822.04, -72793.08, 187500.00, 187500.00, -64120.38, -187500.02, -187500.02, 187500.00, -0.00, -0.00, -0.00
136, -65658.07, -71622.36, 187500.00, 187500.00, -62926.73, -187500.02, -187500.02, 187500.00, -0.00, -0.00, -0.00
137, -66108.01, -72164.73, 187500.00, 187500.00, -63335.25, -187500.02, -187500.02, 187500.00, -0.00, -0.00, -0.00
138, -67111.24, -73198.09, 187500.00, 187500.00, -64350.49, -187500.02, -187500.02, 187500.00, -0.00, -0.00, -0.00
139, -66329.96, -72329.02, 187500.00, 187500.00, -63614.79, -187500.02, -187500.02, 187500.00, -0.00, -0.00, -0.00
140, -65004.32, -70975.68, 187500.00, 187500.00, -62291.09, -187500.02, -187500.02, 187500.00, -0.00, -0.00, -0.00
141, -65193.49, -71243.32, 187500.00, 187500.00, -62438.19, -187500.02, -187500.02, 187500.00, -0.00, -0.00, -0.00
142, -66247.13, -72339.01, 187500.00, 187500.00, -63490.89, -187500.02, -187500.02, 187500.00, -0.00, -0.00, -0.00
143, -65860.80, -71879.59, 187500.00, 187500.00, -63151.52, -187500.02, -187500.02, 187500.00, -0.00, -0.00, -0.00
144, -64483.82, -70458.82, 187500.00, 187500.00, -61784.67, -187500.02, -187500.02, 187500.00, -0.00, -0.00, -0.00
145, -64344.90, -70391.05, 187500.00, 187500.00, -61600.27, -187500.02, -187500.02, 187500.00, -0.00, -0.00, -0.00
146, -65447.56, -71561.50, 187500.00, 187500.00, -62701.63, -187500.02, -187500.02, 187500.00, -0.00, -0.00, -0.00
147, -65368.14, -71419.95, 187500.00, 187500.00, -62659.61, -187500.02, -187500.02, 187500.00, -0.00, -0.00, -0.00
148, -64015.28, -69993.48, 187500.00, 187500.00, -61305.85, -187500.02, -187500.02, 187500.00, -0.00, -0.00, -0.00
149, -63628.73, -69645.77, 187500.00, 187500.00, -60884.96, -187500.02, -187500.02, 187500.00, -0.00, -0.00, -0.00
150, -64729.51, -70843.94, 187500.00, 187500.00, -62007.96, -187500.02, -187500.02, 187500.00, -0.00, -0.00, -0.00
151, -65017.69, -71100.25, 187500.00, 187500.00, -62327.73, -187500.02, -187500.02, 187500.00, -0.00, -0.00, -0.00
152, -63708.10, -69703.94, 187500.00, 187500.00, -61005.82, -187500.02, -187500.02, 187500.00, -0.00, -0.00, -0.00
153, -63056.95, -69082.58, 187500.00, 187500.00, -60321.81, -187500.02, -187500.02, 187500.00, -0.00, -0.00, -0.00
154, -63982.85, -70084.20, 187500.00, 187500.00, -61212.04, -187500.02, -187500.02, 187500.00, -0.00, -0.00, -0.00
155, -64600.16, -70676.41, 187500.00, 187500.00, -61863.70, -187500.02, -187500.02, 187500.00, -0.00, -0.00, -0.00
156, -63426.29, -69419.69, 187500.00, 187500.00, -60725.38, -187500.02, -187500.02, 187500.00, -0.00, -0.00, -0.00
157, -62460.07, -68469.70, 187500.00, 187500.00, -59743.57, -187500.02, -187500.02, 187500.00, -0.00, -0.00, -0.00
158, -63278.39, -69374.58, 187500.00, 187500.00, -60519.34, -187500.02, -187500.02, 187500.00, -0.00, -0.00, -0.00
159, -64134.75, -70234.27, 187500.00, 187500.00, -61396.39, -187500.02, -187500.02, 187500.00, -0.00, -0.00, -0.00
160, -63122.02, -69141.54, 187500.00, 187500.00, -60429.97, -187500.02, -187500.02, 187500.00, -0.00, -0.00, -0.00
161, -61895.13, -67903.91, 187500.00, 187500.00, -59199.24, -187500.02, -187500.02, 187500.00, -0.00, -0.00, -0.00
162, -62387.49, -68477.54, 187500.00, 187500.00, -59672.16, -187500.02, -187500.02, 187500.00, -0.00, -0.00, -0.00
163, -63433.49, -69543.90, 187500.00, 187500.00, -60706.29, -187500.02, -187500.02, 187500.00, -0.00, -0.00, -0.00
164, -62857.51, -68873.59, 187500.00, 187500.00, -60121.61, -187500.02, -187500.02, 187500.00, -0.00, -0.00, -0.00
165, -61571.03, -67563.66, 187500.00, 187500.00, -58852.86, -187500.02, -187500.02, 187500.00, -0.00, -0.00, -0.00
166, -61857.98, -67963.52, 187500.00, 187500.00, -59150.36, -187500.02, -187500.02, 187500.00, -0.00, -0.00, -0.00
167, -63010.15, -69134.32, 187500.00, 187500.00, -60273.69, -187500.02, -187500.02, 187500.00, -0.00, -0.00, -0.00
168, -62734.32, -68777.99, 187500.00, 187500.00, -60023.06, -187500.02, -187500.02, 187500.00, -0.00, -0.00, -0.00
169, -61479.36, -67472.90, 187500.00, 187500.00, -58782.20, -187500.02, -187500.02, 187500.00, -0.00, -0.00, -0.00
170, -61449.28, -67485.19, 187500.00, 187500.00, -58686.22, -187500.02, -187500.02, 187500.00, -0.00, -0.00, -0.00
171, -62659.98, -68755.69, 187500.00, 187500.00, -59893.71, -187500.02, -187500.02, 187500.00, -0.00, -0.00, -0.00
172, -62723.48, -68762.81, 187500.00, 187500.00, -59991.50, -187500.02, -187500.02, 187500.00, -0.00, -0.00, -0.00
173, -61377.33, -67361.23, 187500.00, 187500.00, -58713.58, -187500.02, -187500.02, 187500.00, -0.00, -0.00, -0.00
174, -60951.06, -66968.69, 187500.00, 187500.00, -58196.50, -187500.02, -187500.02, 187500.00, -0.00, -0.00, -0.00
175, -62076.29, -68158.13, 187500.00, 187500.00, -59295.15, -187500.02, -187500.02, 187500.00, -0.00, -0.00, -0.00
176, -62575.85, -68656.94, 187500.00, 187500.00, -59887.81, -187500.02, -187500.02, 187500.00, -0.00, -0.00, -0.00
177, -61253.63, -67239.84, 187500.00, 187500.00, -58597.46, -187500.02, -187500.02, 187500.00, -0.00, -0.00, -0.00
178, -60524.01, -66551.78, 187500.00, 187500.00, -57829.53, -187500.02, -187500.02, 187500.00, -0.00, -0.00, -0.00
179, -61561.02, -67682.84, 187500.00, 187500.00, -58841.21, -187500.02, -187500.02, 187500.00, -0.00, -0.00, -0.00
180, -62407.54, -68522.42, 187500.00, 187500.00, -59711.68, -187500.02, -187500.02, 187500.00, -0.00, -0.00, -0.00
181, -61336.05, -67355.33, 187500.00, 187500.00, -58678.40, -187500.02, -187500.02, 187500.00, -0.00, -0.00, -0.00
182, -60295.21, -66312.57, 187500.00, 187500.00, -57614.55, -187500.02, -187500.02, 187500.00, -0.00, -0.00, -0.00
183, -60922.83, -67023.16, 187500.00, 187500.00, -58199.22, -187500.02, -187500.02, 187500.00, -0.00, -0.00, -0.00
184, -61835.23, -67944.80, 187500.00, 187500.00, -59125.68, -187500.02, -187500.02, 187500.00, -0.00, -0.00, -0.00
185, -61120.15, -67153.02, 187500.00, 187500.00, -58479.61, -187500.02, -187500.02, 187500.00, -0.00, -0.00, -0.00
186, -60030.01, -66032.23, 187500.00, 187500.00, -57373.95, -187500.02, -187500.02, 187500.00, -0.00, -0.00, -0.00
187, -60470.83, -66555.40, 187500.00, 187500.00, -57724.29, -187500.02, -187500.02, 187500.00, -0.00, -0.00, -0.00
188, -61618.32, -67723.98, 187500.00, 187500.00, -58879.32, -187500.02, -187500.02, 187500.00, -0.00, -0.00, -0.00
189, -61201.73, -67249.31, 187500.00, 187500.00, -58550.28, -187500.02, -187500.02, 187500.00, -0.00, -0.00, -0.00
190, -59945.90, -65950.36, 187500.00, 187500.00, -57289.71, -187500.02, -187500.02, 187500.00, -0.00, -0.00, -0.00
191, -60087.01, -66151.48, 187500.00, 187500.00, -57362.42, -187500.02, -187500.02, 187500.00, -0.00, -0.00, -0.00
192, -61260.72, -67390.15, 187500.00, 187500.00, -58531.08, -187500.02, -187500.02, 187500.00, -0.00, -0.00, -0.00
193, -61211.93, -67274.21, 187500.00, 187500.00, -58533.56, -187500.02, -187500.02, 187500.00, -0.00, -0.00, -0.00
194, -59854.59, -65848.28, 187500.00, 187500.00, -57189.04, -187500.02, -187500.02, 187500.00, -0.00, -0.00, -0.00
195, -59662.08, -65699.06, 187500.00, 187500.00, -56937.47, -187500.02, -187500.02, 187500.00, -0.00, -0.00, -0.00
196, -60987.67, -67098.28, 187500.00, 187500.00, -58244.42, -187500.02, -187500.02, 187500.00, -0.00, -0.00, -0.00
197, -61331.38, -67393.62, 187500.00, 187500.00, -58635.42, -187500.02, -187500.02, 187500.00, -0.00, -0.00, -0.00
198, -59938.59, -65911.47, 187500.00, 187500.00, -57278.73, -187500.02, -187500.02, 187500.00, -0.00, -0.00, -0.00
199, -59324.52, -65332.85, 187500.00, 187500.00, -56629.91, -187500.02, -187500.02, 187500.00, -0.00, -0.00, -0.00
200, -60424.41, -66509.94, 187500.00, 187500.00, -57638.64, -187500.02, -187500.02, 187500.00, -0.00, -0.00, -0.00
201, -60979.67, -67044.75, 187500.00, 187500.00, -58247.35, -187500.02, -187500.02, 187500.00, -0.00, -0.00, -0.00
202, -59843.38, -65818.89, 187500.00, 187500.00, -57161.70, -187500.02, -187500.02, 187500.00, -0.00, -0.00, -0.00
203, -58947.29, -64943.82, 187500.00, 187500.00, -56245.86, -187500.02, -187500.02, 187500.00, -0.00, -0.00, -0.00
204, -59857.66, -65926.83, 187500.00, 187500.00, -57103.79, -187500.02, -187500.02, 187500.00, -0.00, -0.00, -0.00
205, -60642.58, -66698.30, 187500.00, 187500.00, -57875.66, -187500.02, -187500.02, 187500.00, -0.00, -0.00, -0.00
206, -59591.29, -65592.63, 187500.00, 187500.00, -56903.96, -187500.02, -187500.02, 187500.00, -0.00, -0.00, -0.00
207, -58401.13, -64367.32, 187500.00, 187500.00, -55678.84, -187500.02, -187500.02, 187500.00, -0.00, -0.00, -0.00
208, -58925.84, -65001.64, 187500.00, 187500.00, -56226.41, -187500.02, -187500.02, 187500.00, -0.00, -0.00, -0.00
209, -59934.99, -66040.88, 187500.00, 187500.00, -57191.63, -187500.02, -187500.02, 187500.00, -0.00, -0.00, -0.00
210, -59365.58, -65380.32, 187500.00, 187500.00, -56681.61, -187500.02, -187500.02, 187500.00, -0.00, -0.00, -0.00
211, -58118.49, -64092.42, 187500.00, 187500.00, -55417.28, -187500.02, -187500.02, 187500.00, -0.00, -0.00, -0.00
212, -58388.05, -64446.58, 187500.00, 187500.00, -55653.09, -187500.02, -187500.02, 187500.00, -0.00, -0.00, -0.00
213, -59533.94, -65631.41, 187500.00, 187500.00, -56786.30, -187500.02, -187500.02, 187500.00, -0.00, -0.00, -0.00
214, -59176.53, -65211.12, 187500.00, 187500.00, -56507.13, -187500.02, -187500.02, 187500.00, -0.00, -0.00, -0.00
215, -57782.21, -63755.69, 187500.00, 187500.00, -55085.05, -187500.02, -187500.02, 187500.00, -0.00, -0.00, -0.00
216, -57705.07, -63737.99, 187500.00, 187500.00, -54950.62, -187500.02, -187500.02, 187500.00, -0.00, -0.00, -0.00
217, -58942.58, -65036.64, 187500.00, 187500.00, -56180.15, -187500.02, -187500.02, 187500.00, -0.00, -0.00, -0.00
218, -58985.83, -65033.18, 187500.00, 187500.00, -56283.50, -187500.02, -187500.02, 187500.00, -0.00, -0.00, -0.00
219, -57613.45, -63595.67, 187500.00, 187500.00, -54920.11, -187500.02, -187500.02, 187500.00, -0.00, -0.00, -0.00
220, -57212.26, -63245.76, 187500.00, 187500.00, -54518.14, -187500.02, -187500.02, 187500.00, -0.00, -0.00, -0.00
221, -58396.03, -64488.78, 187500.00, 187500.00, -55619.65, -187500.02, -187500.02, 187500.00, -0.00, -0.00, -0.00
222, -58751.40, -64827.93, 187500.00, 187500.00, -56032.67, -187500.02, -187500.02, 187500.00, -0.00, -0.00, -0.00
223, -57490.50, -63487.02, 187500.00, 187500.00, -54820.24, -187500.02, -187500.02, 187500.00, -0.00, -0.00, -0.00
224, -56679.73, -62710.52, 187500.00, 187500.00, -53986.32, -187500.02, -187500.02, 187500.00, -0.00, -0.00, -0.00
225, -57648.41, -63763.51, 187500.00, 187500.00, -54905.16, -187500.02, -187500.02, 187500.00, -0.00, -0.00, -0.00
226, -58290.31, -64382.88, 187500.00, 187500.00, -55577.39, -187500.02, -187500.02, 187500.00, -0.00, -0.00, -0.00
227, -57225.98, -63231.50, 187500.00, 187500.00, -54556.67, -187500.02, -187500.02, 187500.00, -0.00, -0.00, -0.00
228, -56201.76, -62213.33, 187500.00, 187500.00, -53504.60, -187500.02, -187500.02, 187500.00, -0.00, -0.00, -0.00
229, -56993.06, -63105.23, 187500.00, 187500.00, -54262.25, -187500.02, -187500.02, 187500.00, -0.00, -0.00, -0.00
230, -57960.44, -64070.85, 187500.00, 187500.00, -55252.21, -187500.02, -187500.02, 187500.00, -0.00, -0.00, -0.00
231, -57152.89, -63184.85, 187500.00, 187500.00, -54515.75, -187500.02, -187500.02, 187500.00, -0.00, -0.00, -0.00
232, -55918.09, -61937.87, 187500.00, 187500.00, -53220.39, -187500.02, -187500.02, 187500.00, -0.00, -0.00, -0.00
233, -56454.96, -62549.81, 187500.00, 187500.00, -53721.72, -187500.02, -187500.02, 187500.00, -0.00, -0.00, -0.00
234, -57573.91, -63699.07, 187500.00, 187500.00, -54854.58, -187500.02, -187500.02, 187500.00, -0.00, -0.00, -0.00
235, -56976.56, -63025.05, 187500.00, 187500.00, -54316.93, -187500.02, -187500.02, 187500.00, -0.00, -0.00, -0.00
236, -55595.25, -61608.83, 187500.00, 187500.00, -52935.21, -187500.02, -187500.02, 187500.00, -0.00, -0.00, -0.00
237, -55849.96, -61930.69, 187500.00, 187500.00, -53124.11, -187500.02, -187500.02, 187500.00, -0.00, -0.00, -0.00
238, -57150.37, -63289.48, 187500.00, 187500.00, -54430.16, -187500.02, -187500.02, 187500.00, -0.00, -0.00, -0.00
239, -56916.70, -62987.10, 187500.00, 187500.00, -54250.68, -187500.02, -187500.02, 187500.00, -0.00, -0.00, -0.00
240, -55546.59, -61558.65, 187500.00, 187500.00, -52893.28, -187500.02, -187500.02, 187500.00, -0.00, -0.00, -0.00
241, -55363.19, -61421.63, 187500.00, 187500.00, -52657.96, -187500.02, -187500.02, 187500.00, -0.00, -0.00, -0.00
242, -56597.50, -62757.75, 187500.00, 187500.00, -53933.06, -187500.02, -187500.02, 187500.00, -0.00, -0.00, -0.00
243, -56867.13, -62966.29, 187500.00, 187500.00, -54203.52, -187500.02, -187500.02, 187500.00, -0.00, -0.00, -0.00
244, -55441.31, -61455.34, 187500.00, 187500.00, -52775.66, -187500.02, -187500.02, 187500.00, -0.00, -0.00, -0.00
245, -54929.68, -60984.03, 187500.00, 187500.00, -52246.80, -187500.02, -187500.02, 187500.00, -0.00, -0.00, -0.00
246, -56071.16, -62208.46, 187500.00, 187500.00, -53371.02, -187500.02, -187500.02, 187500.00, -0.00, -0.00, -0.00
247, -56741.82, -62867.32, 187500.00, 187500.00, -54068.02, -187500.02, -187500.02, 187500.00, -0.00, -0.00, -0.00
248, -55516.34, -61554.89, 187500.00, 187500.00, -52875.60, -187500.02, -187500.02, 187500.00, -0.00, -0.00, -0.00
249, -54633.32, -60687.96, 187500.00, 187500.00, -51972.77, -187500.02, -187500.02, 187500.00, -0.00, -0.00, -0.00
250, -55545.31, -61684.80, 187500.00, 187500.00, -52844.64, -187500.02, -187500.02, 187500.00, -0.00, -0.00, -0.00
251, -56441.64, -62578.64, 187500.00, 187500.00, -53760.57, -187500.02, -187500.02, 187500.00, -0.00, -0.00, -0.00
252, -55356.98, -61407.66, 187500.00, 187500.00, -52737.75, -187500.02, -187500.02, 187500.00, -0.00, -0.00, -0.00
253, -54288.16, -60328.34, 187500.00, 187500.00, -51630.23, -187500.02, -187500.02, 187500.00, -0.00, -0.00, -0.00
254, -54880.50, -61010.14, 187500.00, 187500.00, -52185.20, -187500.02, -187500.02, 187500.00, -0.00, -0.00, -0.00
255, -55929.11, -62084.20, 187500.00, 187500.00, -53237.88, -187500.02, -187500.02, 187500.00, -0.00, -0.00, -0.00
0, -55188.06, -61265.73, 187500.00, 187500.00, -52574.81, -187500.02, -187500.02, 187500.00, -0.00, -0.00, -0.00
1, -53830.93, -59877.66, 187500.00, 187500.00, -51238.15, -187500.02, -187500.02, 187500.00, -0.00, -0.00, -0.00
2, -54142.45, -60256.48, 187500.00, 187500.00, -51444.30, -187500.02, -187500.02, 187500.00, -0.00, -0.00, -0.00
3, -55352.71, -61511.60, 187500.00, 187500.00, -52662.59, -187500.02, -187500.02, 187500.00, -0.00, -0.00, -0.00
4, -54950.36, -61034.05, 187500.00, 187500.00, -52313.47, -187500.02, -187500.02, 187500.00, -0.00, -0.00, -0.00
5, -53579.39, -59613.73, 187500.00, 187500.00, -50940.90, -187500.02, -187500.02, 187500.00, -0.00, -0.00, -0.00
6, -53614.52, -59706.40, 187500.00, 187500.00, -50927.09, -187500.02, -187500.02, 187500.00, -0.00, -0.00, -0.00
7, -54921.50, -61078.87, 187500.00, 187500.00, -52223.08, -187500.02, -187500.02, 187500.00, -0.00, -0.00, -0.00
8, -54861.95, -60978.73, 187500.00, 187500.00, -52246.80, -187500.02, -187500.02, 187500.00, -0.00, -0.00, -0.00
9, -53448.92, -59494.87, 187500.00, 187500.00, -50829.63, -187500.02, -187500.02, 187500.00, -0.00, -0.00, -0.00
10, -53101.37, -59190.93, 187500.00, 187500.00, -50442.10, -187500.02, -187500.02, 187500.00, -0.00, -0.00, -0.00
11, -54258.19, -60423.40, 187500.00, 187500.00, -51566.01, -187500.02, -187500.02, 187500.00, -0.00, -0.00, -0.00
12, -54604.37, -60735.25, 187500.00, 187500.00, -51972.43, -187500.02, -187500.02, 187500.00, -0.00, -0.00, -0.00
13, -53313.02, -59361.85, 187500.00, 187500.00, -50715.50, -187500.02, -187500.02, 187500.00, -0.00, -0.00, -0.00
14, -52576.71, -58640.83, 187500.00, 187500.00, -49918.17, -187500.02, -187500.02, 187500.00, -0.00, -0.00, -0.00
15, -53570.25, -59719.59, 187500.00, 187500.00, -50856.52, -187500.02, -187500.02, 187500.00, -0.00, -0.00, -0.00
16, -54179.53, -60316.80, 187500.00, 187500.00, -51513.08, -187500.02, -187500.02, 187500.00, -0.00, -0.00, -0.00
17, -53097.15, -59146.94, 187500.00, 187500.00, -50445.67, -187500.02, -187500.02, 187500.00, -0.00, -0.00, -0.00
18, -52066.62, -58121.08, 187500.00, 187500.00, -49413.78, -187500.02, -187500.02, 187500.00, -0.00, -0.00, -0.00
19, -52855.95, -58991.79, 187500.00, 187500.00, -50158.07, -187500.02, -187500.02, 187500.00, -0.00, -0.00, -0.00
20, -53796.87, -59951.78, 187500.00, 187500.00, -51131.63, -187500.02, -187500.02, 187500.00, -0.00, -0.00, -0.00
21, -52940.11, -59016.36, 187500.00, 187500.00, -50326.52, -187500.02, -187500.02, 187500.00, -0.00, -0.00, -0.00
22, -51684.77, -57746.98, 187500.00, 187500.00, -49069.54, -187500.02, -187500.02, 187500.00, -0.00, -0.00, -0.00
23, -52170.38, -58328.51, 187500.00, 187500.00, -49528.29, -187500.02, -187500.02, 187500.00, -0.00, -0.00, -0.00
24, -53326.59, -59525.06, 187500.00, 187500.00, -50705.09, -187500.02, -187500.02, 187500.00, -0.00, -0.00, -0.00
25, -52726.45, -58851.74, 187500.00, 187500.00, -50163.73, -187500.02, -187500.02, 187500.00, -0.00, -0.00, -0.00
26, -51232.97, -57317.94, 187500.00, 187500.00, -48711.47, -187500.02, -187500.02, 187500.00, -0.00, -0.00, -0.00
27, -51431.45, -57583.23, 187500.00, 187500.00, -48807.40, -187500.02, -187500.02, 187500.00, -0.00, -0.00, -0.00
28, -52591.13, -58812.49, 187500.00, 187500.00, -49990.77, -187500.02, -187500.02, 187500.00, -0.00, -0.00, -0.00
29, -52331.98, -58495.50, 187500.00, 187500.00, -49801.94, -187500.02, -187500.02, 187500.00, -0.00, -0.00, -0.00
30, -50931.78, -57029.31, 187500.00, 187500.00, -48411.11, -187500.02, -187500.02, 187500.00, -0.00, -0.00, -0.00
31, -50750.21, -56890.04, 187500.00, 187500.00, -48168.77, -187500.02, -187500.02, 187500.00, -0.00, -0.00, -0.00
32, -51942.86, -58177.27, 187500.00, 187500.00, -49373.86, -187500.02, -187500.02, 187500.00, -0.00, -0.00, -0.00
33, -52066.96, -58262.59, 187500.00, 187500.00, -49554.22, -187500.02, -187500.02, 187500.00, -0.00, -0.00, -0.00
34, -50670.26, -56782.19, 187500.00, 187500.00, -48163.85, -187500.02, -187500.02, 187500.00, -0.00, -0.00, -0.00
35, -50171.86, -56321.30, 187500.00, 187500.00, -47619.07, -187500.02, -187500.02, 187500.00, -0.00, -0.00, -0.00
36, -51249.89, -57467.81, 187500.00, 187500.00, -48655.07, -187500.02, -187500.02, 187500.00, -0.00, -0.00, -0.00
37, -51725.89, -57912.56, 187500.00, 187500.00, -49162.82, -187500.02, -187500.02, 187500.00, -0.00, -0.00, -0.00
38, -50428.80, -56531.20, 187500.00, 187500.00, -47915.19, -187500.02, -187500.02, 187500.00, -0.00, -0.00, -0.00
39, -49635.20, -55764.74, 187500.00, 187500.00, -47108.36, -187500.02, -187500.02, 187500.00, -0.00, -0.00, -0.00
40, -50673.44, -56889.12, 187500.00, 187500.00, -48084.84, -187500.02, -187500.02, 187500.00, -0.00, -0.00, -0.00
41, -51394.28, -57597.20, 187500.00, 187500.00, -48834.18, -187500.02, -187500.02, 187500.00, -0.00, -0.00, -0.00
42, -50264.13, -56383.14, 187500.00, 187500.00, -47762.32, -187500.02, -187500.02, 187500.00, -0.00, -0.00, -0.00
43, -49119.99, -55234.02, 187500.00, 187500.00, -46559.57, -187500.02, -187500.02, 187500.00, -0.00, -0.00, -0.00
44, -49849.98, -56048.09, 187500.00, 187500.00, -47255.88, -187500.02, -187500.02, 187500.00, -0.00, -0.00, -0.00
45, -50789.58, -57004.03, 187500.00, 187500.00, -48222.25, -187500.02, -187500.02, 187500.00, -0.00, -0.00, -0.00
46, -50023.40, -56157.64, 187500.00, 187500.00, -47497.70, -187500.02, -187500.02, 187500.00, -0.00, -0.00, -0.00
47, -48764.00, -54870.20, 187500.00, 187500.00, -46212.16, -187500.02, -187500.02, 187500.00, -0.00, -0.00, -0.00
48, -49045.29, -55226.93, 187500.00, 187500.00, -46450.75, -187500.02, -187500.02, 187500.00, -0.00, -0.00, -0.00
49, -50113.08, -56347.63, 187500.00, 187500.00, -47543.43, -187500.02, -187500.02, 187500.00, -0.00, -0.00, -0.00
50, -49680.91, -55851.87, 187500.00, 187500.00, -47168.04, -187500.02, -187500.02, 187500.00, -0.00, -0.00, -0.00
51, -48298.86, -54418.98, 187500.00, 187500.00, -45793.20, -187500.02, -187500.02, 187500.00, -0.00, -0.00, -0.00
52, -48277.35, -54461.32, 187500.00, 187500.00, -45723.71, -187500.02, -187500.02, 187500.00, -0.00, -0.00, -0.00
53, -49445.30, -55684.32, 187500.00, 187500.00, -46862.69, -187500.02, -187500.02, 187500.00, -0.00, -0.00, -0.00
54, -49349.21, -55519.77, 187500.00, 187500.00, -46821.00, -187500.02, -187500.02, 187500.00, -0.00, -0.00, -0.00
55, -47889.37, -53994.05, 187500.00, 187500.00, -45368.74, -187500.02, -187500.02, 187500.00, -0.00, -0.00, -0.00
56, -47488.85, -53650.13, 187500.00, 187500.00, -44928.86, -187500.02, -187500.02, 187500.00, -0.00, -0.00, -0.00
57, -48666.79, -54908.89, 187500.00, 187500.00, -46083.13, -187500.02, -187500.02, 187500.00, -0.00, -0.00, -0.00
58, -48956.38, -55158.47, 187500.00, 187500.00, -46415.16, -187500.02, -187500.02, 187500.00, -0.00, -0.00, -0.00
59, -47582.35, -53700.33, 187500.00, 187500.00, -45070.05, -187500.02, -187500.02, 187500.00, -0.00, -0.00, -0.00
60, -46924.13, -53073.97, 187500.00, 187500.00, -44378.40, -187500.02, -187500.02, 187500.00, -0.00, -0.00, -0.00
61, -48081.55, -54318.56, 187500.00, 187500.00, -45494.23, -187500.02, -187500.02, 187500.00, -0.00, -0.00, -0.00
62, -48693.14, -54908.82, 187500.00, 187500.00, -46139.50, -187500.02, -187500.02, 187500.00, -0.00, -0.00, -0.00
63, -47464.93, -53595.95, 187500.00, 187500.00, -44951.95, -187500.02, -187500.02, 187500.00, -0.00, -0.00, -0.00
64, -46488.77, -52633.13, 187500.00, 187500.00, -43950.10, -187500.02, -187500.02, 187500.00, -0.00, -0.00, -0.00
65, -47405.79, -53648.14, 187500.00, 187500.00, -44834.56, -187500.02, -187500.02, 187500.00, -0.00, -0.00, -0.00
66, -48257.14, -54501.31, 187500.00, 187500.00, -45712.78, -187500.02, -187500.02, 187500.00, -0.00, -0.00, -0.00
67, -47274.83, -53426.28, 187500.00, 187500.00, -44767.86, -187500.02, -187500.02, 187500.00, -0.00, -0.00, -0.00
68, -46079.59, -52221.30, 187500.00, 187500.00, -43557.83, -187500.02, -187500.02, 187500.00, -0.00, -0.00, -0.00
69, -46665.01, -52893.01, 187500.00, 187500.00, -44099.03, -187500.02, -187500.02, 187500.00, -0.00, -0.00, -0.00
70, -47697.14, -53943.45, 187500.00, 187500.00, -45138.88, -187500.02, -187500.02, 187500.00, -0.00, -0.00, -0.00
71, -46986.41, -53147.80, 187500.00, 187500.00, -44472.06, -187500.02, -187500.02, 187500.00, -0.00, -0.00, -0.00
72, -45662.06, -51789.37, 187500.00, 187500.00, -43142.60, -187500.02, -187500.02, 187500.00, -0.00, -0.00, -0.00
73, -45936.36, -52139.27, 187500.00, 187500.00, -43362.88, -187500.02, -187500.02, 187500.00, -0.00, -0.00, -0.00
74, -47098.72, -53350.73, 187500.00, 187500.00, -44525.99, -187500.02, -187500.02, 187500.00, -0.00, -0.00, -0.00
75, -46864.66, -53051.13, 187500.00, 187500.00, -44349.82, -187500.02, -187500.02, 187500.00, -0.00, -0.00, -0.00
76, -45490.96, -51625.38, 187500.00, 187500.00, -42991.61, -187500.02, -187500.02, 187500.00, -0.00, -0.00, -0.00
77, -45397.98, -51595.07, 187500.00, 187500.00, -42847.60, -187500.02, -187500.02, 187500.00, -0.00, -0.00, -0.00
78, -46691.54, -52953.45, 187500.00, 187500.00, -44117.83, -187500.02, -187500.02, 187500.00, -0.00, -0.00, -0.00
79, -46839.51, -53039.97, 187500.00, 187500.00, -44294.32, -187500.02, -187500.02, 187500.00, -0.00, -0.00, -0.00
80, -45457.34, -51583.46, 187500.00, 187500.00, -42939.13, -187500.02, -187500.02, 187500.00, -0.00, -0.00, -0.00
81, -44919.50, -51095.89, 187500.00, 187500.00, -42382.75, -187500.02, -187500.02, 187500.00, -0.00, -0.00, -0.00
82, -46096.34, -52363.88, 187500.00, 187500.00, -43537.82, -187500.02, -187500.02, 187500.00, -0.00, -0.00, -0.00
83, -46518.49, -52749.47, 187500.00, 187500.00, -43996.30, -187500.02, -187500.02, 187500.00, -0.00, -0.00, -0.00
84, -45187.87, -51338.18, 187500.00, 187500.00, -42707.34, -187500.02, -187500.02, 187500.00, -0.00, -0.00, -0.00
85, -44496.20, -50671.78, 187500.00, 187500.00, -41982.03, -187500.02, -187500.02, 187500.00, -0.00, -0.00, -0.00
86, -45506.81, -51767.18, 187500.00, 187500.00, -42949.84, -187500.02, -187500.02, 187500.00, -0.00, -0.00, -0.00
87, -46250.36, -52505.50, 187500.00, 187500.00, -43722.22, -187500.02, -187500.02, 187500.00, -0.00, -0.00, -0.00
88, -45196.88, -51366.83, 187500.00, 187500.00, -42711.86, -187500.02, -187500.02, 187500.00, -0.00, -0.00, -0.00
89, -44142.01, -50304.70, 187500.00, 187500.00, -41628.42, -187500.02, -187500.02, 187500.00, -0.00, -0.00, -0.00
90, -44839.50, -51089.80, 187500.00, 187500.00, -42280.38, -187500.02, -187500.02, 187500.00, -0.00, -0.00, -0.00
91, -45841.21, -52107.17, 187500.00, 187500.00, -43302.19, -187500.02, -187500.02, 187500.00, -0.00, -0.00, -0.00
92, -45034.00, -51215.58, 187500.00, 187500.00, -42543.35, -187500.02, -187500.02, 187500.00, -0.00, -0.00, -0.00
93, -43847.46, -50008.50, 187500.00, 187500.00, -41347.93, -187500.02, -187500.02, 187500.00, -0.00, -0.00, -0.00
94, -44300.91, -50540.64, 187500.00, 187500.00, -41753.88, -187500.02, -187500.02, 187500.00, -0.00, -0.00, -0.00
95, -45433.43, -51710.91, 187500.00, 187500.00, -42891.03, -187500.02, -187500.02, 187500.00, -0.00, -0.00, -0.00
96, -44916.14, -51112.05, 187500.00, 187500.00, -42421.98, -187500.02, -187500.02, 187500.00, -0.00, -0.00, -0.00
97, -43478.86, -49634.15, 187500.00, 187500.00, -40984.20, -187500.02, -187500.02, 187500.00, -0.00, -0.00, -0.00
98, -43580.96, -49812.40, 187500.00, 187500.00, -41039.03, -187500.02, -187500.02, 187500.00, -0.00, -0.00, -0.00
99, -44732.57, -51016.71, 187500.00, 187500.00, -42175.08, -187500.02, -187500.02, 187500.00, -0.00, -0.00, -0.00
100, -44547.74, -50761.21, 187500.00, 187500.00, -42034.13, -187500.02, -187500.02, 187500.00, -0.00, -0.00, -0.00
101, -43002.65, -49148.11, 187500.00, 187500.00, -40506.37, -187500.02, -187500.02, 187500.00, -0.00, -0.00, -0.00
102, -42732.46, -48937.96, 187500.00, 187500.00, -40189.89, -187500.02, -187500.02, 187500.00, -0.00, -0.00, -0.00
103, -43977.77, -50256.40, 187500.00, 187500.00, -41410.61, -187500.02, -187500.02, 187500.00, -0.00, -0.00, -0.00
104, -44042.86, -50273.70, 187500.00, 187500.00, -41519.44, -187500.02, -187500.02, 187500.00, -0.00, -0.00, -0.00
105, -42584.36, -48742.43, 187500.00, 187500.00, -40090.63, -187500.02, -187500.02, 187500.00, -0.00, -0.00, -0.00
106, -42008.18, -48208.66, 187500.00, 187500.00, -39483.28, -187500.02, -187500.02, 187500.00, -0.00, -0.00, -0.00
107, -43123.24, -49416.51, 187500.00, 187500.00, -40574.14, -187500.02, -187500.02, 187500.00, -0.00, -0.00, -0.00
108, -43572.98, -49837.59, 187500.00, 187500.00, -41057.85, -187500.02, -187500.02, 187500.00, -0.00, -0.00, -0.00
109, -42306.06, -48475.93, 187500.00, 187500.00, -39819.21, -187500.02, -187500.02, 187500.00, -0.00, -0.00, -0.00
110, -41328.64, -47504.52, 187500.00, 187500.00, -38811.77, -187500.02, -187500.02, 187500.00, -0.00, -0.00, -0.00
111, -42146.52, -48409.27, 187500.00, 187500.00, -39584.22, -187500.02, -187500.02, 187500.00, -0.00, -0.00, -0.00
112, -43007.35, -49269.75, 187500.00, 187500.00, -40463.61, -187500.02, -187500.02, 187500.00, -0.00, -0.00, -0.00
113, -41950.51, -48120.98, 187500.00, 187500.00, -39451.52, -187500.02, -187500.02, 187500.00, -0.00, -0.00, -0.00
114, -40718.55, -46887.95, 187500.00, 187500.00, -38215.16, -187500.02, -187500.02, 187500.00, -0.00, -0.00, -0.00
115, -41332.35, -47590.53, 187500.00, 187500.00, -38781.44, -187500.02, -187500.02, 187500.00, -0.00, -0.00, -0.00
116, -42424.44, -48706.89, 187500.00, 187500.00, -39885.12, -187500.02, -187500.02, 187500.00, -0.00, -0.00, -0.00
117, -41756.28, -47954.82, 187500.00, 187500.00, -39267.54, -187500.02, -187500.02, 187500.00, -0.00, -0.00, -0.00
118, -40376.93, -46539.23, 187500.00, 187500.00, -37878.54, -187500.02, -187500.02, 187500.00, -0.00, -0.00, -0.00
119, -40590.05, -46829.18, 187500.00, 187500.00, -38039.70, -187500.02, -187500.02, 187500.00, -0.00, -0.00, -0.00
120, -41707.79, -47989.53, 187500.00, 187500.00, -39158.49, -187500.02, -187500.02, 187500.00, -0.00, -0.00, -0.00
121, -41326.18, -47537.18, 187500.00, 187500.00, -38831.26, -187500.02, -187500.02, 187500.00, -0.00, -0.00, -0.00
122, -39953.83, -46114.91, 187500.00, 187500.00, -37469.39, -187500.02, -187500.02, 187500.00, -0.00, -0.00, -0.00
123, -39875.04, -46100.89, 187500.00, 187500.00, -37340.00, -187500.02, -187500.02, 187500.00, -0.00, -0.00, -0.00
124, -41152.27, -47440.21, 187500.00, 187500.00, -38596.48, -187500.02, -187500.02, 187500.00, -0.00, -0.00, -0.00
125, -41159.75, -47385.25, 187500.00, 187500.00, -38647.13, -187500.02, -187500.02, 187500.00, -0.00, -0.00, -0.00
126, -39748.60, -45902.17, 187500.00, 187500.00, -37250.41, -187500.02, -187500.02, 187500.00, -0.00, -0.00, -0.00
127, -39302.50, -45501.27, 187500.00, 187500.00, -36756.13, -187500.02, -187500.02, 187500.00, -0.00, -0.00, -0.00
128, -40486.96, -46769.82, 187500.00, 187500.00, -37913.54, -187500.02, -187500.02, 187500.00, -0.00, -0.00, -0.00
129, -40806.44, -47053.57, 187500.00, 187500.00, -38269.18, -187500.02, -187500.02, 187500.00, -0.00, -0.00, -0.00
130, -39543.61, -45709.20, 187500.00, 187500.00, -37033.91, -187500.02, -187500.02, 187500.00, -0.00, -0.00, -0.00
131, -38787.72, -44980.78, 187500.00, 187500.00, -36254.06, -187500.02, -187500.02, 187500.00, -0.00, -0.00, -0.00
132, -39852.18, -46135.00, 187500.00, 187500.00, -37291.79, -187500.02, -187500.02, 187500.00, -0.00, -0.00, -0.00
133, -40540.16, -46806.43, 187500.00, 187500.00, -38004.65, -187500.02, -187500.02, 187500.00, -0.00, -0.00, -0.00
134, -39411.46, -45591.03, 187500.00, 187500.00, -36912.74, -187500.02, -187500.02, 187500.00, -0.00, -0.00, -0.00
135, -38421.91, -44607.96, 187500.00, 187500.00, -35904.43, -187500.02, -187500.02, 187500.00, -0.00, -0.00, -0.00
136, -39149.91, -45425.83, 187500.00, 187500.00, -36594.18, -187500.02, -187500.02, 187500.00, -0.00, -0.00, -0.00
137, -40166.78, -46454.68, 187500.00, 187500.00, -37626.86, -187500.02, -187500.02, 187500.00, -0.00, -0.00, -0.00
138, -39293.47, -45486.20, 187500.00, 187500.00, -36790.81, -187500.02, -187500.02, 187500.00, -0.00, -0.00, -0.00
139, -37985.09, -44155.16, 187500.00, 187500.00, -35473.00, -187500.02, -187500.02, 187500.00, -0.00, -0.00, -0.00
140, -38593.37, -44851.21, 187500.00, 187500.00, -36035.32, -187500.02, -187500.02, 187500.00, -0.00, -0.00, -0.00
141, -39748.11, -46038.60, 187500.00, 187500.00, -37196.30, -187500.02, -187500.02, 187500.00, -0.00, -0.00, -0.00
142, -39139.27, -45358.55, 187500.00, 187500.00, -36651.65, -187500.02, -187500.02, 187500.00, -0.00, -0.00, -0.00
143, -37718.75, -43891.25, 187500.00, 187500.00, -35225.43, -187500.02, -187500.02, 187500.00, -0.00, -0.00, -0.00
144, -37892.78, -44120.89, 187500.00, 187500.00, -35322.06, -187500.02, -187500.02, 187500.00, -0.00, -0.00, -0.00
145, -39123.69, -45397.71, 187500.00, 187500.00, -36522.84, -187500.02, -187500.02, 187500.00, -0.00, -0.00, -0.00
146, -39006.52, -45210.47, 187500.00, 187500.00, -36435.42, -187500.02, -187500.02, 187500.00, -0.00, -0.00, -0.00
147, -37468.32, -43595.54, 187500.00, 187500.00, -34902.52, -187500.02, -187500.02, 187500.00, -0.00, -0.00, -0.00
148, -37246.75, -43431.83, 187500.00, 187500.00, -34633.18, -187500.02, -187500.02, 187500.00, -0.00, -0.00, -0.00
149, -38443.64, -44688.09, 187500.00, 187500.00, -35794.95, -187500.02, -187500.02, 187500.00, -0.00, -0.00, -0.00
150, -38644.80, -44838.94, 187500.00, 187500.00, -36022.79, -187500.02, -187500.02, 187500.00, -0.00, -0.00, -0.00
151, -37363.78, -43480.00, 187500.00, 187500.00, -34752.13, -187500.02, -187500.02, 187500.00, -0.00, -0.00, -0.00
152, -36788.45, -42931.53, 187500.00, 187500.00, -34132.16, -187500.02, -187500.02, 187500.00, -0.00, -0.00, -0.00
153, -37824.76, -44048.43, 187500.00, 187500.00, -35135.31, -187500.02, -187500.02, 187500.00, -0.00, -0.00, -0.00
154, -38404.48, -44609.07, 187500.00, 187500.00, -35755.01, -187500.02, -187500.02, 187500.00, -0.00, -0.00, -0.00
155, -37143.99, -43265.73, 187500.00, 187500.00, -34532.64, -187500.02, -187500.02, 187500.00, -0.00, -0.00, -0.00
156, -36260.94, -42402.80, 187500.00, 187500.00, -33620.38, -187500.02, -187500.02, 187500.00, -0.00, -0.00, -0.00
157, -37225.98, -43455.77, 187500.00, 187500.00, -34541.34, -187500.02, -187500.02, 187500.00, -0.00, -0.00, -0.00
158, -38076.62, -44296.13, 187500.00, 187500.00, -35410.88, -187500.02, -187500.02, 187500.00, -0.00, -0.00, -0.00
159, -37020.37, -43146.13, 187500.00, 187500.00, -34396.90, -187500.02, -187500.02, 187500.00, -0.00, -0.00, -0.00
160, -35951.91, -42076.69, 187500.00, 187500.00, -33312.77, -187500.02, -187500.02, 187500.00, -0.00, -0.00, -0.00
161, -36624.20, -42836.82, 187500.00, 187500.00, -33939.87, -187500.02, -187500.02, 187500.00, -0.00, -0.00, -0.00
162, -37695.10, -43930.50, 187500.00, 187500.00, -35025.65, -187500.02, -187500.02, 187500.00, -0.00, -0.00, -0.00
163, -36908.56, -43052.61, 187500.00, 187500.00, -34285.05, -187500.02, -187500.02, 187500.00, -0.00, -0.00, -0.00
164, -35615.13, -41730.86, 187500.00, 187500.00, -32979.93, -187500.02, -187500.02, 187500.00, -0.00, -0.00, -0.00
165, -35993.04, -42192.00, 187500.00, 187500.00, -33307.68, -187500.02, -187500.02, 187500.00, -0.00, -0.00, -0.00
166, -37125.22, -43362.96, 187500.00, 187500.00, -34439.14, -187500.02, -187500.02, 187500.00, -0.00, -0.00, -0.00
167, -36685.38, -42847.89, 187500.00, 187500.00, -34055.59, -187500.02, -187500.02, 187500.00, -0.00, -0.00, -0.00
168, -35276.80, -41387.18, 187500.00, 187500.00, -32656.19, -187500.02, -187500.02, 187500.00, -0.00, -0.00, -0.00
169, -35263.54, -41443.15, 187500.00, 187500.00, -32594.16, -187500.02, -187500.02, 187500.00, -0.00, -0.00, -0.00
170, -36384.39, -42628.35, 187500.00, 187500.00, -33702.05, -187500.02, -187500.02, 187500.00, -0.00, -0.00, -0.00
171, -36276.59, -42458.72, 187500.00, 187500.00, -33641.88, -187500.02, -187500.02, 187500.00, -0.00, -0.00, -0.00
172, -35009.18, -41129.00, 187500.00, 187500.00, -32399.66, -187500.02, -187500.02, 187500.00, -0.00, -0.00, -0.00
173, -34715.19, -40885.12, 187500.00, 187500.00, -32054.52, -187500.02, -187500.02, 187500.00, -0.00, -0.00, -0.00
174, -35830.61, -42074.90, 187500.00, 187500.00, -33138.52, -187500.02, -187500.02, 187500.00, -0.00, -0.00, -0.00
175, -36167.82, -42374.05, 187500.00, 187500.00, -33518.77, -187500.02, -187500.02, 187500.00, -0.00, -0.00, -0.00
176, -34847.91, -40966.81, 187500.00, 187500.00, -32230.77, -187500.02, -187500.02, 187500.00, -0.00, -0.00, -0.00
177, -34133.28, -40280.21, 187500.00, 187500.00, -31483.19, -187500.02, -187500.02, 187500.00, -0.00, -0.00, -0.00
178, -35114.99, -41349.63, 187500.00, 187500.00, -32425.16, -187500.02, -187500.02, 187500.00, -0.00, -0.00, -0.00
179, -35765.34, -41987.01, 187500.00, 187500.00, -33107.52, -187500.02, -187500.02, 187500.00, -0.00, -0.00, -0.00
180, -34707.43, -40847.32, 187500.00, 187500.00, -32093.17, -187500.02, -187500.02, 187500.00, -0.00, -0.00, -0.00
181, -33747.51, -39894.38, 187500.00, 187500.00, -31110.56, -187500.02, -187500.02, 187500.00, -0.00, -0.00, -0.00
182, -34552.38, -40789.00, 187500.00, 187500.00, -31871.13, -187500.02, -187500.02, 187500.00, -0.00, -0.00, -0.00
183, -35505.25, -41750.96, 187500.00, 187500.00, -32848.17, -187500.02, -187500.02, 187500.00, -0.00, -0.00, -0.00
184, -34631.32, -40786.48, 187500.00, 187500.00, -32021.20, -187500.02, -187500.02, 187500.00, -0.00, -0.00, -0.00
185, -33404.37, -39543.34, 187500.00, 187500.00, -30785.12, -187500.02, -187500.02, 187500.00, -0.00, -0.00, -0.00
186, -33944.41, -40171.76, 187500.00, 187500.00, -31277.96, -187500.02, -187500.02, 187500.00, -0.00, -0.00, -0.00
187, -35099.79, -41354.66, 187500.00, 187500.00, -32432.02, -187500.02, -187500.02, 187500.00, -0.00, -0.00, -0.00
188, -34506.31, -40676.15, 187500.00, 187500.00, -31882.97, -187500.02, -187500.02, 187500.00, -0.00, -0.00, -0.00
189, -33155.14, -39285.85, 187500.00, 187500.00, -30528.19, -187500.02, -187500.02, 187500.00, -0.00, -0.00, -0.00
190, -33398.91, -39606.71, 187500.00, 187500.00, -30721.06, -187500.02, -187500.02, 187500.00, -0.00, -0.00, -0.00
191, -34628.37, -40887.22, 187500.00, 187500.00, -31943.08, -187500.02, -187500.02, 187500.00, -0.00, -0.00, -0.00
192, -34402.89, -40589.36, 187500.00, 187500.00, -31763.28, -187500.02, -187500.02, 187500.00, -0.00, -0.00, -0.00
193, -33034.09, -39162.22, 187500.00, 187500.00, -30408.25, -187500.02, -187500.02, 187500.00, -0.00, -0.00, -0.00
194, -32839.18, -39028.29, 187500.00, 187500.00, -30167.88, -187500.02, -187500.02, 187500.00, -0.00, -0.00, -0.00
195, -34083.13, -40350.84, 187500.00, 187500.00, -31399.26, -187500.02, -187500.02, 187500.00, -0.00, -0.00, -0.00
196, -34212.23, -40430.64, 187500.00, 187500.00, -31577.45, -187500.02, -187500.02, 187500.00, -0.00, -0.00, -0.00
197, -32837.04, -38982.04, 187500.00, 187500.00, -30234.04, -187500.02, -187500.02, 187500.00, -0.00, -0.00, -0.00
198, -32342.77, -38524.50, 187500.00, 187500.00, -29700.15, -187500.02, -187500.02, 187500.00, -0.00, -0.00, -0.00
199, -33401.30, -39647.32, 187500.00, 187500.00, -30701.64, -187500.02, -187500.02, 187500.00, -0.00, -0.00, -0.00
200, -33856.16, -40070.53, 187500.00, 187500.00, -31187.88, -187500.02, -187500.02, 187500.00, -0.00, -0.00, -0.00
201, -32568.64, -38702.54, 187500.00, 187500.00, -29944.34, -187500.02, -187500.02, 187500.00, -0.00, -0.00, -0.00
202, -31714.35, -37867.74, 187500.00, 187500.00, -29059.70, -187500.02, -187500.02, 187500.00, -0.00, -0.00, -0.00
203, -32722.21, -38970.22, 187500.00, 187500.00, -30032.16, -187500.02, -187500.02, 187500.00, -0.00, -0.00, -0.00
204, -33558.39, -39805.48, 187500.00, 187500.00, -30903.74, -187500.02, -187500.02, 187500.00, -0.00, -0.00, -0.00
205, -32544.79, -38695.94, 187500.00, 187500.00, -29925.30, -187500.02, -187500.02, 187500.00, -0.00, -0.00, -0.00
206, -31468.42, -37614.57, 187500.00, 187500.00, -28825.86, -187500.02, -187500.02, 187500.00, -0.00, -0.00, -0.00
207, -32188.28, -38424.57, 187500.00, 187500.00, -29499.25, -187500.02, -187500.02, 187500.00, -0.00, -0.00, -0.00
208, -33227.66, -39484.31, 187500.00, 187500.00, -30554.48, -187500.02, -187500.02, 187500.00, -0.00, -0.00, -0.00
209, -32434.08, -38603.56, 187500.00, 187500.00, -29812.00, -187500.02, -187500.02, 187500.00, -0.00, -0.00, -0.00
210, -31163.63, -37309.11, 187500.00, 187500.00, -28535.82, -187500.02, -187500.02, 187500.00, -0.00, -0.00, -0.00
211, -31614.37, -37842.31, 187500.00, 187500.00, -28936.39, -187500.02, -187500.02, 187500.00, -0.00, -0.00, -0.00
212, -32760.01, -39026.57, 187500.00, 187500.00, -30089.74, -187500.02, -187500.02, 187500.00, -0.00, -0.00, -0.00
213, -32301.67, -38482.66, 187500.00, 187500.00, -29670.87, -187500.02, -187500.02, 187500.00, -0.00, -0.00, -0.00
214, -30853.05, -36984.60, 187500.00, 187500.00, -28223.59, -187500.02, -187500.02, 187500.00, -0.00, -0.00, -0.00
215, -30976.86, -37190.93, 187500.00, 187500.00, -28303.43, -187500.02, -187500.02, 187500.00, -0.00, -0.00, -0.00
216, -32304.08, -38581.59, 187500.00, 187500.00, -29615.86, -187500.02, -187500.02, 187500.00, -0.00, -0.00, -0.00
217, -32313.25, -38517.06, 187500.00, 187500.00, -29662.71, -187500.02, -187500.02, 187500.00, -0.00, -0.00, -0.00
218, -30850.99, -36983.11, 187500.00, 187500.00, -28224.08, -187500.02, -187500.02, 187500.00, -0.00, -0.00, -0.00
219, -30491.89, -36679.86, 187500.00, 187500.00, -27824.43, -187500.02, -187500.02, 187500.00, -0.00, -0.00, -0.00
220, -31699.78, -37970.92, 187500.00, 187500.00, -29014.42, -187500.02, -187500.02, 187500.00, -0.00, -0.00, -0.00
221, -31879.89, -38102.50, 187500.00, 187500.00, -29239.37, -187500.02, -187500.02, 187500.00, -0.00, -0.00, -0.00
222, -30479.64, -36623.29, 187500.00, 187500.00, -27863.79, -187500.02, -187500.02, 187500.00, -0.00, -0.00, -0.00
223, -29889.73, -36066.77, 187500.00, 187500.00, -27226.57, -187500.02, -187500.02, 187500.00, -0.00, -0.00, -0.00
224, -31020.22, -37284.65, 187500.00, 187500.00, -28324.26, -187500.02, -187500.02, 187500.00, -0.00, -0.00, -0.00
225, -31603.60, -37841.14, 187500.00, 187500.00, -28941.96, -187500.02, -187500.02, 187500.00, -0.00, -0.00, -0.00
226, -30347.21, -36494.03, 187500.00, 187500.00, -27725.86, -187500.02, -187500.02, 187500.00, -0.00, -0.00, -0.00
227, -29417.38, -35583.02, 187500.00, 187500.00, -26772.52, -187500.02, -187500.02, 187500.00, -0.00, -0.00, -0.00
228, -30396.54, -36653.71, 187500.00, 187500.00, -27706.42, -187500.02, -187500.02, 187500.00, -0.00, -0.00, -0.00
229, -31166.00, -37413.91, 187500.00, 187500.00, -28492.75, -187500.02, -187500.02, 187500.00, -0.00, -0.00, -0.00
230, -30250.31, -36409.38, 187500.00, 187500.00, -27622.33, -187500.02, -187500.02, 187500.00, -0.00, -0.00, -0.00
231, -29076.02, -35220.18, 187500.00, 187500.00, -26435.47, -187500.02, -187500.02, 187500.00, -0.00, -0.00, -0.00
232, -29585.93, -35820.37, 187500.00, 187500.00, -26904.68, -187500.02, -187500.02, 187500.00, -0.00, -0.00, -0.00
233, -30644.55, -36912.61, 187500.00, 187500.00, -27969.83, -187500.02, -187500.02, 187500.00, -0.00, -0.00, -0.00
234, -30021.61, -36202.16, 187500.00, 187500.00, -27389.47, -187500.02, -187500.02, 187500.00, -0.00, -0.00, -0.00
235, -28653.37, -34800.66, 187500.00, 187500.00, -26024.25, -187500.02, -187500.02, 187500.00, -0.00, -0.00, -0.00
236, -28946.47, -35177.15, 187500.00, 187500.00, -26276.42, -187500.02, -187500.02, 187500.00, -0.00, -0.00, -0.00
237, -30146.09, -36420.54, 187500.00, 187500.00, -27465.98, -187500.02, -187500.02, 187500.00, -0.00, -0.00, -0.00
238, -29900.75, -36102.92, 187500.00, 187500.00, -27265.71, -187500.02, -187500.02, 187500.00, -0.00, -0.00, -0.00
239, -28507.59, -34658.14, 187500.00, 187500.00, -25890.49, -187500.02, -187500.02, 187500.00, -0.00, -0.00, -0.00
240, -28446.21, -34663.13, 187500.00, 187500.00, -25788.41, -187500.02, -187500.02, 187500.00, -0.00, -0.00, -0.00
241, -29778.98, -36068.36, 187500.00, 187500.00, -27103.77, -187500.02, -187500.02, 187500.00, -0.00, -0.00, -0.00
242, -29790.05, -36016.19, 187500.00, 187500.00, -27162.60, -187500.02, -187500.02, 187500.00, -0.00, -0.00, -0.00
243, -28270.02, -34419.32, 187500.00, 187500.00, -25668.88, -187500.02, -187500.02, 187500.00, -0.00, -0.00, -0.00
244, -27786.06, -33986.72, 187500.00, 187500.00, -25147.81, -187500.02, -187500.02, 187500.00, -0.00, -0.00, -0.00
245, -29005.23, -35289.11, 187500.00, 187500.00, -26333.57, -187500.02, -187500.02, 187500.00, -0.00, -0.00, -0.00
246, -29344.20, -35587.48, 187500.00, 187500.00, -26709.46, -187500.02, -187500.02, 187500.00, -0.00, -0.00, -0.00
247, -28055.04, -34210.44, 187500.00, 187500.00, -25445.81, -187500.02, -187500.02, 187500.00, -0.00, -0.00, -0.00
248, -27283.14, -33461.66, 187500.00, 187500.00, -24641.99, -187500.02, -187500.02, 187500.00, -0.00, -0.00, -0.00
249, -28233.47, -34502.26, 187500.00, 187500.00, -25556.40, -187500.02, -187500.02, 187500.00, -0.00, -0.00, -0.00
250, -29005.50, -35262.91, 187500.00, 187500.00, -26351.23, -187500.02, -187500.02, 187500.00, -0.00, -0.00, -0.00
251, -27945.65, -34109.88, 187500.00, 187500.00, -25330.49, -187500.02, -187500.02, 187500.00, -0.00, -0.00, -0.00
252, -26923.48, -33089.63, 187500.00, 187500.00, -24287.34, -187500.02, -187500.02, 187500.00, -0.00, -0.00, -0.00
253, -27600.63, -33855.56, 187500.00, 187500.00, -24920.72, -187500.02, -187500.02, 187500.00, -0.00, -0.00, -0.00
254, -28499.79, -34771.85, 187500.00, 187500.00, -25836.65, -187500.02, -187500.02, 187500.00, -0.00, -0.00, -0.00
255, -27727.40, -33910.55, 187500.00, 187500.00, -25104.21, -187500.02, -187500.02, 187500.00, -0.00, -0.00, -0.00
0, -26410.35, -32569.26, 187500.00, 187500.00, -23782.08, -187500.02, -187500.02, 187500.00, -0.00, -0.00, -0.00
1, -26890.02, -33141.91, 187500.00, 187500.00, -24224.17, -187500.02, -187500.02, 187500.00, -0.00, -0.00, -0.00
2, -28065.43, -34352.04, 187500.00, 187500.00, -25397.66, -187500.02, -187500.02, 187500.00, -0.00, -0.00, -0.00
3, -27551.99, -33751.63, 187500.00, 187500.00, -24922.24, -187500.02, -187500.02, 187500.00, -0.00, -0.00, -0.00
4, -26139.52, -32293.22, 187500.00, 187500.00, -23513.79, -187500.02, -187500.02, 187500.00, -0.00, -0.00, -0.00
5, -26272.55, -32502.79, 187500.00, 187500.00, -23606.93, -187500.02, -187500.02, 187500.00, -0.00, -0.00, -0.00
6, -27517.81, -33809.74, 187500.00, 187500.00, -24844.03, -187500.02, -187500.02, 187500.00, -0.00, -0.00, -0.00
7, -27418.48, -33640.36, 187500.00, 187500.00, -24785.18, -187500.02, -187500.02, 187500.00, -0.00, -0.00, -0.00
8, -25975.19, -32126.07, 187500.00, 187500.00, -23353.86, -187500.02, -187500.02, 187500.00, -0.00, -0.00, -0.00
9, -25792.53, -32008.81, 187500.00, 187500.00, -23131.37, -187500.02, -187500.02, 187500.00, -0.00, -0.00, -0.00
10, -27069.71, -33359.55, 187500.00, 187500.00, -24382.78, -187500.02, -187500.02, 187500.00, -0.00, -0.00, -0.00
11, -27140.92, -33380.12, 187500.00, 187500.00, -24498.03, -187500.02, -187500.02, 187500.00, -0.00, -0.00, -0.00
12, -25731.71, -31891.29, 187500.00, 187500.00, -23113.54, -187500.02, -187500.02, 187500.00, -0.00, -0.00, -0.00
13, -25147.23, -31341.75, 187500.00, 187500.00, -22490.37, -187500.02, -187500.02, 187500.00, -0.00, -0.00, -0.00
14, -26254.56, -32538.01, 187500.00, 187500.00, -23569.62, -187500.02, -187500.02, 187500.00, -0.00, -0.00, -0.00
15, -26810.49, -33069.54, 187500.00, 187500.00, -24159.02, -187500.02, -187500.02, 187500.00, -0.00, -0.00, -0.00
16, -25572.43, -31738.54, 187500.00, 187500.00, -22960.63, -187500.02, -187500.02, 187500.00, -0.00, -0.00, -0.00
17, -24648.27, -30832.82, 187500.00, 187500.00, -22012.67, -187500.02, -187500.02, 187500.00, -0.00, -0.00, -0.00
18, -25588.83, -31867.87, 187500.00, 187500.00, -22912.46, -187500.02, -187500.02, 187500.00, -0.00, -0.00, -0.00
19, -26459.64, -32734.44, 187500.00, 187500.00, -23799.85, -187500.02, -187500.02, 187500.00, -0.00, -0.00, -0.00
20, -25464.07, -31643.05, 187500.00, 187500.00, -22848.44, -187500.02, -187500.02, 187500.00, -0.00, -0.00, -0.00
21, -24327.24, -30494.46, 187500.00, 187500.00, -21697.98, -187500.02, -187500.02, 187500.00, -0.00, -0.00, -0.00
22, -25010.39, -31269.33, 187500.00, 187500.00, -22328.43, -187500.02, -187500.02, 187500.00, -0.00, -0.00, -0.00
23, -26143.98, -32423.30, 187500.00, 187500.00, -23467.48, -187500.02, -187500.02, 187500.00, -0.00, -0.00, -0.00
24, -25402.29, -31588.38, 187500.00, 187500.00, -22771.93, -187500.02, -187500.02, 187500.00, -0.00, -0.00, -0.00
25, -24053.76, -30210.21, 187500.00, 187500.00, -21420.37, -187500.02, -187500.02, 187500.00, -0.00, -0.00, -0.00
26, -24400.66, -30640.04, 187500.00, 187500.00, -21718.79, -187500.02, -187500.02, 187500.00, -0.00, -0.00, -0.00
27, -25559.67, -31844.11, 187500.00, 187500.00, -22881.79, -187500.02, -187500.02, 187500.00, -0.00, -0.00, -0.00
28, -25138.92, -31345.86, 187500.00, 187500.00, -22512.81, -187500.02, -187500.02, 187500.00, -0.00, -0.00, -0.00
29, -23702.06, -29858.17, 187500.00, 187500.00, -21090.35, -187500.02, -187500.02, 187500.00, -0.00, -0.00, -0.00
30, -23653.33, -29875.32, 187500.00, 187500.00, -20993.83, -187500.02, -187500.02, 187500.00, -0.00, -0.00, -0.00
31, -24950.96, -31244.25, 187500.00, 187500.00, -22273.22, -187500.02, -187500.02, 187500.00, -0.00, -0.00, -0.00
32, -24976.91, -31208.53, 187500.00, 187500.00, -22342.56, -187500.02, -187500.02, 187500.00, -0.00, -0.00, -0.00
33, -23518.35, -29672.61, 187500.00, 187500.00, -20900.04, -187500.02, -187500.02, 187500.00, -0.00, -0.00, -0.00
34, -23073.86, -29277.81, 187500.00, 187500.00, -20412.78, -187500.02, -187500.02, 187500.00, -0.00, -0.00, -0.00
35, -24191.81, -30478.08, 187500.00, 187500.00, -21506.40, -187500.02, -187500.02, 187500.00, -0.00, -0.00, -0.00
36, -24536.96, -30787.61, 187500.00, 187500.00, -21887.50, -187500.02, -187500.02, 187500.00, -0.00, -0.00, -0.00
37, -23242.26, -29411.86, 187500.00, 187500.00, -20627.69, -187500.02, -187500.02, 187500.00, -0.00, -0.00, -0.00
38, -22556.24, -28752.54, 187500.00, 187500.00, -19909.53, -187500.02, -187500.02, 187500.00, -0.00, -0.00, -0.00
39, -23619.40, -29900.24, 187500.00, 187500.00, -20935.72, -187500.02, -187500.02, 187500.00, -0.00, -0.00, -0.00
40, -24281.48, -30542.85, 187500.00, 187500.00, -21621.09, -187500.02, -187500.02, 187500.00, -0.00, -0.00, -0.00
41, -23195.59, -29373.19, 187500.00, 187500.00, -20578.22, -187500.02, -187500.02, 187500.00, -0.00, -0.00, -0.00
42, -22151.00, -28329.20, 187500.00, 187500.00, -19505.63, -187500.02, -187500.02, 187500.00, -0.00, -0.00, -0.00
43, -22889.35, -29155.97, 187500.00, 187500.00, -20203.00, -187500.02, -187500.02, 187500.00, -0.00, -0.00, -0.00
44, -23836.93, -30115.22, 187500.00, 187500.00, -21165.20, -187500.02, -187500.02, 187500.00, -0.00, -0.00, -0.00
45, -23006.98, -29196.94, 187500.00, 187500.00, -20389.37, -187500.02, -187500.02, 187500.00, -0.00, -0.00, -0.00
46, -21797.24, -27965.92, 187500.00, 187500.00, -19171.45, -187500.02, -187500.02, 187500.00, -0.00, -0.00, -0.00
47, -22318.06, -28569.93, 187500.00, 187500.00, -19639.70, -187500.02, -187500.02, 187500.00, -0.00, -0.00, -0.00
48, -23476.51, -29763.89, 187500.00, 187500.00, -20800.60, -187500.02, -187500.02, 187500.00, -0.00, -0.00, -0.00
49, -22935.15, -29143.05, 187500.00, 187500.00, -20301.55, -187500.02, -187500.02, 187500.00, -0.00, -0.00, -0.00
50, -21525.33, -27691.33, 187500.00, 187500.00, -18898.18, -187500.02, -187500.02, 187500.00, -0.00, -0.00, -0.00
51, -21660.85, -27900.36, 187500.00, 187500.00, -18985.10, -187500.02, -187500.02, 187500.00, -0.00, -0.00, -0.00
52, -22925.02, -29219.23, 187500.00, 187500.00, -20237.60, -187500.02, -187500.02, 187500.00, -0.00, -0.00, -0.00
53, -22738.54, -28958.83, 187500.00, 187500.00, -20098.42, -187500.02, -187500.02, 187500.00, -0.00, -0.00, -0.00
54, -21259.10, -27412.38, 187500.00, 187500.00, -18632.32, -187500.02, -187500.02, 187500.00, -0.00, -0.00, -0.00
55, -21093.92, -27304.29, 187500.00, 187500.00, -18409.77, -187500.02, -187500.02, 187500.00, -0.00, -0.00, -0.00
56, -22310.53, -28587.86, 187500.00, 187500.00, -19600.67, -187500.02, -187500.02, 187500.00, -0.00, -0.00, -0.00
57, -22398.21, -28624.45, 187500.00, 187500.00, -19741.26, -187500.02, -187500.02, 187500.00, -0.00, -0.00, -0.00
58, -20984.76, -27134.26, 187500.00, 187500.00, -18355.34, -187500.02, -187500.02, 187500.00, -0.00, -0.00, -0.00
59, -20493.17, -26685.52, 187500.00, 187500.00, -17816.26, -187500.02, -187500.02, 187500.00, -0.00, -0.00, -0.00
60, -21629.36, -27908.95, 187500.00, 187500.00, -18922.14, -187500.02, -187500.02, 187500.00, -0.00, -0.00, -0.00
61, -22124.38, -28370.35, 187500.00, 187500.00, -19450.91, -187500.02, -187500.02, 187500.00, -0.00, -0.00, -0.00
62, -20882.09, -27038.50, 187500.00, 187500.00, -18245.39, -187500.02, -187500.02, 187500.00, -0.00, -0.00, -0.00
63, -19980.58, -26156.95, 187500.00, 187500.00, -17324.59, -187500.02, -187500.02, 187500.00, -0.00, -0.00, -0.00
64, -20957.49, -27233.70, 187500.00, 187500.00, -18270.74, -187500.02, -187500.02, 187500.00, -0.00, -0.00, -0.00
65, -21759.56, -28023.99, 187500.00, 187500.00, -19093.44, -187500.02, -187500.02, 187500.00, -0.00, -0.00, -0.00
66, -20889.18, -27062.96, 187500.00, 187500.00, -18254.22, -187500.02, -187500.02, 187500.00, -0.00, -0.00, -0.00
67, -19817.35, -25979.03, 187500.00, 187500.00, -17155.50, -187500.02, -187500.02, 187500.00, -0.00, -0.00, -0.00
68, -20435.82, -26687.04, 187500.00, 187500.00, -17733.58, -187500.02, -187500.02, 187500.00, -0.00, -0.00, -0.00
69, -21462.84, -27739.45, 187500.00, 187500.00, -18777.63, -187500.02, -187500.02, 187500.00, -0.00, -0.00, -0.00
70, -20755.43, -26941.41, 187500.00, 187500.00, -18115.96, -187500.02, -187500.02, 187500.00, -0.00, -0.00, -0.00
71, -19441.46, -25600.84, 187500.00, 187500.00, -16805.76, -187500.02, -187500.02, 187500.00, -0.00, -0.00, -0.00
72, -19804.56, -26048.19, 187500.00, 187500.00, -17117.61, -187500.02, -187500.02, 187500.00, -0.00, -0.00, -0.00
73, -21040.79, -27331.13, 187500.00, 187500.00, -18352.79, -187500.02, -187500.02, 187500.00, -0.00, -0.00, -0.00
74, -20665.71, -26875.16, 187500.00, 187500.00, -18027.82, -187500.02, -187500.02, 187500.00, -0.00, -0.00, -0.00
75, -19183.65, -25332.33, 187500.00, 187500.00, -16550.75, -187500.02, -187500.02, 187500.00, -0.00, -0.00, -0.00
76, -19144.25, -25362.81, 187500.00, 187500.00, -16461.23, -187500.02, -187500.02, 187500.00, -0.00, -0.00, -0.00
77, -20426.16, -26713.62, 187500.00, 187500.00, -17734.39, -187500.02, -187500.02, 187500.00, -0.00, -0.00, -0.00
78, -20374.46, -26597.26, 187500.00, 187500.00, -17729.20, -187500.02, -187500.02, 187500.00, -0.00, -0.00, -0.00
79, -18998.04, -25145.31, 187500.00, 187500.00, -16368.09, -187500.02, -187500.02, 187500.00, -0.00, -0.00, -0.00
80, -18586.28, -24785.00, 187500.00, 187500.00, -15918.98, -187500.02, -187500.02, 187500.00, -0.00, -0.00, -0.00
81, -19909.84, -26194.95, 187500.00, 187500.00, -17215.07, -187500.02, -187500.02, 187500.00, -0.00, -0.00, -0.00
82, -20239.26, -26472.18, 187500.00, 187500.00, -17572.96, -187500.02, -187500.02, 187500.00, -0.00, -0.00, -0.00
83, -18905.69, -25051.54, 187500.00, 187500.00, -16265.88, -187500.02, -187500.02, 187500.00, -0.00, -0.00, -0.00
84, -18170.45, -24341.32, 187500.00, 187500.00, -15494.79, -187500.02, -187500.02, 187500.00, -0.00, -0.00, -0.00
85, -19243.89, -25506.29, 187500.00, 187500.00, -16526.66, -187500.02, -187500.02, 187500.00, -0.00, -0.00, -0.00
86, -19915.54, -26156.99, 187500.00, 187500.00, -17221.33, -187500.02, -187500.02, 187500.00, -0.00, -0.00, -0.00
87, -18710.11, -24862.04, 187500.00, 187500.00, -16061.40, -187500.02, -187500.02, 187500.00, -0.00, -0.00, -0.00
88, -17754.15, -23919.76, 187500.00, 187500.00, -15086.80, -187500.02, -187500.02, 187500.00, -0.00, -0.00, -0.00
89, -18563.44, -24821.32, 187500.00, 187500.00, -15861.56, -187500.02, -187500.02, 187500.00, -0.00, -0.00, -0.00
90, -19502.63, -25768.30, 187500.00, 187500.00, -16824.02, -187500.02, -187500.02, 187500.00, -0.00, -0.00, -0.00
91, -18597.32, -24768.46, 187500.00, 187500.00, -15960.91, -187500.02, -187500.02, 187500.00, -0.00, -0.00, -0.00
92, -17413.37, -23573.24, 187500.00, 187500.00, -14769.54, -187500.02, -187500.02, 187500.00, -0.00, -0.00, -0.00
93, -18019.64, -24264.16, 187500.00, 187500.00, -15325.54, -187500.02, -187500.02, 187500.00, -0.00, -0.00, -0.00
94, -19128.00, -25391.92, 187500.00, 187500.00, -16427.17, -187500.02, -187500.02, 187500.00, -0.00, -0.00, -0.00
95, -18579.46, -24753.44, 187500.00, 187500.00, -15912.00, -187500.02, -187500.02, 187500.00, -0.00, -0.00, -0.00
96, -17265.47, -23401.05, 187500.00, 187500.00, -14603.53, -187500.02, -187500.02, 187500.00, -0.00, -0.00, -0.00
97, -17397.19, -23609.90, 187500.00, 187500.00, -14694.08, -187500.02, -187500.02, 187500.00, -0.00, -0.00, -0.00
98, -18628.86, -24901.27, 187500.00, 187500.00, -15915.67, -187500.02, -187500.02, 187500.00, -0.00, -0.00, -0.00
99, -18452.06, -24653.73, 187500.00, 187500.00, -15785.20, -187500.02, -187500.02, 187500.00, -0.00, -0.00, -0.00
100, -17072.31, -23213.45, 187500.00, 187500.00, -14422.37, -187500.02, -187500.02, 187500.00, -0.00, -0.00, -0.00
101, -16927.20, -23131.98, 187500.00, 187500.00, -14237.88, -187500.02, -187500.02, 187500.00, -0.00, -0.00, -0.00
102, -18205.03, -24480.46, 187500.00, 187500.00, -15498.56, -187500.02, -187500.02, 187500.00, -0.00, -0.00, -0.00
103, -18273.98, -24494.36, 187500.00, 187500.00, -15608.69, -187500.02, -187500.02, 187500.00, -0.00, -0.00, -0.00
104, -16848.12, -22996.10, 187500.00, 187500.00, -14204.87, -187500.02, -187500.02, 187500.00, -0.00, -0.00, -0.00
105, -16386.00, -22576.74, 187500.00, 187500.00, -13704.26, -187500.02, -187500.02, 187500.00, -0.00, -0.00, -0.00
106, -17556.78, -23832.19, 187500.00, 187500.00, -14849.58, -187500.02, -187500.02, 187500.00, -0.00, -0.00, -0.00
107, -17974.83, -24214.36, 187500.00, 187500.00, -15301.24, -187500.02, -187500.02, 187500.00, -0.00, -0.00, -0.00
108, -16686.72, -22841.00, 187500.00, 187500.00, -14054.93, -187500.02, -187500.02, 187500.00, -0.00, -0.00, -0.00
109, -15840.35, -22017.90, 187500.00, 187500.00, -13190.90, -187500.02, -187500.02, 187500.00, -0.00, -0.00, -0.00
110, -16768.52, -23035.80, 187500.00, 187500.00, -14075.07, -187500.02, -187500.02, 187500.00, -0.00, -0.00, -0.00
111, -17577.10, -23834.94, 187500.00, 187500.00, -14900.03, -187500.02, -187500.02, 187500.00, -0.00, -0.00, -0.00
112, -16561.97, -22729.91, 187500.00, 187500.00, -13923.82, -187500.02, -187500.02, 187500.00, -0.00, -0.00, -0.00
113, -15335.89, -21493.86, 187500.00, 187500.00, -12675.47, -187500.02, -187500.02, 187500.00, -0.00, -0.00, -0.00
114, -16101.79, -22354.16, 187500.00, 187500.00, -13392.07, -187500.02, -187500.02, 187500.00, -0.00, -0.00, -0.00
115, -17097.29, -23363.21, 187500.00, 187500.00, -14399.53, -187500.02, -187500.02, 187500.00, -0.00, -0.00, -0.00
116, -16326.43, -22504.83, 187500.00, 187500.00, -13673.90, -187500.02, -187500.02, 187500.00, -0.00, -0.00, -0.00
117, -14975.69, -21126.89, 187500.00, 187500.00, -12318.02, -187500.02, -187500.02, 187500.00, -0.00, -0.00, -0.00
118, -15354.96, -21591.54, 187500.00, 187500.00, -12649.52, -187500.02, -187500.02, 187500.00, -0.00, -0.00, -0.00
119, -16515.55, -22794.58, 187500.00, 187500.00, -13811.97, -187500.02, -187500.02, 187500.00, -0.00, -0.00, -0.00
120, -16111.90, -22309.43, 187500.00, 187500.00, -13451.26, -187500.02, -187500.02, 187500.00, -0.00, -0.00, -0.00
121, -14751.61, -20894.25, 187500.00, 187500.00, -12095.45, -187500.02, -187500.02, 187500.00, -0.00, -0.00, -0.00
122, -14751.21, -20958.85, 187500.00, 187500.00, -12050.85, -187500.02, -187500.02, 187500.00, -0.00, -0.00, -0.00
123, -15952.69, -22227.18, 187500.00, 187500.00, -13237.87, -187500.02, -187500.02, 187500.00, -0.00, -0.00, -0.00
124, -16057.16, -22271.10, 187500.00, 187500.00, -13387.60, -187500.02, -187500.02, 187500.00, -0.00, -0.00, -0.00
125, -14620.77, -20755.25, 187500.00, 187500.00, -11963.46, -187500.02, -187500.02, 187500.00, -0.00, -0.00, -0.00
126, -14208.58, -20398.67, 187500.00, 187500.00, -11508.94, -187500.02, -187500.02, 187500.00, -0.00, -0.00, -0.00
127, -15445.52, -21724.06, 187500.00, 187500.00, -12728.20, -187500.02, -187500.02, 187500.00, -0.00, -0.00, -0.00
128, -15695.37, -21923.28, 187500.00, 187500.00, -13015.91, -187500.02, -187500.02, 187500.00, -0.00, -0.00, -0.00
129, -14284.06, -20418.01, 187500.00, 187500.00, -11622.77, -187500.02, -187500.02, 187500.00, -0.00, -0.00, -0.00
130, -13603.18, -19768.49, 187500.00, 187500.00, -10908.34, -187500.02, -187500.02, 187500.00, -0.00, -0.00, -0.00
131, -14705.70, -20964.62, 187500.00, 187500.00, -11981.47, -187500.02, -187500.02, 187500.00, -0.00, -0.00, -0.00
132, -15344.56, -21581.55, 187500.00, 187500.00, -12646.04, -187500.02, -187500.02, 187500.00, -0.00, -0.00, -0.00
133, -14182.23, -20329.60, 187500.00, 187500.00, -11522.61, -187500.02, -187500.02, 187500.00, -0.00, -0.00, -0.00
134, -13229.75, -19383.37, 187500.00, 187500.00, -10539.41, -187500.02, -187500.02, 187500.00, -0.00, -0.00, -0.00
135, -14122.48, -20371.22, 187500.00, 187500.00, -11390.74, -187500.02, -187500.02, 187500.00, -0.00, -0.00, -0.00
136, -15058.62, -21311.22, 187500.00, 187500.00, -12344.80, -187500.02, -187500.02, 187500.00, -0.00, -0.00, -0.00
137, -14127.84, -20285.12, 187500.00, 187500.00, -11456.77, -187500.02, -187500.02, 187500.00, -0.00, -0.00, -0.00
138, -12914.82, -19056.72, 187500.00, 187500.00, -10231.40, -187500.02, -187500.02, 187500.00, -0.00, -0.00, -0.00
139, -13543.46, -19777.07, 187500.00, 187500.00, -10816.25, -187500.02, -187500.02, 187500.00, -0.00, -0.00, -0.00
140, -14652.17, -20919.00, 187500.00, 187500.00, -11933.22, -187500.02, -187500.02, 187500.00, -0.00, -0.00, -0.00
141, -14037.81, -20222.99, 187500.00, 187500.00, -11367.58, -187500.02, -187500.02, 187500.00, -0.00, -0.00, -0.00
142, -12633.63, -18781.77, 187500.00, 187500.00, -9962.31, -187500.02, -187500.02, 187500.00, -0.00, -0.00, -0.00
143, -12912.71, -19139.40, 187500.00, 187500.00, -10195.95, -187500.02, -187500.02, 187500.00, -0.00, -0.00, -0.00
144, -14119.06, -20398.36, 187500.00, 187500.00, -11399.66, -187500.02, -187500.02, 187500.00, -0.00, -0.00, -0.00
145, -13917.07, -20119.01, 187500.00, 187500.00, -11237.07, -187500.02, -187500.02, 187500.00, -0.00, -0.00, -0.00
146, -12560.34, -18700.21, 187500.00, 187500.00, -9882.20, -187500.02, -187500.02, 187500.00, -0.00, -0.00, -0.00
147, -12418.20, -18613.46, 187500.00, 187500.00, -9693.55, -187500.02, -187500.02, 187500.00, -0.00, -0.00, -0.00
148, -13755.60, -20028.15, 187500.00, 187500.00, -11019.28, -187500.02, -187500.02, 187500.00, -0.00, -0.00, -0.00
149, -13871.98, -20083.60, 187500.00, 187500.00, -11179.69, -187500.02, -187500.02, 187500.00, -0.00, -0.00, -0.00
150, -12502.43, -18636.19, 187500.00, 187500.00, -9830.63, -187500.02, -187500.02, 187500.00, -0.00, -0.00, -0.00
151, -12056.11, -18233.79, 187500.00, 187500.00, -9346.23, -187500.02, -187500.02, 187500.00, -0.00, -0.00, -0.00
152, -13185.65, -19448.10, 187500.00, 187500.00, -10445.30, -187500.02, -187500.02, 187500.00, -0.00, -0.00, -0.00
153, -13640.33, -19869.05, 187500.00, 187500.00, -10930.34, -187500.02, -187500.02, 187500.00, -0.00, -0.00, -0.00
154, -12266.32, -18404.96, 187500.00, 187500.00, -9591.96, -187500.02, -187500.02, 187500.00, -0.00, -0.00, -0.00
155, -11512.49, -17679.47, 187500.00, 187500.00, -8814.95, -187500.02, -187500.02, 187500.00, -0.00, -0.00, -0.00
156, -12608.28, -18871.26, 187500.00, 187500.00, -9872.70, -187500.02, -187500.02, 187500.00, -0.00, -0.00, -0.00
157, -13433.60, -19682.23, 187500.00, 187500.00, -10722.51, -187500.02, -187500.02, 187500.00, -0.00, -0.00, -0.00
158, -12304.50, -18456.68, 187500.00, 187500.00, -9634.96, -187500.02, -187500.02, 187500.00, -0.00, -0.00, -0.00
159, -11223.35, -17376.94, 187500.00, 187500.00, -8535.48, -187500.02, -187500.02, 187500.00, -0.00, -0.00, -0.00
160, -11936.37, -18176.17, 187500.00, 187500.00, -9199.91, -187500.02, -187500.02, 187500.00, -0.00, -0.00, -0.00
161, -12960.41, -19217.43, 187500.00, 187500.00, -10235.20, -187500.02, -187500.02, 187500.00, -0.00, -0.00, -0.00
162, -12207.54, -18380.00, 187500.00, 187500.00, -9536.08, -187500.02, -187500.02, 187500.00, -0.00, -0.00, -0.00
163, -10924.46, -17067.46, 187500.00, 187500.00, -8241.92, -187500.02, -187500.02, 187500.00, -0.00, -0.00, -0.00
164, -11391.05, -17617.06, 187500.00, 187500.00, -8658.33, -187500.02, -187500.02, 187500.00, -0.00, -0.00, -0.00
165, -12498.29, -18761.81, 187500.00, 187500.00, -9768.81, -187500.02, -187500.02, 187500.00, -0.00, -0.00, -0.00
166, -12057.16, -18243.43, 187500.00, 187500.00, -9375.35, -187500.02, -187500.02, 187500.00, -0.00, -0.00, -0.00
167, -10629.42, -16762.96, 187500.00, 187500.00, -7950.47, -187500.02, -187500.02, 187500.00, -0.00, -0.00, -0.00
168, -10704.18, -16911.91, 187500.00, 187500.00, -7978.70, -187500.02, -187500.02, 187500.00, -0.00, -0.00, -0.00
169, -11975.64, -18250.82, 187500.00, 187500.00, -9242.71, -187500.02, -187500.02, 187500.00, -0.00, -0.00, -0.00
170, -11897.30, -18108.09, 187500.00, 187500.00, -9212.41, -187500.02, -187500.02, 187500.00, -0.00, -0.00, -0.00
171, -10411.78, -16547.26, 187500.00, 187500.00, -7740.50, -187500.02, -187500.02, 187500.00, -0.00, -0.00, -0.00
172, -10174.56, -16369.72, 187500.00, 187500.00, -7461.39, -187500.02, -187500.02, 187500.00, -0.00, -0.00, -0.00
173, -11427.44, -17696.41, 187500.00, 187500.00, -8682.56, -187500.02, -187500.02, 187500.00, -0.00, -0.00, -0.00
174, -11712.13, -17926.17, 187500.00, 187500.00, -8999.01, -187500.02, -187500.02, 187500.00, -0.00, -0.00, -0.00
175, -10339.34, -16466.69, 187500.00, 187500.00, -7650.98, -187500.02, -187500.02, 187500.00, -0.00, -0.00, -0.00
176, -9717.89, -15886.99, 187500.00, 187500.00, -6999.43, -187500.02, -187500.02, 187500.00, -0.00, -0.00, -0.00
177, -10884.81, -17145.71, 187500.00, 187500.00, -8132.06, -187500.02, -187500.02, 187500.00, -0.00, -0.00, -0.00
178, -11434.46, -17668.88, 187500.00, 187500.00, -8718.54, -187500.02, -187500.02, 187500.00, -0.00, -0.00, -0.00
179, -10242.44, -16392.72, 187500.00, 187500.00, -7568.10, -187500.02, -187500.02, 187500.00, -0.00, -0.00, -0.00
180, -9315.04, -15475.99, 187500.00, 187500.00, -6607.98, -187500.02, -187500.02, 187500.00, -0.00, -0.00, -0.00
181, -10285.58, -16532.31, 187500.00, 187500.00, -7526.97, -187500.02, -187500.02, 187500.00, -0.00, -0.00, -0.00
182, -11076.70, -17313.30, 187500.00, 187500.00, -8334.63, -187500.02, -187500.02, 187500.00, -0.00, -0.00, -0.00
183, -10067.72, -16216.95, 187500.00, 187500.00, -7372.77, -187500.02, -187500.02, 187500.00, -0.00, -0.00, -0.00
184, -8914.34, -15051.64, 187500.00, 187500.00, -6198.72, -187500.02, -187500.02, 187500.00, -0.00, -0.00, -0.00
185, -9585.92, -15815.89, 187500.00, 187500.00, -6824.32, -187500.02, -187500.02, 187500.00, -0.00, -0.00, -0.00
186, -10632.12, -16885.58, 187500.00, 187500.00, -7884.09, -187500.02, -187500.02, 187500.00, -0.00, -0.00, -0.00
187, -9948.40, -16118.56, 187500.00, 187500.00, -7253.34, -187500.02, -187500.02, 187500.00, -0.00, -0.00, -0.00
188, -8613.51, -14749.98, 187500.00, 187500.00, -5917.58, -187500.02, -187500.02, 187500.00, -0.00, -0.00, -0.00
189, -8894.63, -15116.69, 187500.00, 187500.00, -6151.67, -187500.02, -187500.02, 187500.00, -0.00, -0.00, -0.00
190, -10157.86, -16426.61, 187500.00, 187500.00, -7412.73, -187500.02, -187500.02, 187500.00, -0.00, -0.00, -0.00
191, -9784.19, -15974.61, 187500.00, 187500.00, -7086.64, -187500.02, -187500.02, 187500.00, -0.00, -0.00, -0.00
192, -8359.49, -14497.09, 187500.00, 187500.00, -5670.48, -187500.02, -187500.02, 187500.00, -0.00, -0.00, -0.00
193, -8294.78, -14498.24, 187500.00, 187500.00, -5558.74, -187500.02, -187500.02, 187500.00, -0.00, -0.00, -0.00
194, -9544.44, -15819.85, 187500.00, 187500.00, -6796.47, -187500.02, -187500.02, 187500.00, -0.00, -0.00, -0.00
195, -9674.04, -15891.17, 187500.00, 187500.00, -6966.79, -187500.02, -187500.02, 187500.00, -0.00, -0.00, -0.00
196, -8292.36, -14427.69, 187500.00, 187500.00, -5598.37, -187500.02, -187500.02, 187500.00, -0.00, -0.00, -0.00
197, -7874.59, -14062.69, 187500.00, 187500.00, -5139.65, -187500.02, -187500.02, 187500.00, -0.00, -0.00, -0.00
198, -9169.89, -15447.60, 187500.00, 187500.00, -6412.42, -187500.02, -187500.02, 187500.00, -0.00, -0.00, -0.00
199, -9542.38, -15774.34, 187500.00, 187500.00, -6822.29, -187500.02, -187500.02, 187500.00, -0.00, -0.00, -0.00
200, -8221.31, -14364.55, 187500.00, 187500.00, -5533.11, -187500.02, -187500.02, 187500.00, -0.00, -0.00, -0.00
201, -7429.14, -13599.27, 187500.00, 187500.00, -4712.40, -187500.02, -187500.02, 187500.00, -0.00, -0.00, -0.00
202, -8495.38, -14765.88, 187500.00, 187500.00, -5745.40, -187500.02, -187500.02, 187500.00, -0.00, -0.00, -0.00
203, -9232.90, -15488.22, 187500.00, 187500.00, -6510.06, -187500.02, -187500.02, 187500.00, -0.00, -0.00, -0.00
204, -8156.22, -14314.84, 187500.00, 187500.00, -5467.73, -187500.02, -187500.02, 187500.00, -0.00, -0.00, -0.00
205, -7092.90, -13249.47, 187500.00, 187500.00, -4382.31, -187500.02, -187500.02, 187500.00, -0.00, -0.00, -0.00
206, -7846.02, -14095.14, 187500.00, 187500.00, -5092.58, -187500.02, -187500.02, 187500.00, -0.00, -0.00, -0.00
207, -8817.14, -15077.75, 187500.00, 187500.00, -6079.61, -187500.02, -187500.02, 187500.00, -0.00, -0.00, -0.00
208, -7890.75, -14058.60, 187500.00, 187500.00, -5205.27, -187500.02, -187500.02, 187500.00, -0.00, -0.00, -0.00
209, -6610.33, -12759.98, 187500.00, 187500.00, -3918.17, -187500.02, -187500.02, 187500.00, -0.00, -0.00, -0.00
210, -7120.17, -13355.14, 187500.00, 187500.00, -4372.90, -187500.02, -187500.02, 187500.00, -0.00, -0.00, -0.00
211, -8342.65, -14612.14, 187500.00, 187500.00, -5594.22, -187500.02, -187500.02, 187500.00, -0.00, -0.00, -0.00
212, -7866.61, -14048.99, 187500.00, 187500.00, -5159.21, -187500.02, -187500.02, 187500.00, -0.00, -0.00, -0.00
213, -6518.75, -12654.46, 187500.00, 187500.00, -3812.54, -187500.02, -187500.02, 187500.00, -0.00, -0.00, -0.00
214, -6611.15, -12819.51, 187500.00, 187500.00, -3861.55, -187500.02, -187500.02, 187500.00, -0.00, -0.00, -0.00
215, -7842.38, -14117.27, 187500.00, 187500.00, -5091.79, -187500.02, -187500.02, 187500.00, -0.00, -0.00, -0.00
216, -7648.23, -13849.99, 187500.00, 187500.00, -4943.20, -187500.02, -187500.02, 187500.00, -0.00, -0.00, -0.00
217, -6196.15, -12334.81, 187500.00, 187500.00, -3503.95, -187500.02, -187500.02, 187500.00, -0.00, -0.00, -0.00
218, -6021.29, -12225.20, 187500.00, 187500.00, -3292.86, -187500.02, -187500.02, 187500.00, -0.00, -0.00, -0.00
219, -7285.77, -13565.45, 187500.00, 187500.00, -4535.73, -187500.02, -187500.02, 187500.00, -0.00, -0.00, -0.00
220, -7505.63, -13729.63, 187500.00, 187500.00, -4792.08, -187500.02, -187500.02, 187500.00, -0.00, -0.00, -0.00
221, -6069.77, -12206.76, 187500.00, 187500.00, -3376.81, -187500.02, -187500.02, 187500.00, -0.00, -0.00, -0.00
222, -5481.50, -11660.21, 187500.00, 187500.00, -2755.14, -187500.02, -187500.02, 187500.00, -0.00, -0.00, -0.00
223, -6683.89, -12951.85, 187500.00, 187500.00, -3921.68, -187500.02, -187500.02, 187500.00, -0.00, -0.00, -0.00
224, -7171.76, -13409.26, 187500.00, 187500.00, -4447.19, -187500.02, -187500.02, 187500.00, -0.00, -0.00, -0.00
225, -5885.26, -12028.28, 187500.00, 187500.00, -3197.42, -187500.02, -187500.02, 187500.00, -0.00, -0.00, -0.00
226, -5048.45, -11204.79, 187500.00, 187500.00, -2323.73, -187500.02, -187500.02, 187500.00, -0.00, -0.00, -0.00
227, -6003.54, -12250.57, 187500.00, 187500.00, -3238.97, -187500.02, -187500.02, 187500.00, -0.00, -0.00, -0.00
228, -6879.69, -13123.36, 187500.00, 187500.00, -4137.78, -187500.02, -187500.02, 187500.00, -0.00, -0.00, -0.00
229, -5825.49, -11974.46, 187500.00, 187500.00, -3123.01, -187500.02, -187500.02, 187500.00, -0.00, -0.00, -0.00
230, -4744.69, -10887.33, 187500.00, 187500.00, -2022.10, -187500.02, -187500.02, 187500.00, -0.00, -0.00, -0.00
231, -5395.02, -11626.55, 187500.00, 187500.00, -2625.64, -187500.02, -187500.02, 187500.00, -0.00, -0.00, -0.00
232, -6418.15, -12673.35, 187500.00, 187500.00, -3663.36, -187500.02, -187500.02, 187500.00, -0.00, -0.00, -0.00
233, -5759.02, -11934.07, 187500.00, 187500.00, -3054.81, -187500.02, -187500.02, 187500.00, -0.00, -0.00, -0.00
234, -4442.90, -10578.03, 187500.00, 187500.00, -1727.83, -187500.02, -187500.02, 187500.00, -0.00, -0.00, -0.00
235, -4759.94, -10978.08, 187500.00, 187500.00, -2000.64, -187500.02, -187500.02, 187500.00, -0.00, -0.00, -0.00
236, -5981.77, -12253.14, 187500.00, 187500.00, -3230.30, -187500.02, -187500.02, 187500.00, -0.00, -0.00, -0.00
237, -5685.86, -11878.54, 187500.00, 187500.00, -2973.61, -187500.02, -187500.02, 187500.00, -0.00, -0.00, -0.00
238, -4191.18, -10324.27, 187500.00, 187500.00, -1484.09, -187500.02, -187500.02, 187500.00, -0.00, -0.00, -0.00
239, -4219.94, -10431.98, 187500.00, 187500.00, -1475.24, -187500.02, -187500.02, 187500.00, -0.00, -0.00, -0.00
240, -5489.52, -11766.72, 187500.00, 187500.00, -2732.10, -187500.02, -187500.02, 187500.00, -0.00, -0.00, -0.00
241, -5477.94, -11690.48, 187500.00, 187500.00, -2756.80, -187500.02, -187500.02, 187500.00, -0.00, -0.00, -0.00
242, -4097.41, -10237.66, 187500.00, 187500.00, -1390.48, -187500.02, -187500.02, 187500.00, -0.00, -0.00, -0.00
243, -3741.28, -9934.03, 187500.00, 187500.00, -994.99, -187500.02, -187500.02, 187500.00, -0.00, -0.00, -0.00
244, -4960.88, -11236.20, 187500.00, 187500.00, -2190.09, -187500.02, -187500.02, 187500.00, -0.00, -0.00, -0.00
245, -5365.31, -11598.32, 187500.00, 187500.00, -2634.58, -187500.02, -187500.02, 187500.00, -0.00, -0.00, -0.00
246, -4024.86, -10166.29, 187500.00, 187500.00, -1318.57, -187500.02, -187500.02, 187500.00, -0.00, -0.00, -0.00
247, -3259.71, -9428.55, 187500.00, 187500.00, -518.78, -187500.02, -187500.02, 187500.00, -0.00, -0.00, -0.00
248, -4286.75, -10550.31, 187500.00, 187500.00, -1508.50, -187500.02, -187500.02, 187500.00, -0.00, -0.00, -0.00
249, -4968.48, -11210.76, 187500.00, 187500.00, -2213.40, -187500.02, -187500.02, 187500.00, -0.00, -0.00, -0.00
250, -3866.14, -10023.10, 187500.00, 187500.00, -1160.41, -187500.02, -187500.02, 187500.00, -0.00, -0.00, -0.00
251, -2842.34, -9002.52, 187500.00, 187500.00, -117.53, -187500.02, -187500.02, 187500.00, -0.00, -0.00, -0.00
252, -3696.93, -9951.35, 187500.00, 187500.00, -933.99, -187500.02, -187500.02, 187500.00, -0.00, -0.00, -0.00
253, -4693.82, -10958.48, 187500.00, 187500.00, -1950.99, -187500.02, -187500.02, 187500.00, -0.00, -0.00, -0.00
254, -3831.33, -10002.00, 187500.00, 187500.00, -1136.16, -187500.02, -187500.02, 187500.00, -0.00, -0.00, -0.00
255, -2566.29, -8713.67, 187500.00, 187500.00, 149.67, -187500.02, -187500.02, 187500.00, -0.00, -0.00, -0.00
0, -3149.83, -9395.96, 187500.00, 187500.00, -391.49, -187500.02, -187500.02, 187500.00, -0.00, -0.00, -0.00
1, -4396.61, -10677.74, 187500.00, 187500.00, -1645.80, -187500.02, -187500.02, 187500.00, -0.00, -0.00, -0.00
2, -3757.46, -9946.17, 187500.00, 187500.00, -1053.33, -187500.02, -187500.02, 187500.00, -0.00, -0.00, -0.00
3, -2343.85, -8496.59, 187500.00, 187500.00, 352.71, -187500.02, -187500.02, 187500.00, -0.00, -0.00, -0.00
4, -2595.60, -8831.62, 187500.00, 187500.00, 146.99, -187500.02, -187500.02, 187500.00, -0.00, -0.00, -0.00
5, -3926.17, -10228.43, 187500.00, 187500.00, -1186.94, -187500.02, -187500.02, 187500.00, -0.00, -0.00, -0.00
6, -3738.46, -9968.52, 187500.00, 187500.00, -1045.21, -187500.02, -187500.02, 187500.00, -0.00, -0.00, -0.00
7, -2290.32, -8450.77, 187500.00, 187500.00, 393.12, -187500.02, -187500.02, 187500.00, -0.00, -0.00, -0.00
8, -2096.19, -8316.06, 187500.00, 187500.00, 636.58, -187500.02, -187500.02, 187500.00, -0.00, -0.00, -0.00
9, -3330.39, -9624.21, 187500.00, 187500.00, -571.04, -187500.02, -187500.02, 187500.00, -0.00, -0.00, -0.00
10, -3482.89, -9725.71, 187500.00, 187500.00, -770.69, -187500.02, -187500.02, 187500.00, -0.00, -0.00, -0.00
11, -2126.03, -8291.80, 187500.00, 187500.00, 554.52, -187500.02, -187500.02, 187500.00, -0.00, -0.00, -0.00
12, -1735.48, -7940.23, 187500.00, 187500.00, 985.56, -187500.02, -187500.02, 187500.00, -0.00, -0.00, -0.00
13, -2836.70, -9117.81, 187500.00, 187500.00, -79.01, -187500.02, -187500.02, 187500.00, -0.00, -0.00, -0.00
14, -3247.46, -9490.24, 187500.00, 187500.00, -518.05, -187500.02, -187500.02, 187500.00, -0.00, -0.00, -0.00
15, -1923.41, -8071.84, 187500.00, 187500.00, 774.40, -187500.02, -187500.02, 187500.00, -0.00, -0.00, -0.00
16, -1052.48, -7226.90, 187500.00, 187500.00, 1671.15, -187500.02, -187500.02, 187500.00, -0.00, -0.00, -0.00
17, -2020.98, -8295.20, 187500.00, 187500.00, 741.85, -187500.02, -187500.02, 187500.00, -0.00, -0.00, -0.00
18, -2882.79, -9155.36, 187500.00, 187500.00, -145.09, -187500.02, -187500.02, 187500.00, -0.00, -0.00, -0.00
19, -1874.53, -8049.62, 187500.00, 187500.00, 822.72, -187500.02, -187500.02, 187500.00, -0.00, -0.00, -0.00
20, -750.64, -6915.54, 187500.00, 187500.00, 1969.59, -187500.02, -187500.02, 187500.00, -0.00, -0.00, -0.00
21, -1468.84, -7729.70, 187500.00, 187500.00, 1295.31, -187500.02, -187500.02, 187500.00, -0.00, -0.00, -0.00
22, -2527.40, -8803.73, 187500.00, 187500.00, 227.09, -187500.02, -187500.02, 187500.00, -0.00, -0.00, -0.00
23, -1784.21, -7969.42, 187500.00, 187500.00, 924.60, -187500.02, -187500.02, 187500.00, -0.00, -0.00, -0.00
24, -478.84, -6634.78, 187500.00, 187500.00, 2235.49, -187500.02, -187500.02, 187500.00, -0.00, -0.00, -0.00
25, -895.12, -7141.58, 187500.00, 187500.00, 1862.37, -187500.02, -187500.02, 187500.00, -0.00, -0.00, -0.00
26, -2049.57, -8337.74, 187500.00, 187500.00, 710.11, -187500.02, -187500.02, 187500.00, -0.00, -0.00, -0.00
27, -1588.78, -7794.81, 187500.00, 187500.00, 1129.01, -187500.02, -187500.02, 187500.00, -0.00, -0.00, -0.00
28, -199.18, -6350.11, 187500.00, 187500.00, 2519.76, -187500.02, -187500.02, 187500.00, -0.00, -0.00, -0.00
29, -212.88, -6432.92, 187500.00, 187500.00, 2551.94, -187500.02, -187500.02, 187500.00, -0.00, -0.00, -0.00
30, -1461.74, -7751.61, 187500.00, 187500.00, 1305.79, -187500.02, -187500.02, 187500.00, -0.00, -0.00, -0.00
31, -1352.03, -7575.18, 187500.00, 187500.00, 1369.36, -187500.02, -187500.02, 187500.00, -0.00, -0.00, -0.00
32, 131.88, -6019.64, 187500.00, 187500.00, 2838.29, -187500.02, -187500.02, 187500.00, -0.00, -0.00, -0.00
33, 470.48, -5737.63, 187500.00, 187500.00, 3217.18, -187500.02, -187500.02, 187500.00, -0.00, -0.00, -0.00
34, -745.25, -7032.80, 187500.00, 187500.00, 2028.40, -187500.02, -187500.02, 187500.00, -0.00, -0.00, -0.00
35, -1144.16, -7383.72, 187500.00, 187500.00, 1602.49, -187500.02, -187500.02, 187500.00, -0.00, -0.00, -0.00
36, 142.05, -6013.07, 187500.00, 187500.00, 2860.06, -187500.02, -187500.02, 187500.00, -0.00, -0.00, -0.00
37, 821.56, -5364.78, 187500.00, 187500.00, 3571.90, -187500.02, -187500.02, 187500.00, -0.00, -0.00, -0.00
38, -286.24, -6563.39, 187500.00, 187500.00, 2495.01, -187500.02, -187500.02, 187500.00, -0.00, -0.00, -0.00
39, -949.23, -7206.29, 187500.00, 187500.00, 1799.49, -187500.02, -187500.02, 187500.00, -0.00, -0.00, -0.00
40, 167.77, -5998.11, 187500.00, 187500.00, 2879.89, -187500.02, -187500.02, 187500.00, -0.00, -0.00, -0.00
41, 1157.69, -5012.09, 187500.00, 187500.00, 3895.15, -187500.02, -187500.02, 187500.00, -0.00, -0.00, -0.00
42, 329.87, -5939.86, 187500.00, 187500.00, 3103.83, -187500.02, -187500.02, 187500.00, -0.00, -0.00, -0.00
43, -531.39, -6802.02, 187500.00, 187500.00, 2223.48, -187500.02, -187500.02, 187500.00, -0.00, -0.00, -0.00
44, 391.89, -5780.70, 187500.00, 187500.00, 3112.28, -187500.02, -187500.02, 187500.00, -0.00, -0.00, -0.00
45, 1597.50, -4564.61, 187500.00, 187500.00, 4325.64, -187500.02, -187500.02, 187500.00, -0.00, -0.00, -0.00
46, 958.80, -5295.87, 187500.00, 187500.00, 3729.03, -187500.02, -187500.02, 187500.00, -0.00, -0.00, -0.00
47, -138.07, -6416.38, 187500.00, 187500.00, 2631.20, -187500.02, -187500.02, 187500.00, -0.00, -0.00, -0.00
48, 500.12, -5692.59, 187500.00, 187500.00, 3220.15, -187500.02, -187500.02, 187500.00, -0.00, -0.00, -0.00
49, 1862.41, -4294.73, 187500.00, 187500.00, 4576.97, -187500.02, -187500.02, 187500.00, -0.00, -0.00, -0.00
50, 1628.01, -4605.60, 187500.00, 187500.00, 4390.80, -187500.02, -187500.02, 187500.00, -0.00, -0.00, -0.00
51, 358.59, -5929.60, 187500.00, 187500.00, 3129.38, -187500.02, -187500.02, 187500.00, -0.00, -0.00, -0.00
52, 613.56, -5596.63, 187500.00, 187500.00, 3343.40, -187500.02, -187500.02, 187500.00, -0.00, -0.00, -0.00
53, 2137.03, -4007.78, 187500.00, 187500.00, 4853.39, -187500.02, -187500.02, 187500.00, -0.00, -0.00, -0.00
54, 2211.46, -4002.10, 187500.00, 187500.00, 4965.91, -187500.02, -187500.02, 187500.00, -0.00, -0.00, -0.00
55, 879.79, -5409.37, 187500.00, 187500.00, 3648.88, -187500.02, -187500.02, 187500.00, -0.00, -0.00, -0.00
56, 806.38, -5420.10, 187500.00, 187500.00, 3537.30, -187500.02, -187500.02, 187500.00, -0.00, -0.00, -0.00
57, 2331.82, -3814.82, 187500.00, 187500.00, 5041.50, -187500.02, -187500.02, 187500.00, -0.00, -0.00, -0.00
58, 2774.66, -3421.18, 187500.00, 187500.00, 5520.97, -187500.02, -187500.02, 187500.00, -0.00, -0.00, -0.00
59, 1493.34, -4788.35, 187500.00, 187500.00, 4270.48, -187500.02, -187500.02, 187500.00, -0.00, -0.00, -0.00
60, 1039.49, -5200.13, 187500.00, 187500.00, 3787.46, -187500.02, -187500.02, 187500.00, -0.00, -0.00, -0.00
61, 2431.89, -3712.83, 187500.00, 187500.00, 5151.88, -187500.02, -187500.02, 187500.00, -0.00, -0.00, -0.00
62, 3249.59, -2923.32, 187500.00, 187500.00, 5997.17, -187500.02, -187500.02, 187500.00, -0.00, -0.00, -0.00
63, 2226.10, -4043.23, 187500.00, 187500.00, 5005.14, -187500.02, -187500.02, 187500.00, -0.00, -0.00, -0.00
64, 1431.32, -4830.08, 187500.00, 187500.00, 4184.87, -187500.02, -187500.02, 187500.00, -0.00, -0.00, -0.00
65, 2532.30, -3634.84, 187500.00, 187500.00, 5242.11, -187500.02, -187500.02, 187500.00, -0.00, -0.00, -0.00
66, 3678.96, -2480.98, 187500.00, 187500.00, 6411.40, -187500.02, -187500.02, 187500.00, -0.00, -0.00, -0.00
67, 2923.47, -3329.27, 187500.00, 187500.00, 5704.30, -187500.02, -187500.02, 187500.00, -0.00, -0.00, -0.00
68, 1870.10, -4399.14, 187500.00, 187500.00, 4637.94, -187500.02, -187500.02, 187500.00, -0.00, -0.00, -0.00
69, 2635.56, -3543.09, 187500.00, 187500.00, 5357.94, -187500.02, -187500.02, 187500.00, -0.00, -0.00, -0.00
70, 3907.98, -2246.69, 187500.00, 187500.00, 6631.85, -187500.02, -187500.02, 187500.00, -0.00, -0.00, -0.00
71, 3445.70, -2795.35, 187500.00, 187500.00, 6220.13, -187500.02, -187500.02, 187500.00, -0.00, -0.00, -0.00
72, 2189.96, -4095.82, 187500.00, 187500.00, 4964.72, -187500.02, -187500.02, 187500.00, -0.00, -0.00, -0.00
73, 2668.42, -3526.30, 187500.00, 187500.00, 5401.43, -187500.02, -187500.02, 187500.00, -0.00, -0.00, -0.00
74, 4197.01, -1935.71, 187500.00, 187500.00, 6930.56, -187500.02, -187500.02, 187500.00, -0.00, -0.00, -0.00
75, 4098.04, -2116.91, 187500.00, 187500.00, 6874.90, -187500.02, -187500.02, 187500.00, -0.00, -0.00, -0.00
76, 2776.42, -3504.84, 187500.00, 187500.00, 5561.40, -187500.02, -187500.02, 187500.00, -0.00, -0.00, -0.00
77, 2863.77, -3351.78, 187500.00, 187500.00, 5600.07, -187500.02, -187500.02, 187500.00, -0.00, -0.00, -0.00
78, 4302.80, -1842.25, 187500.00, 187500.00, 7019.90, -187500.02, -187500.02, 187500.00, -0.00, -0.00, -0.00
79, 4694.96, -1506.78, 187500.00, 187500.00, 7448.79, -187500.02, -187500.02, 187500.00, -0.00, -0.00, -0.00
80, 3464.56, -2822.04, 187500.00, 187500.00, 6243.83, -187500.02, -187500.02, 187500.00, -0.00, -0.00, -0.00
81, 3194.67, -3048.46, 187500.00, 187500.00, 5928.24, -187500.02, -187500.02, 187500.00, -0.00, -0.00, -0.00
82, 4496.34, -1658.68, 187500.00, 187500.00, 7204.03, -187500.02, -187500.02, 187500.00, -0.00, -0.00, -0.00
83, 5165.40, -1025.32, 187500.00, 187500.00, 7901.99, -187500.02, -187500.02, 187500.00, -0.00, -0.00, -0.00
84, 4008.61, -2279.10, 187500.00, 187500.00, 6772.35, -187500.02, -187500.02, 187500.00, -0.00, -0.00, -0.00
85, 3333.85, -2926.80, 187500.00, 187500.00, 6071.38, -187500.02, -187500.02, 187500.00, -0.00, -0.00, -0.00
86, 4510.78, -1650.52, 187500.00, 187500.00, 7220.13, -187500.02, -187500.02, 187500.00, -0.00, -0.00, -0.00
87, 5551.23, -622.21, 187500.00, 187500.00, 8276.58, -187500.02, -187500.02, 187500.00, -0.00, -0.00, -0.00
88, 4717.42, -1556.35, 187500.00, 187500.00, 7470.24, -187500.02, -187500.02, 187500.00, -0.00, -0.00, -0.00
89, 3801.88, -2520.85, 187500.00, 187500.00, 6492.24, -187500.02, -187500.02, 187500.00, -0.00, -0.00, -0.00
90, 4809.60, -1552.42, 187500.00, 187500.00, 7335.71, -187500.02, -187500.02, 187500.00, -0.00, -0.00, -0.00
91, 6032.58, -409.82, 187500.00, 187500.00, 8475.69, -187500.02, -187500.02, 187500.00, -0.00, -0.00, -0.00
92, 5487.89, -1080.46, 187500.00, 187500.00, 7938.49, -187500.02, -187500.02, 187500.00, -0.00, -0.00, -0.00
93, 4392.10, -2230.12, 187500.00, 187500.00, 6809.77, -187500.02, -187500.02, 187500.00, -0.00, -0.00, -0.00
94, 4973.69, -1577.79, 187500.00, 187500.00, 7333.79, -187500.02, -187500.02, 187500.00, -0.00, -0.00, -0.00
95, 6373.51, -142.89, 187500.00, 187500.00, 8732.78, -187500.02, -187500.02, 187500.00, -0.00, -0.00, -0.00
96, 6082.60, -518.45, 187500.00, 187500.00, 8486.67, -187500.02, -187500.02, 187500.00, -0.00, -0.00, -0.00
97, 4800.17, -1850.52, 187500.00, 187500.00, 7209.51, -187500.02, -187500.02, 187500.00, -0.00, -0.00, -0.00
98, 5176.93, -1396.83, 187500.00, 187500.00, 7540.25, -187500.02, -187500.02, 187500.00, -0.00, -0.00, -0.00
99, 6575.95, 60.04, 187500.00, 187500.00, 8941.17, -187500.02, -187500.02, 187500.00, -0.00, -0.00, -0.00
100, 6616.00, 35.67, 187500.00, 187500.00, 9023.13, -187500.02, -187500.02, 187500.00, -0.00, -0.00, -0.00
101, 5373.94, -1269.27, 187500.00, 187500.00, 7792.85, -187500.02, -187500.02, 187500.00, -0.00, -0.00, -0.00
102, 5310.46, -1269.33, 187500.00, 187500.00, 7689.27, -187500.02, -187500.02, 187500.00, -0.00, -0.00, -0.00
103, 6704.50, 205.17, 187500.00, 187500.00, 9070.02, -187500.02, -187500.02, 187500.00, -0.00, -0.00, -0.00
104, 7083.18, 543.51, 187500.00, 187500.00, 9500.03, -187500.02, -187500.02, 187500.00, -0.00, -0.00, -0.00
105, 5887.34, -730.37, 187500.00, 187500.00, 8337.63, -187500.02, -187500.02, 187500.00, -0.00, -0.00, -0.00
106, 5506.15, -1070.34, 187500.00, 187500.00, 7921.82, -187500.02, -187500.02, 187500.00, -0.00, -0.00, -0.00
107, 6769.85, 283.84, 187500.00, 187500.00, 9161.02, -187500.02, -187500.02, 187500.00, -0.00, -0.00, -0.00
108, 7443.38, 934.06, 187500.00, 187500.00, 9873.46, -187500.02, -187500.02, 187500.00, -0.00, -0.00, -0.00
109, 6386.43, -204.00, 187500.00, 187500.00, 8858.58, -187500.02, -187500.02, 187500.00, -0.00, -0.00, -0.00
110, 5798.58, -769.95, 187500.00, 187500.00, 8246.63, -187500.02, -187500.02, 187500.00, -0.00, -0.00, -0.00
111, 6887.44, 412.88, 187500.00, 187500.00, 9301.52, -187500.02, -187500.02, 187500.00, -0.00, -0.00, -0.00
112, 7998.30, 1528.26, 187500.00, 187500.00, 10438.98, -187500.02, -187500.02, 187500.00, -0.00, -0.00, -0.00
113, 7232.49, 671.00, 187500.00, 187500.00, 9720.04, -187500.02, -187500.02, 187500.00, -0.00, -0.00, -0.00
114, 6209.96, -363.19, 187500.00, 187500.00, 8682.94, -187500.02, -187500.02, 187500.00, -0.00, -0.00, -0.00
115, 7118.99, 641.67, 187500.00, 187500.00, 9546.09, -187500.02, -187500.02, 187500.00, -0.00, -0.00, -0.00
116, 8356.89, 1900.46, 187500.00, 187500.00, 10796.14, -187500.02, -187500.02, 187500.00, -0.00, -0.00, -0.00
117, 7750.76, 1209.03, 187500.00, 187500.00, 10238.91, -187500.02, -187500.02, 187500.00, -0.00, -0.00, -0.00
118, 6599.26, 27.65, 187500.00, 187500.00, 9085.47, -187500.02, -187500.02, 187500.00, -0.00, -0.00, -0.00
119, 7057.94, 575.02, 187500.00, 187500.00, 9509.66, -187500.02, -187500.02, 187500.00, -0.00, -0.00, -0.00
120, 8506.94, 2076.99, 187500.00, 187500.00, 10958.68, -187500.02, -187500.02, 187500.00, -0.00, -0.00, -0.00
121, 8338.38, 1831.01, 187500.00, 187500.00, 10839.25, -187500.02, -187500.02, 187500.00, -0.00, -0.00, -0.00
122, 7034.00, 469.90, 187500.00, 187500.00, 9547.79, -187500.02, -187500.02, 187500.00, -0.00, -0.00, -0.00
123, 7205.55, 718.63, 187500.00, 187500.00, 9676.92, -187500.02, -187500.02, 187500.00, -0.00, -0.00, -0.00
124, 8745.10, 2331.22, 187500.00, 187500.00, 11204.75, -187500.02, -187500.02, 187500.00, -0.00, -0.00, -0.00
125, 8960.30, 2481.98, 187500.00, 187500.00, 11464.14, -187500.02, -187500.02, 187500.00, -0.00, -0.00, -0.00
126, 7581.06, 1021.12, 187500.00, 187500.00, 10105.80, -187500.02, -187500.02, 187500.00, -0.00, -0.00, -0.00
127, 7265.61, 760.34, 187500.00, 187500.00, 9759.20, -187500.02, -187500.02, 187500.00, -0.00, -0.00, -0.00
128, 8749.12, 2331.35, 187500.00, 187500.00, 11221.04, -187500.02, -187500.02, 187500.00, -0.00, -0.00, -0.00
129, 9318.33, 2863.73, 187500.00, 187500.00, 11825.88, -187500.02, -187500.02, 187500.00, -0.00, -0.00, -0.00
130, 8213.80, 1669.85, 187500.00, 187500.00, 10749.54, -187500.02, -187500.02, 187500.00, -0.00, -0.00, -0.00
131, 7640.27, 1122.62, 187500.00, 187500.00, 10142.51, -187500.02, -187500.02, 187500.00, -0.00, -0.00, -0.00
132, 8786.49, 2357.19, 187500.00, 187500.00, 11251.64, -187500.02, -187500.02, 187500.00, -0.00, -0.00, -0.00
133, 9639.61, 3200.19, 187500.00, 187500.00, 12138.29, -187500.02, -187500.02, 187500.00, -0.00, -0.00, -0.00
134, 8729.76, 2202.85, 187500.00, 187500.00, 11271.07, -187500.02, -187500.02, 187500.00, -0.00, -0.00, -0.00
135, 7949.08, 1429.53, 187500.00, 187500.00, 10471.61, -187500.02, -187500.02, 187500.00, -0.00, -0.00, -0.00
136, 8958.56, 2537.01, 187500.00, 187500.00, 11447.83, -187500.02, -187500.02, 187500.00, -0.00, -0.00, -0.00
137, 10137.43, 3724.61, 187500.00, 187500.00, 12636.76, -187500.02, -187500.02, 187500.00, -0.00, -0.00, -0.00
138, 9486.68, 2976.92, 187500.00, 187500.00, 12024.37, -187500.02, -187500.02, 187500.00, -0.00, -0.00, -0.00
139, 8377.12, 1846.79, 187500.00, 187500.00, 10909.42, -187500.02, -187500.02, 187500.00, -0.00, -0.00, -0.00
140, 9065.26, 2628.48, 187500.00, 187500.00, 11555.16, -187500.02, -187500.02, 187500.00, -0.00, -0.00, -0.00
141, 10401.25, 4001.10, 187500.00, 187500.00, 12897.40, -187500.02, -187500.02, 187500.00, -0.00, -0.00, -0.00
142, 10120.74, 3642.84, 187500.00, 187500.00, 12666.60, -187500.02, -187500.02, 187500.00, -0.00, -0.00, -0.00
143, 8878.76, 2352.81, 187500.00, 187500.00, 11430.68, -187500.02, -187500.02, 187500.00, -0.00, -0.00, -0.00
144, 9144.30, 2700.52, 187500.00, 187500.00, 11654.51, -187500.02, -187500.02, 187500.00, -0.00, -0.00, -0.00
145, 10465.65, 4078.03, 187500.00, 187500.00, 12968.33, -187500.02, -187500.02, 187500.00, -0.00, -0.00, -0.00
146, 10535.56, 4081.70, 187500.00, 187500.00, 13087.17, -187500.02, -187500.02, 187500.00, -0.00, -0.00, -0.00
147, 9227.09, 2703.02, 187500.00, 187500.00, 11796.54, -187500.02, -187500.02, 187500.00, -0.00, -0.00, -0.00
148, 9152.48, 2689.54, 187500.00, 187500.00, 11675.17, -187500.02, -187500.02, 187500.00, -0.00, -0.00, -0.00
149, 10539.92, 4151.95, 187500.00, 187500.00, 13035.67, -187500.02, -187500.02, 187500.00, -0.00, -0.00, -0.00
150, 10975.44, 4543.62, 187500.00, 187500.00, 13510.80, -187500.02, -187500.02, 187500.00, -0.00, -0.00, -0.00
151, 9783.00, 3264.05, 187500.00, 187500.00, 12339.55, -187500.02, -187500.02, 187500.00, -0.00, -0.00, -0.00
152, 9373.76, 2893.52, 187500.00, 187500.00, 11891.37, -187500.02, -187500.02, 187500.00, -0.00, -0.00, -0.00
153, 10719.76, 4331.92, 187500.00, 187500.00, 13212.76, -187500.02, -187500.02, 187500.00, -0.00, -0.00, -0.00
154, 11363.09, 4947.18, 187500.00, 187500.00, 13890.96, -187500.02, -187500.02, 187500.00, -0.00, -0.00, -0.00
155, 10260.66, 3755.34, 187500.00, 187500.00, 12830.55, -187500.02, -187500.02, 187500.00, -0.00, -0.00, -0.00
156, 9573.27, 3088.97, 187500.00, 187500.00, 12120.08, -187500.02, -187500.02, 187500.00, -0.00, -0.00, -0.00
157, 10791.94, 4405.04, 187500.00, 187500.00, 13301.48, -187500.02, -187500.02, 187500.00, -0.00, -0.00, -0.00
158, 11734.20, 5335.65, 187500.00, 187500.00, 14265.29, -187500.02, -187500.02, 187500.00, -0.00, -0.00, -0.00
159, 10903.23, 4418.05, 187500.00, 187500.00, 13485.81, -187500.02, -187500.02, 187500.00, -0.00, -0.00, -0.00
160, 9907.66, 3415.30, 187500.00, 187500.00, 12474.96, -187500.02, -187500.02, 187500.00, -0.00, -0.00, -0.00
161, 10822.11, 4427.84, 187500.00, 187500.00, 13346.83, -187500.02, -187500.02, 187500.00, -0.00, -0.00, -0.00
162, 12115.23, 5745.69, 187500.00, 187500.00, 14650.92, -187500.02, -187500.02, 187500.00, -0.00, -0.00, -0.00
163, 11557.44, 5093.76, 187500.00, 187500.00, 14132.20, -187500.02, -187500.02, 187500.00, -0.00, -0.00, -0.00
164, 10307.53, 3807.22, 187500.00, 187500.00, 12876.53, -187500.02, -187500.02, 187500.00, -0.00, -0.00, -0.00
165, 10776.00, 4361.58, 187500.00, 187500.00, 13302.35, -187500.02, -187500.02, 187500.00, -0.00, -0.00, -0.00
166, 12144.22, 5772.07, 187500.00, 187500.00, 14662.12, -187500.02, -187500.02, 187500.00, -0.00, -0.00, -0.00
167, 11927.40, 5481.59, 187500.00, 187500.00, 14497.70, -187500.02, -187500.02, 187500.00, -0.00, -0.00, -0.00
168, 10618.84, 4123.27, 187500.00, 187500.00, 13201.97, -187500.02, -187500.02, 187500.00, -0.00, -0.00, -0.00
169, 10817.55, 4390.62, 187500.00, 187500.00, 13351.55, -187500.02, -187500.02, 187500.00, -0.00, -0.00, -0.00
170, 12275.56, 5910.23, 187500.00, 187500.00, 14792.90, -187500.02, -187500.02, 187500.00, -0.00, -0.00, -0.00
171, 12541.07, 6114.39, 187500.00, 187500.00, 15097.66, -187500.02, -187500.02, 187500.00, -0.00, -0.00, -0.00
172, 11313.63, 4815.15, 187500.00, 187500.00, 13895.48, -187500.02, -187500.02, 187500.00, -0.00, -0.00, -0.00
173, 11111.07, 4666.19, 187500.00, 187500.00, 13656.38, -187500.02, -187500.02, 187500.00, -0.00, -0.00, -0.00
174, 12436.53, 6072.66, 187500.00, 187500.00, 14958.41, -187500.02, -187500.02, 187500.00, -0.00, -0.00, -0.00
175, 12911.80, 6505.23, 187500.00, 187500.00, 15470.98, -187500.02, -187500.02, 187500.00, -0.00, -0.00, -0.00
176, 11759.27, 5267.88, 187500.00, 187500.00, 14356.37, -187500.02, -187500.02, 187500.00, -0.00, -0.00, -0.00
177, 11301.89, 4845.37, 187500.00, 187500.00, 13870.33, -187500.02, -187500.02, 187500.00, -0.00, -0.00, -0.00
178, 12529.47, 6161.62, 187500.00, 187500.00, 15064.81, -187500.02, -187500.02, 187500.00, -0.00, -0.00, -0.00
179, 13395.15, 7010.78, 187500.00, 187500.00, 15957.11, -187500.02, -187500.02, 187500.00, -0.00, -0.00, -0.00
180, 12439.10, 5956.36, 187500.00, 187500.00, 15035.79, -187500.02, -187500.02, 187500.00, -0.00, -0.00, -0.00
181, 11573.00, 5095.10, 187500.00, 187500.00, 14145.82, -187500.02, -187500.02, 187500.00, -0.00, -0.00, -0.00
182, 12584.32, 6195.99, 187500.00, 187500.00, 15112.71, -187500.02, -187500.02, 187500.00, -0.00, -0.00, -0.00
183, 13700.52, 7318.74, 187500.00, 187500.00, 16247.46, -187500.02, -187500.02, 187500.00, -0.00, -0.00, -0.00
184, 12986.23, 6518.42, 187500.00, 187500.00, 15583.55, -187500.02, -187500.02, 187500.00, -0.00, -0.00, -0.00
185, 11921.73, 5438.27, 187500.00, 187500.00, 14507.65, -187500.02, -187500.02, 187500.00, -0.00, -0.00, -0.00
186, 12630.30, 6236.02, 187500.00, 187500.00, 15174.55, -187500.02, -187500.02, 187500.00, -0.00, -0.00, -0.00
187, 13924.98, 7563.07, 187500.00, 187500.00, 16474.04, -187500.02, -187500.02, 187500.00, -0.00, -0.00, -0.00
188, 13515.05, 7066.57, 187500.00, 187500.00, 16108.48, -187500.02, -187500.02, 187500.00, -0.00, -0.00, -0.00
189, 12263.89, 5772.90, 187500.00, 187500.00, 14858.88, -187500.02, -187500.02, 187500.00, -0.00, -0.00, -0.00
190, 12730.64, 6324.63, 187500.00, 187500.00, 15282.18, -187500.02, -187500.02, 187500.00, -0.00, -0.00, -0.00
191, 14166.04, 7809.61, 187500.00, 187500.00, 16704.20, -187500.02, -187500.02, 187500.00, -0.00, -0.00, -0.00
192, 14124.60, 7690.41, 187500.00, 187500.00, 16702.90, -187500.02, -187500.02, 187500.00, -0.00, -0.00, -0.00
193, 12791.43, 6289.76, 187500.00, 187500.00, 15386.11, -187500.02, -187500.02, 187500.00, -0.00, -0.00, -0.00
194, 12760.36, 6325.19, 187500.00, 187500.00, 15310.25, -187500.02, -187500.02, 187500.00, -0.00, -0.00, -0.00
195, 14225.90, 7867.14, 187500.00, 187500.00, 16759.03, -187500.02, -187500.02, 187500.00, -0.00, -0.00, -0.00
196, 14567.93, 8153.65, 187500.00, 187500.00, 17133.04, -187500.02, -187500.02, 187500.00, -0.00, -0.00, -0.00
197, 13321.66, 6824.55, 187500.00, 187500.00, 15910.64, -187500.02, -187500.02, 187500.00, -0.00, -0.00, -0.00
198, 12944.14, 6492.78, 187500.00, 187500.00, 15496.93, -187500.02, -187500.02, 187500.00, -0.00, -0.00, -0.00
199, 14330.80, 7970.14, 187500.00, 187500.00, 16857.78, -187500.02, -187500.02, 187500.00, -0.00, -0.00, -0.00
200, 15017.89, 8628.29, 187500.00, 187500.00, 17581.84, -187500.02, -187500.02, 187500.00, -0.00, -0.00, -0.00
201, 13861.17, 7376.10, 187500.00, 187500.00, 16457.77, -187500.02, -187500.02, 187500.00, -0.00, -0.00, -0.00
202, 13172.64, 6708.83, 187500.00, 187500.00, 15744.43, -187500.02, -187500.02, 187500.00, -0.00, -0.00, -0.00
203, 14378.41, 8007.20, 187500.00, 187500.00, 16913.50, -187500.02, -187500.02, 187500.00, -0.00, -0.00, -0.00
204, 15333.94, 8956.17, 187500.00, 187500.00, 17896.24, -187500.02, -187500.02, 187500.00, -0.00, -0.00, -0.00
205, 14452.50, 7981.27, 187500.00, 187500.00, 17055.21, -187500.02, -187500.02, 187500.00, -0.00, -0.00, -0.00
206, 13510.02, 7033.36, 187500.00, 187500.00, 16096.03, -187500.02, -187500.02, 187500.00, -0.00, -0.00, -0.00
207, 14382.83, 8000.85, 187500.00, 187500.00, 16925.54, -187500.02, -187500.02, 187500.00, -0.00, -0.00, -0.00
208, 15621.59, 9260.71, 187500.00, 187500.00, 18178.74, -187500.02, -187500.02, 187500.00, -0.00, -0.00, -0.00
209, 15055.82, 8600.21, 187500.00, 187500.00, 17654.93, -187500.02, -187500.02, 187500.00, -0.00, -0.00, -0.00
210, 13855.67, 7360.45, 187500.00, 187500.00, 16441.09, -187500.02, -187500.02, 187500.00, -0.00, -0.00, -0.00
211, 14387.84, 7982.05, 187500.00, 187500.00, 16933.95, -187500.02, -187500.02, 187500.00, -0.00, -0.00, -0.00
212, 15744.12, 9381.85, 187500.00, 187500.00, 18286.36, -187500.02, -187500.02, 187500.00, -0.00, -0.00, -0.00
213, 15559.76, 9118.30, 187500.00, 187500.00, 18143.34, -187500.02, -187500.02, 187500.00, -0.00, -0.00, -0.00
214, 14302.97, 7807.67, 187500.00, 187500.00, 16888.44, -187500.02, -187500.02, 187500.00, -0.00, -0.00, -0.00
215, 14555.30, 8134.56, 187500.00, 187500.00, 17100.20, -187500.02, -187500.02, 187500.00, -0.00, -0.00, -0.00
216, 15966.28, 9604.66, 187500.00, 187500.00, 18499.20, -187500.02, -187500.02, 187500.00, -0.00, -0.00, -0.00
217, 16085.86, 9662.61, 187500.00, 187500.00, 18665.92, -187500.02, -187500.02, 187500.00, -0.00, -0.00, -0.00
218, 14826.25, 8329.60, 187500.00, 187500.00, 17424.99, -187500.02, -187500.02, 187500.00, -0.00, -0.00, -0.00
219, 14693.48, 8252.69, 187500.00, 187500.00, 17249.47, -187500.02, -187500.02, 187500.00, -0.00, -0.00, -0.00
220, 16096.25, 9740.20, 187500.00, 187500.00, 18633.55, -187500.02, -187500.02, 187500.00, -0.00, -0.00, -0.00
221, 16557.46, 10151.63, 187500.00, 187500.00, 19126.45, -187500.02, -187500.02, 187500.00, -0.00, -0.00, -0.00
222, 15294.61, 8796.31, 187500.00, 187500.00, 17887.54, -187500.02, -187500.02, 187500.00, -0.00, -0.00, -0.00
223, 14814.11, 8353.16, 187500.00, 187500.00, 17376.02, -187500.02, -187500.02, 187500.00, -0.00, -0.00, -0.00
224, 16125.00, 9762.21, 187500.00, 187500.00, 18655.23, -187500.02, -187500.02, 187500.00, -0.00, -0.00, -0.00
225, 16987.53, 10602.48, 187500.00, 187500.00, 19547.40, -187500.02, -187500.02, 187500.00, -0.00, -0.00, -0.00
226, 16013.46, 9538.58, 187500.00, 187500.00, 18617.51, -187500.02, -187500.02, 187500.00, -0.00, -0.00, -0.00
227, 15226.16, 8758.87, 187500.00, 187500.00, 17805.69, -187500.02, -187500.02, 187500.00, -0.00, -0.00, -0.00
228, 16273.83, 9897.40, 187500.00, 187500.00, 18809.44, -187500.02, -187500.02, 187500.00, -0.00, -0.00, -0.00
229, 17294.73, 10915.76, 187500.00, 187500.00, 19849.31, -187500.02, -187500.02, 187500.00, -0.00, -0.00, -0.00
230, 16503.30, 10035.33, 187500.00, 187500.00, 19108.26, -187500.02, -187500.02, 187500.00, -0.00, -0.00, -0.00
231, 15427.13, 8942.35, 187500.00, 187500.00, 18019.21, -187500.02, -187500.02, 187500.00, -0.00, -0.00, -0.00
232, 16166.08, 9777.52, 187500.00, 187500.00, 18718.15, -187500.02, -187500.02, 187500.00, -0.00, -0.00, -0.00
233, 17533.58, 11174.67, 187500.00, 187500.00, 20089.99, -187500.02, -187500.02, 187500.00, -0.00, -0.00, -0.00
234, 17070.03, 10618.89, 187500.00, 187500.00, 19669.98, -187500.02, -187500.02, 187500.00, -0.00, -0.00, -0.00
235, 15753.35, 9257.02, 187500.00, 187500.00, 18358.18, -187500.02, -187500.02, 187500.00, -0.00, -0.00, -0.00
236, 16223.54, 9819.01, 187500.00, 187500.00, 18785.77, -187500.02, -187500.02, 187500.00, -0.00, -0.00, -0.00
237, 17595.22, 11236.07, 187500.00, 187500.00, 20147.91, -187500.02, -187500.02, 187500.00, -0.00, -0.00, -0.00
238, 17421.02, 10984.05, 187500.00, 187500.00, 20015.85, -187500.02, -187500.02, 187500.00, -0.00, -0.00, -0.00
239, 16127.03, 9632.71, 187500.00, 187500.00, 18737.65, -187500.02, -187500.02, 187500.00, -0.00, -0.00, -0.00
240, 16259.42, 9841.79, 187500.00, 187500.00, 18834.54, -187500.02, -187500.02, 187500.00, -0.00, -0.00, -0.00
241, 17670.69, 11323.15, 187500.00, 187500.00, 20233.09, -187500.02, -187500.02, 187500.00, -0.00, -0.00, -0.00
242, 17979.45, 11579.81, 187500.00, 187500.00, 20586.76, -187500.02, -187500.02, 187500.00, -0.00, -0.00, -0.00
243, 16724.45, 10240.29, 187500.00, 187500.00, 19351.00, -187500.02, -187500.02, 187500.00, -0.00, -0.00, -0.00
244, 16407.10, 9973.91, 187500.00, 187500.00, 19002.74, -187500.02, -187500.02, 187500.00, -0.00, -0.00, -0.00
245, 17818.03, 11474.36, 187500.00, 187500.00, 20387.18, -187500.02, -187500.02, 187500.00, -0.00, -0.00, -0.00
246, 18435.14, 12054.54, 187500.00, 187500.00, 21035.29, -187500.02, -187500.02, 187500.00, -0.00, -0.00, -0.00
247, 17280.60, 10805.97, 187500.00, 187500.00, 19906.60, -187500.02, -187500.02, 187500.00, -0.00, -0.00, -0.00
248, 16631.22, 10183.16, 187500.00, 187500.00, 19229.21, -187500.02, -187500.02, 187500.00, -0.00, -0.00, -0.00
249, 17951.38, 11605.09, 187500.00, 187500.00, 20518.16, -187500.02, -187500.02, 187500.00, -0.00, -0.00, -0.00
250, 60584.42, 54402.80, 0.00, 187500.00, 63111.73, -187500.02, -184388.67, 187500.00, -0.00, -0.00, -0.00
251, 61547.05, 55406.62, 0.00, 187500.00, 64045.25, -187500.02, -185509.92, 187500.00, -0.00, -0.00, -0.00
252, 63172.53, 57040.33, 0.00, 187500.00, 65690.97, -187500.02, -186366.36, 187500.00, -0.00, -0.00, -0.00
253, 63215.38, 56987.63, 0.00, 187500.00, 65796.16, -187500.02, -186423.36, 187500.00, -0.00, -0.00, -0.00
254, 62115.36, 55813.27, 0.00, 187500.00, 64703.05, -187500.02, -186507.48, 187500.00, -0.00, -0.00, -0.00
255, 62699.75, 56463.88, 0.00, 187500.00, 65238.05, -187500.02, -187188.45, 187500.00, -0.00, -0.00, -0.00
0, 64460.77, 58267.22, 0.00, 187500.00, 66993.36, -187500.02, -187500.02, 187500.00, -0.00, -0.00, -0.00
1, 64692.25, 58418.18, 0.00, 187500.00, 67278.80, -187500.02, -187500.02, 187500.00, -0.00, -0.00, -0.00
2, 63553.03, 57200.75, 0.00, 187500.00, 66155.66, -187500.02, -187500.02, 187500.00, -0.00, -0.00, -0.00
3, 63721.82, 57428.34, 0.00, 187500.00, 66280.85, -187500.02, -187500.02, 187500.00, -0.00, -0.00, -0.00
4, 65403.66, 59178.79, 0.00, 187500.00, 67943.58, -187500.02, -187500.02, 187500.00, -0.00, -0.00, -0.00
5, 65992.49, 59707.79, 0.00, 187500.00, 68571.88, -187500.02, -187500.02, 187500.00, -0.00, -0.00, -0.00
6, 64874.68, 58503.75, 0.00, 187500.00, 67487.67, -187500.02, -187500.02, 187500.00, -0.00, -0.00, -0.00
7, 64695.40, 58367.42, 0.00, 187500.00, 67277.50, -187500.02, -187500.02, 187500.00, -0.00, -0.00, -0.00
8, 66169.16, 59922.52, 0.00, 187500.00, 68726.16, -187500.02, -187500.02, 187500.00, -0.00, -0.00, -0.00
9, 67135.23, 60861.23, 0.00, 187500.00, 69722.46, -187500.02, -187500.02, 187500.00, -0.00, -0.00, -0.00
10, 66310.27, 59941.48, 0.00, 187500.00, 68932.02, -187500.02, -187500.02, 187500.00, -0.00, -0.00, -0.00
11, 65744.19, 59389.32, 0.00, 187500.00, 68345.46, -187500.02, -187500.02, 187500.00, -0.00, -0.00, -0.00
12, 67116.27, 60853.76, 0.00, 187500.00, 69677.85, -187500.02, -187500.02, 187500.00, -0.00, -0.00, -0.00
13, 68321.21, 62044.64, 0.00, 187500.00, 70895.06, -187500.02, -187500.02, 187500.00, -0.00, -0.00, -0.00
14, 67731.59, 61360.39, 0.00, 187500.00, 70348.83, -187500.02, -187500.02, 187500.00, -0.00, -0.00, -0.00
15, 66823.22, 60440.66, 0.00, 187500.00, 69433.26, -187500.02, -187500.02, 187500.00, -0.00, -0.00, -0.00
16, 67799.01, 61515.91, 0.00, 187500.00, 70371.41, -187500.02, -187500.02, 187500.00, -0.00, -0.00, -0.00
17, 69110.25, 62840.47, 0.00, 187500.00, 71691.30, -187500.02, -187500.02, 187500.00, -0.00, -0.00, -0.00
18, 68650.43, 62291.40, 0.00, 187500.00, 71276.76, -187500.02, -187500.02, 187500.00, -0.00, -0.00, -0.00
19, 67658.23, 61268.50, 0.00, 187500.00, 70277.16, -187500.02, -187500.02, 187500.00, -0.00, -0.00, -0.00
20, 68362.90, 62056.93, 0.00, 187500.00, 70944.28, -187500.02, -187500.02, 187500.00, -0.00, -0.00, -0.00
21, 69771.82, 63506.85, 0.00, 187500.00, 72360.44, -187500.02, -187500.02, 187500.00, -0.00, -0.00, -0.00
22, 69567.73, 63225.17, 0.00, 187500.00, 72209.12, -187500.02, -187500.02, 187500.00, -0.00, -0.00, -0.00
23, 68369.65, 61971.39, 0.00, 187500.00, 71016.38, -187500.02, -187500.02, 187500.00, -0.00, -0.00, -0.00
24, 68615.95, 62287.85, 0.00, 187500.00, 71212.30, -187500.02, -187500.02, 187500.00, -0.00, -0.00, -0.00
25, 70085.41, 63816.66, 0.00, 187500.00, 72664.38, -187500.02, -187500.02, 187500.00, -0.00, -0.00, -0.00
26, 70301.40, 63970.58, 0.00, 187500.00, 72923.70, -187500.02, -187500.02, 187500.00, -0.00, -0.00, -0.00
27, 69179.27, 62776.84, 0.00, 187500.00, 71822.50, -187500.02, -187500.02, 187500.00, -0.00, -0.00, -0.00
28, 69046.23, 62696.84, 0.00, 187500.00, 71652.60, -187500.02, -187500.02, 187500.00, -0.00, -0.00, -0.00
29, 70536.38, 64269.91, 0.00, 187500.00, 73121.30, -187500.02, -187500.02, 187500.00, -0.00, -0.00, -0.00
30, 71137.46, 64826.11, 0.00, 187500.00, 73765.65, -187500.02, -187500.02, 187500.00, -0.00, -0.00, -0.00
31, 70032.62, 63635.26, 0.00, 187500.00, 72696.23, -187500.02, -187500.02, 187500.00, -0.00, -0.00, -0.00
32, 69574.36, 63203.82, 0.00, 187500.00, 72200.63, -187500.02, -187500.02, 187500.00, -0.00, -0.00, -0.00
33, 70928.20, 64649.09, 0.00, 187500.00, 73522.02, -187500.02, -187500.02, 187500.00, -0.00, -0.00, -0.00
34, 71913.56, 65616.07, 0.00, 187500.00, 74536.49, -187500.02, -187500.02, 187500.00, -0.00, -0.00, -0.00
35, 71027.92, 64639.66, 0.00, 187500.00, 73690.48, -187500.02, -187500.02, 187500.00, -0.00, -0.00, -0.00
