%OpenBCI Raw EEG Data
%
%Sample Rate = 250.0 Hz
%First Column = SampleIndex
%Other Columns = EEG data in microvolts followed by Accel Data (in G) interleaved with Aux Data
0, 93921.13, 164749.72, 134676.88, 130710.90, 106045.12, 187500.00, 187500.00, 187500.00, -0.00, -0.00, -0.00
1, 94311.08, 165397.27, 135257.58, 131293.42, 106482.84, 187500.00, 187500.00, 187500.00, -0.00, -0.00, -0.00
2, 94613.70, 165960.53, 135752.48, 131791.69, 106834.88, 187500.00, 187500.00, 187500.00, -0.00, -0.00, -0.00
3, 95132.91, 166734.75, 136466.63, 132502.33, 107404.53, 187500.00, 187500.00, 187500.00, -0.00, -0.00, -0.00
4, 95862.23, 167715.27, 137390.47, 133419.38, 108185.32, 187500.00, 187500.00, 187500.00, -0.00, -0.00, -0.00
5, 96553.81, 168661.47, 138279.58, 134301.02, 108929.79, 187500.00, 187500.00, 187500.00, -0.00, -0.00, -0.00
6, 97018.37, 169382.83, 138938.08, 134958.73, 109445.73, 187500.00, 187500.00, 187500.00, -0.00, -0.00, -0.00
7, 97380.09, 170000.50, 139493.05, 135515.52, 109859.22, 187500.00, 187500.00, 187500.00, -0.00, -0.00, -0.00
8, 97627.79, 170507.13, 139934.83, 135959.33, 110159.49, 187500.00, 187500.00, 187500.00, -0.00, -0.00, -0.00
9, 97900.48, 171039.09, 140401.77, 136426.58, 110483.62, 187500.00, 187500.00, 187500.00, -0.00, -0.00, -0.00
10, 98275.43, 171670.25, 140971.17, 136995.72, 110910.70, 187500.00, 187500.00, 187500.00, -0.00, -0.00, -0.00
11, 98926.02, 172571.06, 141817.61, 137835.64, 111613.92, 187500.00, 187500.00, 187500.00, -0.00, -0.00, -0.00
12, 99715.84, 173609.41, 142803.81, 138813.94, 112457.30, 187500.00, 187500.00, 187500.00, -0.00, -0.00, -0.00
13, 100396.39, 174537.64, 143678.75, 139682.78, 113189.03, 187500.00, 187500.00, 187500.00, -0.00, -0.00, -0.00
14, 100920.20, 175311.50, 144397.56, 140398.92, 113763.71, 187500.00, 187500.00, 187500.00, -0.00, -0.00, -0.00
15, 101628.70, 176266.86, 145303.52, 141297.52, 114523.47, 187500.00, 187500.00, 187500.00, -0.00, -0.00, -0.00
16, 102709.59, 177586.13, 146582.42, 142561.80, 115656.88, 187500.00, 187500.00, 187500.00, -0.00, -0.00, -0.00
17, 104021.64, 179129.06, 148090.94, 144053.55, 117020.27, 187500.00, 187500.00, 187500.00, -0.00, -0.00, -0.00
18, 105225.48, 180563.44, 149492.44, 145438.92, 118273.88, 187500.00, 187500.00, 187500.00, -0.00, -0.00, -0.00
19, 106139.53, 181761.23, 150610.08, 146545.16, 119244.79, 187500.00, 187500.00, 187500.00, -0.00, -0.00, -0.00
20, 106803.65, 182872.63, 151490.03, 147420.61, 119980.56, 187500.00, 187500.00, 187500.00, -0.00, -0.00, -0.00
21, 107330.52, 183907.70, 152238.47, 148165.89, 120585.55, 187500.00, 187500.00, 187500.00, -0.00, -0.00, -0.00
22, 107904.14, 184986.58, 153033.89, 148955.95, 121236.33, 187500.00, 187500.00, 187500.00, -0.00, -0.00, -0.00
23, 108830.77, 186427.47, 154181.75, 150091.69, 122240.19, 187500.00, 187500.00, 187500.00, -0.00, -0.00, -0.00
24, 109624.77, 187500.00, 155194.75, 151096.53, 123112.02, 187500.00, 187500.00, 187500.00, -0.00, -0.00, -0.00
25, 110357.33, 187500.00, 156145.50, 152041.88, 123921.55, 187500.00, 187500.00, 187500.00, -0.00, -0.00, -0.00
26, 111307.39, 187500.00, 157312.41, 153198.42, 124946.74, 187500.00, 187500.00, 187500.00, -0.00, -0.00, -0.00
27, 112437.72, 187500.00, 158660.02, 154532.73, 126152.86, 187500.00, 187500.00, 187500.00, -0.00, -0.00, -0.00
28, 113791.27, 187500.00, 160233.80, 156090.45, 127583.82, 187500.00, 187500.00, 187500.00, -0.00, -0.00, -0.00
29, 114860.00, 187500.00, 161523.83, 157366.56, 128729.75, 187500.00, 187500.00, 187500.00, -0.00, -0.00, -0.00
30, 115615.09, 187500.00, 162497.28, 158332.23, 129560.18, 187500.00, 187500.00, 187500.00, -0.00, -0.00, -0.00
31, 116262.41, 187500.00, 163361.98, 159191.23, 130282.57, 187500.00, 187500.00, 187500.00, -0.00, -0.00, -0.00
32, 116678.07, 187500.00, 163996.06, 159823.13, 130774.95, 187500.00, 187500.00, 187500.00, -0.00, -0.00, -0.00
33, 117046.49, 187500.00, 164581.44, 160408.92, 131218.34, 187500.00, 187500.00, 187500.00, -0.00, -0.00, -0.00
34, 117707.27, 187500.00, 165462.16, 161285.58, 131954.61, 187500.00, 187500.00, 187500.00, -0.00, -0.00, -0.00
35, 118582.98, 187500.00, 166558.11, 162372.25, 132907.00, 187500.00, 187500.00, 187500.00, -0.00, -0.00, -0.00
36, 119560.59, 187500.00, 167752.39, 163555.91, 133959.59, 187500.00, 187500.00, 187500.00, -0.00, -0.00, -0.00
37, 120459.05, 187500.00, 168866.58, 164660.73, 134932.02, 187500.00, 187500.00, 187500.00, -0.00, -0.00, -0.00
38, 121489.02, 187500.00, 170113.80, 165895.30, 136037.41, 187500.00, 187500.00, 187500.00, -0.00, -0.00, -0.00
39, 122633.65, 187500.00, 171475.84, 167243.48, 137257.77, 187500.00, 187500.00, 187500.00, -0.00, -0.00, -0.00
40, 124004.39, 187500.00, 173064.48, 168813.02, 138703.97, 187500.00, 187500.00, 187500.00, -0.00, -0.00, -0.00
41, 125059.59, 187500.00, 174337.25, 170074.94, 139835.84, 187500.00, 187500.00, 187500.00, -0.00, -0.00, -0.00
42, 126224.92, 187500.00, 175717.88, 171442.20, 141074.94, 187500.00, 187500.00, 187500.00, -0.00, -0.00, -0.00
43, 127660.28, 187500.00, 177369.78, 173073.84, 142582.48, 187500.00, 187500.00, 187500.00, -0.00, -0.00, -0.00
44, 128207.12, 187500.00, 178130.44, 173831.59, 143201.28, 187500.00, 187500.00, 187500.00, -0.00, -0.00, -0.00
45, 128772.66, 187500.00, 178931.05, 174610.23, 143841.34, 187500.00, 187500.00, 187500.00, -0.00, -0.00, -0.00
46, 129631.38, 187500.00, 180372.33, 175672.09, 144777.09, 187500.00, 187500.00, 187500.00, -0.00, -0.00, -0.00
47, 129675.56, 187500.00, 181160.28, 175913.92, 144897.02, 187500.00, 187500.00, 187500.00, -0.00, -0.00, -0.00
48, 128527.51, 187500.00, 180560.47, 174979.94, 143827.44, 187500.00, 187500.00, 187500.00, -0.00, -0.00, -0.00
49, 126718.78, 187500.00, 178902.03, 173403.91, 142096.86, 187500.00, 187500.00, 187500.00, -0.00, -0.00, -0.00
50, 125053.22, 187500.00, 177307.22, 171987.66, 140508.73, 187500.00, 187500.00, 187500.00, -0.00, -0.00, -0.00
51, 123455.66, 187500.00, 175918.08, 170646.08, 138988.58, 187500.00, 187500.00, 187500.00, -0.00, -0.00, -0.00
52, 121997.36, 187500.00, 174673.28, 169446.33, 137610.16, 187500.00, 187500.00, 187500.00, -0.00, -0.00, -0.00
53, 121154.34, 187500.00, 174046.72, 168849.59, 136848.78, 187500.00, 187500.00, 187500.00, -0.00, -0.00, -0.00
54, 120793.67, 187500.00, 173900.66, 168723.55, 136569.41, 187500.00, 187500.00, 187500.00, -0.00, -0.00, -0.00
55, 120736.48, 187500.00, 174057.47, 168894.80, 136592.28, 187500.00, 187500.00, 187500.00, -0.00, -0.00, -0.00
56, 120591.99, 187500.00, 174128.91, 168982.73, 136530.11, 187500.00, 187500.00, 187500.00, -0.00, -0.00, -0.00
57, 120512.53, 187500.00, 174265.61, 169134.38, 136533.39, 187500.00, 187500.00, 187500.00, -0.00, -0.00, -0.00
58, 120687.91, 187500.00, 174657.84, 169537.58, 136792.20, 187500.00, 187500.00, 187500.00, -0.00, -0.00, -0.00
59, 121181.90, 187500.00, 175369.28, 170253.97, 137368.92, 187500.00, 187500.00, 187500.00, -0.00, -0.00, -0.00
60, 121363.98, 187500.00, 175769.11, 170665.80, 137634.33, 187500.00, 187500.00, 187500.00, -0.00, -0.00, -0.00
61, 121917.34, 187500.00, 176542.03, 171442.45, 138269.83, 187500.00, 187500.00, 187500.00, -0.00, -0.00, -0.00
62, 124460.90, 187500.00, 179495.88, 174144.41, 140893.72, 187500.00, 187500.00, 187500.00, -0.00, -0.00, -0.00
63, 128286.45, 187500.00, 183849.63, 177675.27, 144800.97, 187500.00, 187500.00, 187500.00, -0.00, -0.00, -0.00
64, 132135.89, 187500.00, 186217.41, 181141.19, 148733.11, 187500.00, 187500.00, 187500.00, -0.00, -0.00, -0.00
65, 134368.48, 187500.00, 186447.27, 183772.13, 151048.45, 187500.00, 187500.00, 187500.00, -0.00, -0.00, -0.00
66, 134610.69, 187500.00, 186473.25, 184600.66, 151373.11, 187500.00, 187500.00, 187500.00, -0.00, -0.00, -0.00
67, 132451.58, 187500.00, 186490.70, 182981.30, 149296.19, 187500.00, 187500.00, 187500.00, -0.00, -0.00, -0.00
68, 127486.86, 187500.00, 185310.23, 179039.97, 144415.16, 187500.00, 187500.00, 187500.00, -0.00, -0.00, -0.00
69, 120630.33, 187500.00, 179686.89, 173376.63, 137643.45, 187500.00, 187500.00, 187500.00, -0.00, -0.00, -0.00
70, 113765.75, 187500.00, 172815.92, 166954.20, 130868.50, 187500.00, 187500.00, 187500.00, -0.00, -0.00, -0.00
71, 104485.88, 187500.00, 163732.52, 158073.28, 121683.79, 187500.00, 187500.00, 187500.00, -0.00, -0.00, -0.00
72, 84747.46, 183739.56, 144207.27, 138919.48, 102045.79, 187500.00, 187500.00, 187500.00, -0.00, -0.00, -0.00
73, 58927.49, 162622.77, 118585.19, 113787.66, 76317.77, 187500.00, 187500.00, 187500.00, -0.00, -0.00, -0.00
74, 38503.36, 142940.20, 98356.48, 93962.80, 55986.89, 187500.00, 187500.00, 187500.00, -0.00, -0.00, -0.00
75, 21318.89, 126419.05, 81375.57, 77330.13, 38908.57, 187500.00, 187500.00, 187500.00, -0.00, -0.00, -0.00
76, 3557.08, 109340.86, 63822.10, 60135.46, 21269.32, 180383.25, 187500.00, 187500.00, -0.00, -0.00, -0.00
77, -15734.26, 90772.58, 44743.16, 41444.25, 2117.94, 161685.31, 187500.00, 187500.00, -0.00, -0.00, -0.00
78, -33571.69, 73633.73, 27123.06, 24189.30, -15572.01, 144489.00, 187500.00, 187500.00, -0.00, -0.00, -0.00
79, -48696.70, 59155.99, 12223.92, 9607.99, -30542.81, 129960.59, 187500.00, 187500.00, -0.00, -0.00, -0.00
80, -63669.21, 44835.12, -2514.95, -4814.61, -45351.64, 115587.77, 187500.00, 187500.00, -0.00, -0.00, -0.00
81, -79822.28, 29364.47, -18436.48, -20395.01, -61338.73, 100056.80, 187500.00, 187500.00, -0.00, -0.00, -0.00
82, -95526.30, 14333.41, -33909.47, -35534.87, -76876.14, 84966.73, 187500.00, 187500.00, -0.00, -0.00, -0.00
83, -109176.22, 1316.16, -47324.27, -48653.73, -90354.48, 71897.18, 187500.00, 187500.00, -0.00, -0.00, -0.00
84, -120090.84, -9017.48, -57999.63, -59081.27, -101091.39, 61517.95, 187500.00, 187500.00, -0.00, -0.00, -0.00
85, -128534.73, -16931.69, -66200.05, -67078.77, -109351.84, 53570.04, 187500.00, 187500.00, -0.00, -0.00, -0.00
86, -134551.17, -22472.40, -71973.55, -72692.20, -115184.32, 48008.26, 187500.00, 187500.00, -0.00, -0.00, -0.00
87, -138197.67, -25695.54, -75377.55, -75980.10, -118651.15, 44772.31, 187500.00, 187500.00, -0.00, -0.00, -0.00
88, -141056.58, -28147.84, -77993.21, -78496.73, -121331.41, 42308.97, 187500.00, 187500.00, -0.00, -0.00, -0.00
89, -144223.53, -30900.53, -80913.85, -81316.54, -124320.89, 39546.20, 187500.00, 187500.00, -0.00, -0.00, -0.00
90, -147379.44, -33645.27, -83824.27, -84128.32, -127301.47, 36792.73, 187500.00, 187500.00, -0.00, -0.00, -0.00
91, -150049.48, -35918.25, -86250.17, -86465.42, -129799.26, 34512.46, 187500.00, 187500.00, -0.00, -0.00, -0.00
92, -151571.13, -37065.54, -87525.65, -87674.05, -131149.61, 33361.92, 187500.00, 187500.00, -0.00, -0.00, -0.00
93, -150678.06, -35851.06, -86384.41, -86511.20, -130085.92, 34584.56, 187500.00, 187500.00, -0.00, -0.00, -0.00
94, -148716.30, -33592.64, -84173.25, -84298.39, -127953.09, 36859.97, 187500.00, 187500.00, -0.00, -0.00, -0.00
95, -153931.66, -38359.66, -89137.88, -89138.46, -132994.47, 32086.46, 187500.00, 187500.00, -0.00, -0.00, -0.00
96, -164719.47, -48579.21, -99679.08, -99454.95, -143611.31, 21834.72, 187500.00, 187500.00, -0.00, -0.00, -0.00
97, -174077.03, -57394.61, -108789.16, -108359.51, -152793.86, 12991.28, 187500.00, 187500.00, -0.00, -0.00, -0.00
98, -177555.19, -60453.15, -112016.59, -111482.20, -156093.84, 9926.45, 187500.00, 187500.00, -0.00, -0.00, -0.00
99, -183941.66, -66416.38, -118209.25, -117522.52, -162358.69, 3947.54, 187500.00, 187500.00, -0.00, -0.00, -0.00
100, -187500.02, -76331.85, -128435.60, -127523.16, -172653.55, -5989.17, 187500.00, 187500.00, -0.00, -0.00, -0.00
101, -187500.02, -85612.12, -138003.05, -136872.02, -182286.83, -15277.08, 187500.00, 187500.00, -0.00, -0.00, -0.00
102, -187500.02, -92477.14, -145099.61, -143793.13, -187500.02, -22143.29, 187500.00, 187500.00, -0.00, -0.00, -0.00
103, -187500.02, -98658.43, -151493.02, -150024.88, -187500.02, -28332.22, 187500.00, 187500.00, -0.00, -0.00, -0.00
104, -187500.02, -108196.37, -161315.00, -159626.30, -187500.02, -37901.67, 187500.00, 187500.00, -0.00, -0.00, -0.00
105, -187500.02, -120642.22, -174114.41, -172150.09, -187500.02, -50396.95, 187500.00, 187500.00, -0.00, -0.00, -0.00
106, -187500.02, -126630.48, -180315.00, -178189.91, -187500.02, -56411.04, 187500.00, 187500.00, -0.00, -0.00, -0.00
107, -187500.02, -126466.57, -180220.36, -178052.89, -187500.02, -56242.60, 187500.00, 187500.00, -0.00, -0.00, -0.00
108, -187500.02, -126210.38, -180029.30, -177823.30, -187500.02, -55978.63, 187500.00, 187500.00, -0.00, -0.00, -0.00
109, -187500.02, -126022.02, -179906.28, -177660.98, -187500.02, -55781.84, 187500.00, 187500.00, -0.00, -0.00, -0.00
110, -187500.02, -125862.42, -179811.55, -177530.44, -187500.02, -55613.46, 187500.00, 187500.00, -0.00, -0.00, -0.00
111, -187500.02, -125732.85, -179745.17, -177429.11, -187500.02, -55473.88, 187500.00, 187500.00, -0.00, -0.00, -0.00
112, -187500.02, -125582.96, -179657.27, -177305.91, -187500.02, -55313.30, 187500.00, 187500.00, -0.00, -0.00, -0.00
113, -187500.02, -125384.50, -179517.83, -177135.64, -187500.02, -55103.66, 187500.00, 187500.00, -0.00, -0.00, -0.00
114, -187500.02, -125261.12, -179452.69, -177041.95, -187500.02, -54966.18, 187500.00, 187500.00, -0.00, -0.00, -0.00
115, -187500.02, -125175.30, -179425.34, -176983.45, -187500.02, -54864.12, 187500.00, 187500.00, -0.00, -0.00, -0.00
116, -187500.02, -125044.69, -179351.80, -176879.88, -187500.02, -54716.69, 187500.00, 187500.00, -0.00, -0.00, -0.00
117, -187500.02, -124905.68, -179272.58, -176771.27, -187500.02, -54563.49, 187500.00, 187500.00, -0.00, -0.00, -0.00
118, -187500.02, -124745.73, -179168.36, -176640.44, -187500.02, -54389.30, 187500.00, 187500.00, -0.00, -0.00, -0.00
119, -187500.02, -124665.82, -179142.94, -176588.92, -187500.02, -54292.56, 187500.00, 187500.00, -0.00, -0.00, -0.00
120, -187500.02, -124593.56, -179126.84, -176545.81, -187500.02, -54206.82, 187500.00, 187500.00, -0.00, -0.00, -0.00
121, -187500.02, -124405.54, -178993.92, -176389.67, -187500.02, -54010.13, 187500.00, 187500.00, -0.00, -0.00, -0.00
122, -187500.02, -124288.39, -178932.09, -176303.27, -187500.02, -53882.50, 187500.00, 187500.00, -0.00, -0.00, -0.00
123, -187500.02, -124129.00, -178826.42, -176173.36, -187500.02, -53712.49, 187500.00, 187500.00, -0.00, -0.00, -0.00
124, -187500.02, -123983.85, -178734.64, -176057.80, -187500.02, -53557.13, 187500.00, 187500.00, -0.00, -0.00, -0.00
125, -187500.02, -123871.55, -178675.81, -175976.00, -187500.02, -53431.38, 187500.00, 187500.00, -0.00, -0.00, -0.00
126, -187500.02, -123782.59, -178643.03, -175919.44, -187500.02, -53328.38, 187500.00, 187500.00, -0.00, -0.00, -0.00
127, -187500.02, -123673.23, -178588.06, -175841.86, -187500.02, -53203.68, 187500.00, 187500.00, -0.00, -0.00, -0.00
128, -187500.02, -123555.03, -178522.53, -175755.41, -187500.02, -53066.82, 187500.00, 187500.00, -0.00, -0.00, -0.00
129, -187500.02, -123436.19, -178457.69, -175668.61, -187500.02, -52928.73, 187500.00, 187500.00, -0.00, -0.00, -0.00
130, -187500.02, -123318.05, -178393.33, -175583.83, -187500.02, -52794.28, 187500.00, 187500.00, -0.00, -0.00, -0.00
131, -187500.02, -123225.12, -178351.45, -175521.47, -187500.02, -52682.14, 187500.00, 187500.00, -0.00, -0.00, -0.00
132, -187500.02, -123109.54, -178284.70, -175434.86, -187500.02, -52545.29, 187500.00, 187500.00, -0.00, -0.00, -0.00
133, -187500.02, -122994.60, -178219.28, -175349.73, -187500.02, -52407.89, 187500.00, 187500.00, -0.00, -0.00, -0.00
134, -187500.02, -122856.67, -178132.47, -175242.97, -187500.02, -52249.30, 187500.00, 187500.00, -0.00, -0.00, -0.00
135, -187500.02, -122718.65, -178045.47, -175135.17, -187500.02, -52089.64, 187500.00, 187500.00, -0.00, -0.00, -0.00
136, -187500.02, -122608.84, -177985.44, -175056.70, -187500.02, -51957.86, 187500.00, 187500.00, -0.00, -0.00, -0.00
137, -187500.02, -122487.27, -177913.08, -174966.83, -187500.02, -51812.17, 187500.00, 187500.00, -0.00, -0.00, -0.00
138, -187500.02, -117539.15, -172912.55, -170034.66, -187500.02, -46824.89, 187500.00, 187500.00, -0.00, -0.00, -0.00
139, -187500.02, -91534.21, -146388.44, -143961.56, -183660.92, -20693.00, 187500.00, 187500.00, -0.00, -0.00, -0.00
140, -177763.73, -57574.36, -111726.38, -109909.72, -150919.33, 13442.88, 187500.00, 187500.00, -0.00, -0.00, -0.00
141, -150141.38, -29170.05, -82744.77, -81453.77, -122082.23, 42000.67, 187500.00, 187500.00, -0.00, -0.00, -0.00
142, -138676.05, -17658.10, -71024.72, -69960.89, -110508.41, 53606.48, 187500.00, 187500.00, -0.00, -0.00, -0.00
143, -134386.59, -13174.12, -66494.67, -65523.93, -106120.73, 58156.29, 187500.00, 187500.00, -0.00, -0.00, -0.00
144, -122092.06, -856.90, -53959.28, -53219.77, -93733.16, 70568.91, 187500.00, 187500.00, -0.00, -0.00, -0.00
145, -95390.29, 25555.51, -27012.08, -26764.58, -66947.27, 97131.54, 187500.00, 187500.00, -0.00, -0.00, -0.00
146, -61118.81, 59364.60, 7510.72, 7120.68, -32596.84, 131130.06, 187500.00, 187500.00, -0.00, -0.00, -0.00
147, -30070.56, 90000.93, 38803.21, 37822.57, -1481.99, 161957.73, 187500.00, 187500.00, -0.00, -0.00, -0.00
148, -5058.85, 114717.71, 64046.66, 62578.13, 23584.46, 186153.59, 187500.00, 187500.00, -0.00, -0.00, -0.00
149, 11688.26, 131338.42, 81014.38, 79204.25, 40364.66, 187500.00, 187500.00, 187500.00, -0.00, -0.00, -0.00
150, 21592.48, 141260.03, 91130.65, 89102.43, 50287.38, 187500.00, 187500.00, 187500.00, -0.00, -0.00, -0.00
151, 31174.76, 150867.50, 100923.80, 98685.50, 59886.49, 187500.00, 187500.00, 187500.00, -0.00, -0.00, -0.00
152, 41607.97, 161306.13, 111565.84, 109104.98, 70337.45, 187500.00, 187500.00, 187500.00, -0.00, -0.00, -0.00
153, 52751.97, 172438.09, 122920.02, 120223.84, 81498.64, 187500.00, 187500.00, 187500.00, -0.00, -0.00, -0.00
154, 64849.54, 184142.61, 135231.48, 132283.45, 93616.05, 187500.00, 187500.00, 187500.00, -0.00, -0.00, -0.00
155, 75444.69, 187500.00, 146052.11, 142878.97, 104245.27, 187500.00, 187500.00, 187500.00, -0.00, -0.00, -0.00
156, 84454.59, 187500.00, 155291.16, 151920.28, 113291.69, 187500.00, 187500.00, 187500.00, -0.00, -0.00, -0.00
157, 93630.96, 187500.00, 164694.08, 161123.75, 122500.74, 187500.00, 187500.00, 187500.00, -0.00, -0.00, -0.00
158, 101523.25, 187500.00, 172810.25, 169063.92, 130424.15, 187500.00, 187500.00, 187500.00, -0.00, -0.00, -0.00
159, 106856.09, 187500.00, 178471.41, 174472.08, 135789.61, 187500.00, 187500.00, 187500.00, -0.00, -0.00, -0.00
160, 110405.90, 187500.00, 182776.17, 177808.97, 139375.95, 187500.00, 187500.00, 187500.00, -0.00, -0.00, -0.00
161, 112966.79, 187500.00, 185732.06, 179968.22, 141976.23, 187500.00, 187500.00, 187500.00, -0.00, -0.00, -0.00
162, 115091.19, 187500.00, 186825.17, 182231.27, 144139.38, 187500.00, 187500.00, 187500.00, -0.00, -0.00, -0.00
163, 116501.85, 187500.00, 186902.36, 184127.00, 145590.03, 187500.00, 187500.00, 187500.00, -0.00, -0.00, -0.00
164, 116861.27, 187500.00, 186929.55, 185020.02, 145988.61, 187500.00, 187500.00, 187500.00, -0.00, -0.00, -0.00
165, 116295.25, 187500.00, 186956.80, 184973.59, 145464.33, 187500.00, 187500.00, 187500.00, -0.00, -0.00, -0.00
166, 114577.99, 187500.00, 186981.44, 183761.44, 143795.19, 187500.00, 187500.00, 187500.00, -0.00, -0.00, -0.00
167, 111695.48, 187500.00, 186883.02, 181472.69, 140964.61, 187500.00, 187500.00, 187500.00, -0.00, -0.00, -0.00
168, 107930.05, 187500.00, 185039.47, 178814.31, 137253.91, 187500.00, 187500.00, 187500.00, -0.00, -0.00, -0.00
169, 103563.97, 187500.00, 181042.75, 175406.81, 132943.83, 187500.00, 187500.00, 187500.00, -0.00, -0.00, -0.00
170, 99584.06, 187500.00, 177063.56, 171764.19, 129025.73, 187500.00, 187500.00, 187500.00, -0.00, -0.00, -0.00
171, 96080.52, 187500.00, 173739.17, 168534.03, 125589.84, 187500.00, 187500.00, 187500.00, -0.00, -0.00, -0.00
172, 92548.38, 187500.00, 170421.19, 165279.70, 122126.13, 187500.00, 187500.00, 187500.00, -0.00, -0.00, -0.00
173, 88804.55, 187500.00, 166894.45, 161821.13, 118451.48, 187500.00, 187500.00, 187500.00, -0.00, -0.00, -0.00
174, 82882.97, 187500.00, 161193.33, 156226.47, 112604.44, 187500.00, 187500.00, 187500.00, -0.00, -0.00, -0.00
175, 75788.33, 187500.00, 154320.97, 149481.80, 105587.18, 187500.00, 187500.00, 187500.00, -0.00, -0.00, -0.00
176, 68325.03, 187500.00, 147080.78, 142376.70, 98203.39, 187500.00, 187500.00, 187500.00, -0.00, -0.00, -0.00
177, 60744.66, 187500.00, 139726.67, 135163.25, 90708.25, 187500.00, 187500.00, 187500.00, -0.00, -0.00, -0.00
178, 52088.59, 183572.75, 131293.56, 126891.92, 82136.91, 187500.00, 187500.00, 187500.00, -0.00, -0.00, -0.00
179, 42024.07, 174004.44, 121438.34, 117227.07, 72144.68, 187500.00, 187500.00, 187500.00, -0.00, -0.00, -0.00
180, 35769.79, 168143.94, 115391.84, 111305.78, 65958.63, 187500.00, 187500.00, 187500.00, -0.00, -0.00, -0.00
181, 29424.01, 162201.59, 109257.07, 105298.93, 59689.71, 187500.00, 187500.00, 187500.00, -0.00, -0.00, -0.00
182, 20525.45, 153762.42, 100568.05, 96785.27, 50870.51, 187500.00, 187500.00, 187500.00, -0.00, -0.00, -0.00
183, 12532.69, 146216.22, 92788.39, 89164.95, 42960.39, 187500.00, 187500.00, 187500.00, -0.00, -0.00, -0.00
184, 6097.91, 140197.77, 86567.48, 83076.49, 36608.82, 187500.00, 187500.00, 187500.00, -0.00, -0.00, -0.00
185, 3991.33, 138415.97, 84677.21, 81241.97, 34585.03, 187500.00, 187500.00, 187500.00, -0.00, -0.00, -0.00
186, 6474.72, 141128.63, 87382.06, 83920.34, 37153.80, 187500.00, 187500.00, 187500.00, -0.00, -0.00, -0.00
187, 7745.04, 142650.75, 88873.30, 85401.92, 38508.88, 187500.00, 187500.00, 187500.00, -0.00, -0.00, -0.00
188, 9805.62, 144943.50, 91152.71, 87655.83, 40649.08, 187500.00, 187500.00, 187500.00, -0.00, -0.00, -0.00
189, 14148.27, 149468.03, 95715.64, 92151.55, 45072.29, 187500.00, 187500.00, 187500.00, -0.00, -0.00, -0.00
190, 20692.78, 156141.92, 102480.02, 98806.11, 51694.33, 187500.00, 187500.00, 187500.00, -0.00, -0.00, -0.00
191, 30267.75, 165777.61, 112275.27, 108434.19, 61340.70, 187500.00, 187500.00, 187500.00, -0.00, -0.00, -0.00
192, 42448.60, 177964.00, 124677.49, 120619.59, 73588.11, 187500.00, 187500.00, 187500.00, -0.00, -0.00, -0.00
193, 52794.02, 187500.00, 135254.11, 131006.77, 84006.52, 187500.00, 187500.00, 187500.00, -0.00, -0.00, -0.00
194, 62418.61, 187500.00, 145117.89, 140691.83, 93711.97, 187500.00, 187500.00, 187500.00, -0.00, -0.00, -0.00
195, 73295.32, 187500.00, 156231.00, 151602.84, 104668.55, 187500.00, 187500.00, 187500.00, -0.00, -0.00, -0.00
196, 83497.30, 187500.00, 166668.44, 161848.06, 114948.76, 187500.00, 187500.00, 187500.00, -0.00, -0.00, -0.00
197, 94065.86, 187500.00, 177443.31, 172294.55, 125588.59, 187500.00, 187500.00, 187500.00, -0.00, -0.00, -0.00
198, 105444.09, 187500.00, 185763.00, 182189.36, 137035.48, 187500.00, 187500.00, 187500.00, -0.00, -0.00, -0.00
199, 116221.89, 187500.00, 187105.75, 186430.02, 147878.23, 187500.00, 187500.00, 187500.00, -0.00, -0.00, -0.00
200, 127537.84, 187500.00, 187129.09, 186696.77, 159253.14, 187500.00, 187500.00, 187500.00, -0.00, -0.00, -0.00
201, 139144.44, 187500.00, 187143.61, 186690.02, 170840.41, 187500.00, 187500.00, 187500.00, -0.00, -0.00, -0.00
202, 150530.19, 187500.00, 187157.36, 186682.17, 180328.64, 187500.00, 187500.00, 187500.00, -0.00, -0.00, -0.00
203, 159653.30, 187500.00, 187173.80, 186680.67, 182832.66, 187500.00, 187500.00, 187500.00, -0.00, -0.00, -0.00
204, 166973.19, 187500.00, 187188.08, 186679.44, 182875.17, 187500.00, 187500.00, 187500.00, -0.00, -0.00, -0.00
205, 174179.38, 187500.00, 187200.23, 186675.58, 182871.75, 187500.00, 187500.00, 187500.00, -0.00, -0.00, -0.00
206, 179077.61, 187500.00, 187215.25, 186676.98, 182870.02, 187500.00, 187500.00, 187500.00, -0.00, -0.00, -0.00
207, 180056.11, 187500.00, 187233.81, 186685.08, 182870.09, 187500.00, 187500.00, 187500.00, -0.00, -0.00, -0.00
208, 180069.17, 187500.00, 187254.77, 186696.89, 182871.91, 187500.00, 187500.00, 187500.00, -0.00, -0.00, -0.00
209, 180067.41, 187500.00, 187274.44, 186707.11, 182872.31, 187500.00, 187500.00, 187500.00, -0.00, -0.00, -0.00
210, 180066.30, 187500.00, 187296.02, 186720.41, 182874.33, 187500.00, 187500.00, 187500.00, -0.00, -0.00, -0.00
211, 180066.36, 187500.00, 187320.28, 186738.30, 182878.34, 187500.00, 187500.00, 187500.00, -0.00, -0.00, -0.00
212, 180067.06, 187500.00, 187347.42, 186762.09, 182884.30, 187500.00, 187500.00, 187500.00, -0.00, -0.00, -0.00
213, 180070.45, 187500.00, 187376.98, 186788.30, 182892.89, 187500.00, 187500.00, 187500.00, -0.00, -0.00, -0.00
214, 180068.75, 187500.00, 187398.77, 186803.20, 182895.25, 187500.00, 187500.00, 187500.00, -0.00, -0.00, -0.00
215, 180064.63, 187500.00, 187415.95, 186810.17, 182894.27, 187500.00, 187500.00, 187500.00, -0.00, -0.00, -0.00
216, 180061.89, 187500.00, 187435.83, 186821.48, 182895.25, 187500.00, 187500.00, 187500.00, -0.00, -0.00, -0.00
217, 180061.83, 187500.00, 187461.13, 186842.31, 182900.16, 187500.00, 187500.00, 187500.00, -0.00, -0.00, -0.00
218, 180064.39, 187500.00, 187491.75, 186872.45, 182908.97, 187500.00, 187500.00, 187500.00, -0.00, -0.00, -0.00
219, 179812.64, 187500.00, 187500.00, 186913.53, 182921.95, 187500.00, 187500.00, 187500.00, -0.00, -0.00, -0.00
220, 174429.75, 187500.00, 187500.00, 186967.89, 182939.02, 187500.00, 187500.00, 187500.00, -0.00, -0.00, -0.00
221, 161443.20, 187500.00, 187500.00, 187031.97, 182903.63, 187500.00, 187500.00, 187500.00, -0.00, -0.00, -0.00
222, 147685.14, 187500.00, 187500.00, 187090.84, 179790.41, 187500.00, 187500.00, 187500.00, -0.00, -0.00, -0.00
223, 134643.53, 187500.00, 187500.00, 187145.73, 169194.52, 187500.00, 187500.00, 187500.00, -0.00, -0.00, -0.00
224, 122902.23, 187500.00, 187500.00, 187195.98, 157575.92, 187500.00, 187500.00, 187500.00, -0.00, -0.00, -0.00
225, 113877.55, 187500.00, 187500.00, 187238.02, 148643.81, 187500.00, 187500.00, 187500.00, -0.00, -0.00, -0.00
226, 107122.16, 187500.00, 187500.00, 187275.06, 141985.72, 187500.00, 187500.00, 187500.00, -0.00, -0.00, -0.00
227, 101181.38, 187500.00, 187500.00, 187003.94, 136145.67, 187500.00, 187500.00, 187500.00, -0.00, -0.00, -0.00
228, 95203.84, 187500.00, 187500.00, 183999.17, 130270.45, 187500.00, 187500.00, 187500.00, -0.00, -0.00, -0.00
229, 89102.14, 187500.00, 186557.06, 179193.97, 124273.64, 187500.00, 187500.00, 187500.00, -0.00, -0.00, -0.00
230, 82684.62, 187500.00, 181377.98, 173793.14, 117962.80, 187500.00, 187500.00, 187500.00, -0.00, -0.00, -0.00
231, 75714.01, 187500.00, 174399.91, 167219.16, 111102.16, 187500.00, 187500.00, 187500.00, -0.00, -0.00, -0.00
232, 67947.76, 187500.00, 166826.38, 159835.95, 103448.07, 187500.00, 187500.00, 187500.00, -0.00, -0.00, -0.00
233, 60698.24, 187500.00, 159794.56, 152963.06, 96313.17, 187500.00, 187500.00, 187500.00, -0.00, -0.00, -0.00
234, 53408.84, 187500.00, 152728.81, 146054.73, 89139.78, 187500.00, 187500.00, 187500.00, -0.00, -0.00, -0.00
235, 47681.59, 187500.00, 147229.30, 140686.59, 83530.10, 187500.00, 187500.00, 187500.00, -0.00, -0.00, -0.00
236, 45405.80, 187500.00, 145184.20, 138711.19, 81373.45, 187500.00, 187500.00, 187500.00, -0.00, -0.00, -0.00
237, 43543.95, 187500.00, 143556.64, 137143.77, 79633.59, 187500.00, 187500.00, 187500.00, -0.00, -0.00, -0.00
238, 39849.58, 187500.00, 140094.34, 133774.36, 76061.17, 187500.00, 187500.00, 187500.00, -0.00, -0.00, -0.00
239, 39286.52, 187500.00, 139762.92, 133479.88, 75616.59, 187500.00, 187500.00, 187500.00, -0.00, -0.00, -0.00
240, 44540.10, 187500.00, 145250.77, 138900.69, 80988.84, 187500.00, 187500.00, 187500.00, -0.00, -0.00, -0.00
241, 51878.46, 187500.00, 152824.02, 146364.94, 88442.14, 187500.00, 187500.00, 187500.00, -0.00, -0.00, -0.00
242, 62820.54, 187500.00, 164001.03, 157363.83, 99493.91, 187500.00, 187500.00, 187500.00, -0.00, -0.00, -0.00
243, 76609.06, 187500.00, 177697.14, 170976.38, 113384.16, 187500.00, 187500.00, 187500.00, -0.00, -0.00, -0.00
244, 92498.58, 187500.00, 186839.59, 183385.33, 129368.63, 187500.00, 187500.00, 187500.00, -0.00, -0.00, -0.00
245, 111160.43, 187500.00, 187500.00, 187295.72, 148114.25, 187500.00, 187500.00, 187500.00, -0.00, -0.00, -0.00
246, 133653.39, 187500.00, 187500.00, 187361.19, 169798.23, 187500.00, 187500.00, 187500.00, -0.00, -0.00, -0.00
247, 155782.38, 187500.00, 187500.00, 187322.47, 181595.53, 187500.00, 187500.00, 187500.00, -0.00, -0.00, -0.00
248, 173877.09, 187500.00, 187500.00, 187278.63, 182711.20, 187500.00, 187500.00, 187500.00, -0.00, -0.00, -0.00
249, 179386.13, 187500.00, 187500.00, 187239.70, 182694.45, 187500.00, 187500.00, 187500.00, -0.00, -0.00, -0.00
250, 179512.69, 187500.00, 187500.00, 187208.39, 182677.25, 187500.00, 187500.00, 187500.00, -0.00, -0.00, -0.00
251, 179497.67, 187500.00, 187500.00, 187184.36, 182659.75, 187500.00, 187500.00, 187500.00, -0.00, -0.00, -0.00
252, 179483.89, 187500.00, 187500.00, 187168.42, 182645.22, 187500.00, 187500.00, 187500.00, -0.00, -0.00, -0.00
253, 179472.56, 187500.00, 187500.00, 187160.63, 182636.30, 187500.00, 187500.00, 187500.00, -0.00, -0.00, -0.00
254, 179457.08, 187500.00, 187500.00, 187150.23, 182623.89, 187500.00, 187500.00, 187500.00, -0.00, -0.00, -0.00
255, 179442.06, 187500.00, 187500.00, 187141.25, 182611.80, 187500.00, 187500.00, 187500.00, -0.00, -0.00, -0.00
0, 179429.20, 187500.00, 187500.00, 187134.55, 182601.92, 187500.00, 187500.00, 187500.00, -0.00, -0.00, -0.00
1, 179414.63, 187500.00, 187500.00, 187125.73, 182590.13, 187500.00, 187500.00, 187500.00, -0.00, -0.00, -0.00
2, 179402.45, 187500.00, 187500.00, 187119.36, 182580.64, 187500.00, 187500.00, 187500.00, -0.00, -0.00, -0.00
3, 179385.66, 187500.00, 187500.00, 187105.75, 182566.52, 187500.00, 187500.00, 187500.00, -0.00, -0.00, -0.00
4, 179369.70, 187500.00, 187500.00, 187093.34, 182553.03, 187500.00, 187500.00, 187500.00, -0.00, -0.00, -0.00
5, 179359.02, 187500.00, 187500.00, 187090.47, 182544.52, 187500.00, 187500.00, 187500.00, -0.00, -0.00, -0.00
6, 179350.02, 187500.00, 187500.00, 187091.16, 182537.66, 187500.00, 187500.00, 187500.00, -0.00, -0.00, -0.00
7, 179338.30, 187500.00, 187500.00, 187086.59, 182528.23, 187500.00, 187500.00, 187500.00, -0.00, -0.00, -0.00
8, 179322.20, 187500.00, 187500.00, 187073.80, 182514.48, 187500.00, 187500.00, 187500.00, -0.00, -0.00, -0.00
9, 179300.33, 187500.00, 187500.00, 187051.14, 182494.55, 187500.00, 187500.00, 187500.00, -0.00, -0.00, -0.00
10, 179279.14, 187500.00, 187500.00, 187029.25, 182475.05, 187500.00, 187500.00, 187500.00, -0.00, -0.00, -0.00
11, 179257.50, 187500.00, 187500.00, 187007.19, 182454.78, 187500.00, 187500.00, 187500.00, -0.00, -0.00, -0.00
12, 179239.61, 187500.00, 187500.00, 186989.03, 182437.97, 187500.00, 187500.00, 187500.00, -0.00, -0.00, -0.00
13, 179222.52, 187500.00, 187500.00, 186971.64, 182421.77, 187500.00, 187500.00, 187500.00, -0.00, -0.00, -0.00
14, 179203.27, 187500.00, 187500.00, 186952.02, 182403.14, 187500.00, 187500.00, 187500.00, -0.00, -0.00, -0.00
15, 179184.39, 187500.00, 187500.00, 186933.09, 182384.70, 187500.00, 187500.00, 187500.00, -0.00, -0.00, -0.00
16, 179165.13, 187500.00, 187500.00, 186914.25, 182365.69, 187500.00, 187500.00, 187500.00, -0.00, -0.00, -0.00
17, 179150.25, 187500.00, 187500.00, 186900.75, 182350.84, 187500.00, 187500.00, 187500.00, -0.00, -0.00, -0.00
18, 179137.83, 187500.00, 187500.00, 186891.56, 182338.39, 187500.00, 187500.00, 187500.00, -0.00, -0.00, -0.00
19, 179124.86, 187500.00, 187500.00, 186883.17, 182325.20, 187500.00, 187500.00, 187500.00, -0.00, -0.00, -0.00
20, 179112.69, 187500.00, 187500.00, 186878.25, 182312.69, 187500.00, 187500.00, 187500.00, -0.00, -0.00, -0.00
21, 179104.98, 187500.00, 187500.00, 186879.23, 182304.69, 187500.00, 187500.00, 187500.00, -0.00, -0.00, -0.00
22, 179099.38, 187500.00, 187500.00, 186882.86, 182298.91, 187500.00, 187500.00, 187500.00, -0.00, -0.00, -0.00
23, 179096.25, 187500.00, 187500.00, 186890.81, 182295.48, 187500.00, 187500.00, 187500.00, -0.00, -0.00, -0.00
24, 179095.47, 187500.00, 187500.00, 186902.23, 182294.61, 187500.00, 187500.00, 187500.00, -0.00, -0.00, -0.00
25, 179090.73, 187500.00, 187500.00, 186908.50, 182289.89, 187500.00, 187500.00, 187500.00, -0.00, -0.00, -0.00
26, 179082.70, 187500.00, 187500.00, 186911.27, 182281.98, 187500.00, 187500.00, 187500.00, -0.00, -0.00, -0.00
27, 179079.05, 187500.00, 187500.00, 186918.11, 182278.56, 187500.00, 187500.00, 187500.00, -0.00, -0.00, -0.00
28, 179074.28, 187500.00, 187500.00, 186923.44, 182274.06, 187500.00, 187500.00, 187500.00, -0.00, -0.00, -0.00
29, 179067.38, 187500.00, 187500.00, 186926.50, 182267.52, 187500.00, 187500.00, 187500.00, -0.00, -0.00, -0.00
30, 179060.69, 187500.00, 187500.00, 186929.48, 182261.08, 187500.00, 187500.00, 187500.00, -0.00, -0.00, -0.00
31, 179052.44, 187500.00, 187500.00, 186929.64, 182253.17, 187500.00, 187500.00, 187500.00, -0.00, -0.00, -0.00
32, 179042.36, 187500.00, 187500.00, 186927.23, 182243.33, 187500.00, 187500.00, 187500.00, -0.00, -0.00, -0.00
33, 179033.84, 187500.00, 187500.00, 186924.80, 182235.13, 187500.00, 187500.00, 187500.00, -0.00, -0.00, -0.00
34, 179018.22, 187500.00, 187500.00, 186910.88, 182219.70, 187500.00, 187500.00, 187500.00, -0.00, -0.00, -0.00
35, 179000.31, 187500.00, 187500.00, 186892.97, 182201.89, 187500.00, 187500.00, 187500.00, -0.00, -0.00, -0.00
36, 178984.58, 187500.00, 187500.00, 186877.92, 182185.94, 187500.00, 187500.00, 187500.00, -0.00, -0.00, -0.00
37, 178972.61, 187500.00, 187500.00, 186869.97, 182173.33, 187500.00, 187500.00, 187500.00, -0.00, -0.00, -0.00
38, 178965.67, 187500.00, 187500.00, 186868.80, 182165.92, 187500.00, 187500.00, 187500.00, -0.00, -0.00, -0.00
39, 178952.23, 187500.00, 187500.00, 186860.38, 182151.88, 187500.00, 187500.00, 187500.00, -0.00, -0.00, -0.00
40, 178940.06, 187500.00, 187500.00, 186852.58, 182139.02, 187500.00, 187500.00, 187500.00, -0.00, -0.00, -0.00
41, 178932.38, 187500.00, 187500.00, 186849.56, 182130.69, 187500.00, 187500.00, 187500.00, -0.00, -0.00, -0.00
42, 178922.44, 187500.00, 187500.00, 186844.69, 182119.80, 187500.00, 187500.00, 187500.00, -0.00, -0.00, -0.00
43, 178912.20, 187500.00, 187500.00, 186840.94, 182108.66, 187500.00, 187500.00, 187500.00, -0.00, -0.00, -0.00
44, 178906.50, 187500.00, 187500.00, 186844.02, 182101.98, 187500.00, 187500.00, 187500.00, -0.00, -0.00, -0.00
45, 178903.56, 187500.00, 187500.00, 186851.48, 182098.05, 187500.00, 187500.00, 187500.00, -0.00, -0.00, -0.00
46, 178900.58, 187500.00, 187500.00, 186859.19, 182094.14, 187500.00, 187500.00, 187500.00, -0.00, -0.00, -0.00
47, 178896.83, 187500.00, 187500.00, 186866.34, 182089.63, 187500.00, 187500.00, 187500.00, -0.00, -0.00, -0.00
48, 178896.72, 187500.00, 187500.00, 186878.22, 182088.84, 187500.00, 187500.00, 187500.00, -0.00, -0.00, -0.00
49, 178895.28, 187500.00, 187500.00, 186889.86, 182086.72, 187500.00, 187500.00, 187500.00, -0.00, -0.00, -0.00
50, 178897.92, 187500.00, 187500.00, 186906.13, 182088.91, 187500.00, 187500.00, 187500.00, -0.00, -0.00, -0.00
51, 178898.53, 187500.00, 187500.00, 186920.92, 182089.34, 187500.00, 187500.00, 187500.00, -0.00, -0.00, -0.00
52, 178897.13, 187500.00, 187500.00, 186934.06, 182087.72, 187500.00, 187500.00, 187500.00, -0.00, -0.00, -0.00
53, 178898.50, 187500.00, 187500.00, 186949.78, 182089.06, 187500.00, 187500.00, 187500.00, -0.00, -0.00, -0.00
54, 178901.20, 187500.00, 187500.00, 186966.61, 182091.83, 187500.00, 187500.00, 187500.00, -0.00, -0.00, -0.00
55, 178900.72, 187500.00, 187500.00, 186980.00, 182091.47, 187500.00, 187500.00, 187500.00, -0.00, -0.00, -0.00
56, 178898.95, 187500.00, 187500.00, 186992.09, 182089.91, 187500.00, 187500.00, 187500.00, -0.00, -0.00, -0.00
57, 178896.98, 187500.00, 187500.00, 187004.50, 182088.33, 187500.00, 187500.00, 187500.00, -0.00, -0.00, -0.00
58, 178896.09, 187500.00, 187500.00, 187018.33, 182087.88, 187500.00, 187500.00, 187500.00, -0.00, -0.00, -0.00
59, 178897.45, 187500.00, 187500.00, 187034.23, 182089.75, 187500.00, 187500.00, 187500.00, -0.00, -0.00, -0.00
60, 178897.20, 187500.00, 187500.00, 187048.38, 182090.14, 187500.00, 187500.00, 187500.00, -0.00, -0.00, -0.00
61, 178896.41, 187500.00, 187500.00, 187061.94, 182089.98, 187500.00, 187500.00, 187500.00, -0.00, -0.00, -0.00
62, 178895.94, 187500.00, 187500.00, 187076.19, 182090.25, 187500.00, 187500.00, 187500.00, -0.00, -0.00, -0.00
63, 178895.16, 187500.00, 187500.00, 187089.77, 182090.47, 187500.00, 187500.00, 187500.00, -0.00, -0.00, -0.00
64, 178893.70, 187500.00, 187500.00, 187102.36, 182090.11, 187500.00, 187500.00, 187500.00, -0.00, -0.00, -0.00
65, 178892.05, 187500.00, 187500.00, 187114.72, 182089.48, 187500.00, 187500.00, 187500.00, -0.00, -0.00, -0.00
66, 178893.48, 187500.00, 187500.00, 187129.84, 182092.03, 187500.00, 187500.00, 187500.00, -0.00, -0.00, -0.00
67, 178892.58, 187500.00, 187500.00, 187143.03, 182092.23, 187500.00, 187500.00, 187500.00, -0.00, -0.00, -0.00
68, 178893.98, 187500.00, 187500.00, 187159.55, 182094.77, 187500.00, 187500.00, 187500.00, -0.00, -0.00, -0.00
69, 178893.88, 187500.00, 187500.00, 187175.09, 182095.83, 187500.00, 187500.00, 187500.00, -0.00, -0.00, -0.00
70, 178896.22, 187500.00, 187500.00, 187193.84, 182099.28, 187500.00, 187500.00, 187500.00, -0.00, -0.00, -0.00
71, 178899.44, 187500.00, 187500.00, 187214.09, 182103.81, 187500.00, 187500.00, 187500.00, -0.00, -0.00, -0.00
72, 178903.83, 187500.00, 187500.00, 187235.70, 182109.67, 187500.00, 187500.00, 187500.00, -0.00, -0.00, -0.00
73, 178905.55, 187500.00, 187500.00, 187254.14, 182113.17, 187500.00, 187500.00, 187500.00, -0.00, -0.00, -0.00
74, 178907.11, 187500.00, 187500.00, 187271.69, 182116.55, 187500.00, 187500.00, 187500.00, -0.00, -0.00, -0.00
75, 178906.31, 187500.00, 187500.00, 187286.05, 182117.38, 187500.00, 187500.00, 187500.00, -0.00, -0.00, -0.00
76, 178904.73, 187500.00, 187500.00, 187299.36, 182117.72, 187500.00, 187500.00, 187500.00, -0.00, -0.00, -0.00
77, 178904.70, 187500.00, 187500.00, 187314.78, 182119.69, 187500.00, 187500.00, 187500.00, -0.00, -0.00, -0.00
78, 178904.39, 187500.00, 187500.00, 187330.67, 182121.31, 187500.00, 187500.00, 187500.00, -0.00, -0.00, -0.00
79, 178906.59, 187500.00, 187500.00, 187349.83, 182125.45, 187500.00, 187500.00, 187500.00, -0.00, -0.00, -0.00
80, 178907.17, 187500.00, 187500.00, 187367.14, 182128.17, 187500.00, 187500.00, 187500.00, -0.00, -0.00, -0.00
81, 178908.03, 187500.00, 187500.00, 187385.55, 182131.16, 187500.00, 187500.00, 187500.00, -0.00, -0.00, -0.00
82, 178908.45, 187500.00, 187500.00, 187403.70, 182133.70, 187500.00, 187500.00, 187500.00, -0.00, -0.00, -0.00
83, 178912.72, 187500.00, 187500.00, 187426.39, 182140.16, 187500.00, 187500.00, 187500.00, -0.00, -0.00, -0.00
84, 178918.67, 187500.00, 187500.00, 187451.94, 182148.56, 187500.00, 187500.00, 187500.00, -0.00, -0.00, -0.00
85, 178921.55, 187500.00, 187500.00, 187474.52, 182154.19, 187500.00, 187500.00, 187500.00, -0.00, -0.00, -0.00
86, 178925.08, 187500.00, 187500.00, 187497.02, 182160.39, 187500.00, 187500.00, 187500.00, -0.00, -0.00, -0.00
87, 178928.03, 187500.00, 187500.00, 187500.00, 182166.27, 187500.00, 187500.00, 187500.00, -0.00, -0.00, -0.00
88, 178931.94, 187500.00, 187500.00, 187500.00, 182172.92, 187500.00, 187500.00, 187500.00, -0.00, -0.00, -0.00
89, 178935.30, 187500.00, 187500.00, 187500.00, 182179.19, 187500.00, 187500.00, 187500.00, -0.00, -0.00, -0.00
90, 178936.30, 187500.00, 187500.00, 187500.00, 182183.14, 187500.00, 187500.00, 187500.00, -0.00, -0.00, -0.00
91, 178938.73, 187500.00, 187500.00, 187500.00, 182188.61, 187500.00, 187500.00, 187500.00, -0.00, -0.00, -0.00
92, 178941.41, 187500.00, 187500.00, 187500.00, 182194.45, 187500.00, 187500.00, 187500.00, -0.00, -0.00, -0.00
93, 178939.86, 187500.00, 187500.00, 187500.00, 182196.11, 187500.00, 187500.00, 187500.00, -0.00, -0.00, -0.00
94, 178941.98, 187500.00, 187500.00, 187500.00, 182201.45, 187500.00, 187500.00, 187500.00, -0.00, -0.00, -0.00
95, 178939.70, 187500.00, 187500.00, 187500.00, 182202.34, 187500.00, 187500.00, 187500.00, -0.00, -0.00, -0.00
96, 178938.67, 187500.00, 187500.00, 187500.00, 182204.55, 187500.00, 187500.00, 187500.00, -0.00, -0.00, -0.00
97, 178940.42, 187500.00, 187500.00, 187500.00, 182209.66, 187500.00, 187500.00, 187500.00, -0.00, -0.00, -0.00
98, 178942.03, 187500.00, 187500.00, 187500.00, 182214.61, 187500.00, 187500.00, 187500.00, -0.00, -0.00, -0.00
99, 178940.69, 187500.00, 187500.00, 187500.00, 182216.63, 187500.00, 187500.00, 187500.00, -0.00, -0.00, -0.00
100, 178942.11, 187500.00, 187500.00, 187500.00, 182221.39, 187500.00, 187500.00, 187500.00, -0.00, -0.00, -0.00
101, 178945.00, 187500.00, 187500.00, 187500.00, 182227.66, 187500.00, 187500.00, 187500.00, -0.00, -0.00, -0.00
102, 178946.30, 187500.00, 187500.00, 187500.00, 182232.30, 187500.00, 187500.00, 187500.00, -0.00, -0.00, -0.00
103, 178945.28, 187500.00, 187500.00, 187500.00, 182234.75, 187500.00, 187500.00, 187500.00, -0.00, -0.00, -0.00
104, 178945.63, 187500.00, 187500.00, 187500.00, 182238.48, 187500.00, 187500.00, 187500.00, -0.00, -0.00, -0.00
105, 178946.34, 187500.00, 187500.00, 187500.00, 182242.95, 187500.00, 187500.00, 187500.00, -0.00, -0.00, -0.00
106, 178949.84, 187500.00, 187500.00, 187500.00, 182250.28, 187500.00, 187500.00, 187500.00, -0.00, -0.00, -0.00
107, 178951.25, 187500.00, 187500.00, 187500.00, 182255.27, 187500.00, 187500.00, 187500.00, -0.00, -0.00, -0.00
108, 178951.53, 187500.00, 187500.00, 187500.00, 182259.16, 187500.00, 187500.00, 187500.00, -0.00, -0.00, -0.00
109, 178952.95, 187500.00, 187500.00, 187500.00, 182264.19, 187500.00, 187500.00, 187500.00, -0.00, -0.00, -0.00
110, 178957.36, 187500.00, 187500.00, 187500.00, 182272.38, 187500.00, 187500.00, 187500.00, -0.00, -0.00, -0.00
111, 178962.56, 187500.00, 187500.00, 187500.00, 182281.44, 187500.00, 187500.00, 187500.00, -0.00, -0.00, -0.00
112, 178967.42, 187500.00, 187500.00, 187500.00, 182290.30, 187500.00, 187500.00, 187500.00, -0.00, -0.00, -0.00
113, 178972.95, 187500.00, 187500.00, 187500.00, 182299.86, 187500.00, 187500.00, 187500.00, -0.00, -0.00, -0.00
114, 178979.00, 187500.00, 187500.00, 187500.00, 182310.00, 187500.00, 187500.00, 187500.00, -0.00, -0.00, -0.00
115, 178984.81, 187500.00, 187500.00, 187500.00, 182320.20, 187500.00, 187500.00, 187500.00, -0.00, -0.00, -0.00
116, 178988.52, 187500.00, 187500.00, 187500.00, 182328.38, 187500.00, 187500.00, 187500.00, -0.00, -0.00, -0.00
117, 178988.69, 187500.00, 187500.00, 187500.00, 182333.33, 187500.00, 187500.00, 187500.00, -0.00, -0.00, -0.00
118, 178990.70, 187500.00, 187500.00, 187500.00, 182340.08, 187500.00, 187500.00, 187500.00, -0.00, -0.00, -0.00
119, 178995.56, 187500.00, 187500.00, 187500.00, 182349.53, 187500.00, 187500.00, 187500.00, -0.00, -0.00, -0.00
120, 178996.41, 187500.00, 187500.00, 187500.00, 182355.00, 187500.00, 187500.00, 187500.00, -0.00, -0.00, -0.00
121, 178998.58, 187500.00, 187500.00, 187500.00, 182361.81, 187500.00, 187500.00, 187500.00, -0.00, -0.00, -0.00
122, 179001.38, 187500.00, 187500.00, 187500.00, 182369.42, 187500.00, 187500.00, 187500.00, -0.00, -0.00, -0.00
123, 179001.64, 187500.00, 187500.00, 187500.00, 182374.56, 187500.00, 187500.00, 187500.00, -0.00, -0.00, -0.00
124, 179004.92, 187500.00, 187500.00, 187500.00, 182382.77, 187500.00, 187500.00, 187500.00, -0.00, -0.00, -0.00
125, 179002.63, 187500.00, 187500.00, 187500.00, 182385.22, 187500.00, 187500.00, 187500.00, -0.00, -0.00, -0.00
126, 179003.02, 187500.00, 187500.00, 187500.00, 182390.45, 187500.00, 187500.00, 187500.00, -0.00, -0.00, -0.00
127, 179004.00, 187500.00, 187500.00, 187500.00, 182396.23, 187500.00, 187500.00, 187500.00, -0.00, -0.00, -0.00
128, 179003.09, 187500.00, 187500.00, 187500.00, 182400.17, 187500.00, 187500.00, 187500.00, -0.00, -0.00, -0.00
129, 179003.30, 187500.00, 187500.00, 187500.00, 182405.09, 187500.00, 187500.00, 187500.00, -0.00, -0.00, -0.00
130, 179003.56, 187500.00, 187500.00, 187500.00, 182409.92, 187500.00, 187500.00, 187500.00, -0.00, -0.00, -0.00
131, 179005.02, 187500.00, 187500.00, 187500.00, 182416.20, 187500.00, 187500.00, 187500.00, -0.00, -0.00, -0.00
132, 179006.73, 187500.00, 187500.00, 187500.00, 182422.77, 187500.00, 187500.00, 187500.00, -0.00, -0.00, -0.00
133, 179009.55, 187500.00, 187500.00, 187500.00, 182430.47, 187500.00, 187500.00, 187500.00, -0.00, -0.00, -0.00
134, 179010.78, 187500.00, 187500.00, 187500.00, 182436.42, 187500.00, 187500.00, 187500.00, -0.00, -0.00, -0.00
135, 179010.84, 187500.00, 187500.00, 187500.00, 182441.44, 187500.00, 187500.00, 187500.00, -0.00, -0.00, -0.00
136, 179013.69, 187500.00, 187500.00, 187500.00, 182449.06, 187500.00, 187500.00, 187500.00, -0.00, -0.00, -0.00
137, 179015.50, 187500.00, 187500.00, 187500.00, 182455.92, 187500.00, 187500.00, 187500.00, -0.00, -0.00, -0.00
138, 179017.19, 187500.00, 187500.00, 187500.00, 182462.63, 187500.00, 187500.00, 187500.00, -0.00, -0.00, -0.00
139, 179020.61, 187500.00, 187500.00, 187500.00, 182471.20, 187500.00, 187500.00, 187500.00, -0.00, -0.00, -0.00
140, 179024.95, 187500.00, 187500.00, 187500.00, 182480.78, 187500.00, 187500.00, 187500.00, -0.00, -0.00, -0.00
141, 179028.44, 187500.00, 187500.00, 187500.00, 182489.42, 187500.00, 187500.00, 187500.00, -0.00, -0.00, -0.00
142, 179028.84, 187500.00, 187500.00, 187500.00, 182495.22, 187500.00, 187500.00, 187500.00, -0.00, -0.00, -0.00
143, 179029.28, 187500.00, 187500.00, 187500.00, 182501.08, 187500.00, 187500.00, 187500.00, -0.00, -0.00, -0.00
144, 179028.69, 187500.00, 187500.00, 187500.00, 182505.86, 187500.00, 187500.00, 187500.00, -0.00, -0.00, -0.00
145, 179026.81, 187500.00, 187500.00, 187500.00, 182509.23, 187500.00, 187500.00, 187500.00, -0.00, -0.00, -0.00
146, 179026.27, 187500.00, 187500.00, 187500.00, 182514.02, 187500.00, 187500.00, 187500.00, -0.00, -0.00, -0.00
147, 179025.58, 187500.00, 187500.00, 187500.00, 182518.59, 187500.00, 187500.00, 187500.00, -0.00, -0.00, -0.00
148, 179023.47, 187500.00, 187500.00, 187500.00, 182521.61, 187500.00, 187500.00, 187500.00, -0.00, -0.00, -0.00
149, 179020.91, 187500.00, 187500.00, 187500.00, 182524.00, 187500.00, 187500.00, 187500.00, -0.00, -0.00, -0.00
150, 179018.33, 187500.00, 187500.00, 187500.00, 182526.53, 187500.00, 187500.00, 187500.00, -0.00, -0.00, -0.00
151, 179017.64, 187500.00, 187500.00, 187500.00, 182530.94, 187500.00, 187500.00, 187500.00, -0.00, -0.00, -0.00
152, 179014.95, 187500.00, 187500.00, 187500.00, 182533.30, 187500.00, 187500.00, 187500.00, -0.00, -0.00, -0.00
153, 179013.64, 187500.00, 187500.00, 187500.00, 182537.02, 187500.00, 187500.00, 187500.00, -0.00, -0.00, -0.00
154, 179013.58, 187500.00, 187500.00, 187500.00, 182541.73, 187500.00, 187500.00, 187500.00, -0.00, -0.00, -0.00
155, 179011.53, 187500.00, 187500.00, 187500.00, 182544.48, 187500.00, 187500.00, 187500.00, -0.00, -0.00, -0.00
156, 179010.78, 187500.00, 187500.00, 187500.00, 182548.61, 187500.00, 187500.00, 187500.00, -0.00, -0.00, -0.00
157, 179010.63, 187500.00, 187500.00, 187500.00, 182553.58, 187500.00, 187500.00, 187500.00, -0.00, -0.00, -0.00
158, 179012.05, 187500.00, 187500.00, 187500.00, 182559.94, 187500.00, 187500.00, 187500.00, -0.00, -0.00, -0.00
159, 179013.02, 187500.00, 187500.00, 187500.00, 182565.80, 187500.00, 187500.00, 187500.00, -0.00, -0.00, -0.00
160, 179013.64, 187500.00, 187500.00, 187500.00, 182571.52, 187500.00, 187500.00, 187500.00, -0.00, -0.00, -0.00
161, 179014.20, 187500.00, 187500.00, 187500.00, 182577.06, 187500.00, 187500.00, 187500.00, -0.00, -0.00, -0.00
162, 179016.95, 187500.00, 187500.00, 187500.00, 182584.98, 187500.00, 187500.00, 187500.00, -0.00, -0.00, -0.00
163, 179018.89, 187500.00, 187500.00, 187500.00, 182592.02, 187500.00, 187500.00, 187500.00, -0.00, -0.00, -0.00
164, 179020.05, 187500.00, 187500.00, 187500.00, 182598.45, 187500.00, 187500.00, 187500.00, -0.00, -0.00, -0.00
165, 179019.00, 187500.00, 187500.00, 187500.00, 182602.64, 187500.00, 187500.00, 187500.00, -0.00, -0.00, -0.00
166, 179017.73, 187500.00, 187500.00, 187500.00, 182606.55, 187500.00, 187500.00, 187500.00, -0.00, -0.00, -0.00
167, 179018.94, 187500.00, 187500.00, 187500.00, 182612.94, 187500.00, 187500.00, 187500.00, -0.00, -0.00, -0.00
168, 179018.89, 187500.00, 187500.00, 187500.00, 182618.02, 187500.00, 187500.00, 187500.00, -0.00, -0.00, -0.00
169, 179018.61, 187500.00, 187500.00, 187500.00, 182623.00, 187500.00, 187500.00, 187500.00, -0.00, -0.00, -0.00
170, 179019.50, 187500.00, 187500.00, 187500.00, 182629.09, 187500.00, 187500.00, 187500.00, -0.00, -0.00, -0.00
171, 179019.83, 187500.00, 187500.00, 187500.00, 182634.59, 187500.00, 187500.00, 187500.00, -0.00, -0.00, -0.00
172, 179020.48, 187500.00, 187500.00, 187500.00, 182640.48, 187500.00, 187500.00, 187500.00, -0.00, -0.00, -0.00
173, 179021.89, 187500.00, 187500.00, 187500.00, 182647.25, 187500.00, 187500.00, 187500.00, -0.00, -0.00, -0.00
174, 179021.22, 187500.00, 187500.00, 187500.00, 182651.94, 187500.00, 187500.00, 187500.00, -0.00, -0.00, -0.00
175, 179021.28, 187500.00, 187500.00, 187500.00, 182657.20, 187500.00, 187500.00, 187500.00, -0.00, -0.00, -0.00
176, 179020.95, 187500.00, 187500.00, 187500.00, 182661.98, 187500.00, 187500.00, 187500.00, -0.00, -0.00, -0.00
177, 179022.00, 187500.00, 187500.00, 187500.00, 182668.27, 187500.00, 187500.00, 187500.00, -0.00, -0.00, -0.00
178, 179022.63, 187500.00, 187500.00, 187500.00, 182674.28, 187500.00, 187500.00, 187500.00, -0.00, -0.00, -0.00
179, 179021.94, 187500.00, 187500.00, 187500.00, 182678.92, 187500.00, 187500.00, 187500.00, -0.00, -0.00, -0.00
180, 179022.02, 187500.00, 187500.00, 187500.00, 182684.36, 187500.00, 187500.00, 187500.00, -0.00, -0.00, -0.00
181, 179025.08, 187500.00, 187500.00, 187500.00, 182692.83, 187500.00, 187500.00, 187500.00, -0.00, -0.00, -0.00
182, 179028.50, 187500.00, 187500.00, 187500.00, 182701.75, 187500.00, 187500.00, 187500.00, -0.00, -0.00, -0.00
183, 179031.56, 187500.00, 187500.00, 187500.00, 182710.19, 187500.00, 187500.00, 187500.00, -0.00, -0.00, -0.00
184, 179034.83, 187500.00, 187500.00, 187500.00, 182719.05, 187500.00, 187500.00, 187500.00, -0.00, -0.00, -0.00
185, 179037.83, 187500.00, 187500.00, 187500.00, 182727.77, 187500.00, 187500.00, 187500.00, -0.00, -0.00, -0.00
186, 179037.53, 187500.00, 187500.00, 187500.00, 182733.13, 187500.00, 187500.00, 187500.00, -0.00, -0.00, -0.00
187, 179038.72, 187500.00, 187500.00, 187500.00, 182739.97, 187500.00, 187500.00, 187500.00, -0.00, -0.00, -0.00
188, 179041.28, 187500.00, 187500.00, 187500.00, 182748.17, 187500.00, 187500.00, 187500.00, -0.00, -0.00, -0.00
189, 179042.81, 187500.00, 187500.00, 187500.00, 182755.41, 187500.00, 187500.00, 187500.00, -0.00, -0.00, -0.00
190, 179045.20, 187500.00, 187500.00, 187500.00, 182763.55, 187500.00, 187500.00, 187500.00, -0.00, -0.00, -0.00
191, 179048.33, 187500.00, 187500.00, 187500.00, 182772.44, 187500.00, 187500.00, 187500.00, -0.00, -0.00, -0.00
192, 179048.28, 187500.00, 187500.00, 187500.00, 182778.13, 187500.00, 187500.00, 187500.00, -0.00, -0.00, -0.00
193, 179048.89, 187500.00, 187500.00, 187500.00, 182784.58, 187500.00, 187500.00, 187500.00, -0.00, -0.00, -0.00
194, 179052.75, 187500.00, 187500.00, 187500.00, 182794.45, 187500.00, 187500.00, 187500.00, -0.00, -0.00, -0.00
195, 179057.34, 187500.00, 187500.00, 187500.00, 182804.97, 187500.00, 187500.00, 187500.00, -0.00, -0.00, -0.00
196, 179062.28, 187500.00, 187500.00, 187500.00, 182815.88, 187500.00, 187500.00, 187500.00, -0.00, -0.00, -0.00
197, 179065.81, 187500.00, 187500.00, 187500.00, 182825.58, 187500.00, 187500.00, 187500.00, -0.00, -0.00, -0.00
198, 179068.20, 187500.00, 187500.00, 187500.00, 182834.20, 187500.00, 187500.00, 187500.00, -0.00, -0.00, -0.00
199, 179074.03, 187500.00, 187500.00, 187500.00, 182846.22, 187500.00, 187500.00, 187500.00, -0.00, -0.00, -0.00
200, 179077.41, 187500.00, 187500.00, 187500.00, 182855.72, 187500.00, 187500.00, 187500.00, -0.00, -0.00, -0.00
201, 179079.73, 187500.00, 187500.00, 187500.00, 182864.48, 187500.00, 187500.00, 187500.00, -0.00, -0.00, -0.00
202, 179082.75, 187500.00, 187500.00, 187500.00, 182873.78, 187500.00, 187500.00, 187500.00, -0.00, -0.00, -0.00
203, 179088.00, 187500.00, 187500.00, 187500.00, 182885.66, 187500.00, 187500.00, 187500.00, -0.00, -0.00, -0.00
204, 179093.41, 187500.00, 187500.00, 187500.00, 182897.45, 187500.00, 187500.00, 187500.00, -0.00, -0.00, -0.00
205, 179099.45, 187500.00, 187500.00, 187500.00, 182910.08, 187500.00, 187500.00, 187500.00, -0.00, -0.00, -0.00
206, 179105.50, 187500.00, 187500.00, 187500.00, 182922.94, 187500.00, 187500.00, 187500.00, -0.00, -0.00, -0.00
207, 179110.53, 187500.00, 187500.00, 187500.00, 182934.81, 187500.00, 187500.00, 187500.00, -0.00, -0.00, -0.00
208, 179115.20, 187500.00, 187500.00, 187500.00, 182946.42, 187500.00, 187500.00, 187500.00, -0.00, -0.00, -0.00
209, 179121.63, 187500.00, 187500.00, 187500.00, 182959.84, 187500.00, 187500.00, 187500.00, -0.00, -0.00, -0.00
210, 179125.56, 187500.00, 187500.00, 187500.00, 182970.91, 187500.00, 187500.00, 187500.00, -0.00, -0.00, -0.00
211, 179129.06, 187500.00, 187500.00, 187500.00, 182981.61, 187500.00, 187500.00, 187500.00, -0.00, -0.00, -0.00
212, 179132.47, 187500.00, 187500.00, 187500.00, 182992.23, 187500.00, 187500.00, 187500.00, -0.00, -0.00, -0.00
213, 179133.20, 187500.00, 187500.00, 187500.00, 183000.23, 187500.00, 187500.00, 187500.00, -0.00, -0.00, -0.00
214, 179133.83, 187500.00, 187500.00, 187500.00, 183008.25, 187500.00, 187500.00, 187500.00, -0.00, -0.00, -0.00
215, 179134.61, 187500.00, 187500.00, 187500.00, 183016.14, 187500.00, 187500.00, 187500.00, -0.00, -0.00, -0.00
216, 179134.34, 187500.00, 187500.00, 187500.00, 183022.97, 187500.00, 187500.00, 187500.00, -0.00, -0.00, -0.00
217, 179134.66, 187500.00, 187500.00, 187500.00, 183030.47, 187500.00, 187500.00, 187500.00, -0.00, -0.00, -0.00
218, 179136.78, 187500.00, 187500.00, 187500.00, 183039.95, 187500.00, 187500.00, 187500.00, -0.00, -0.00, -0.00
219, 179139.34, 187500.00, 187500.00, 187500.00, 183049.81, 187500.00, 187500.00, 187500.00, -0.00, -0.00, -0.00
220, 179141.53, 187500.00, 187500.00, 187500.00, 183059.06, 187500.00, 187500.00, 187500.00, -0.00, -0.00, -0.00
221, 179145.02, 187500.00, 187500.00, 187500.00, 183069.67, 187500.00, 187500.00, 187500.00, -0.00, -0.00, -0.00
222, 179149.36, 187500.00, 187500.00, 187500.00, 183081.25, 187500.00, 187500.00, 187500.00, -0.00, -0.00, -0.00
223, 179153.47, 187500.00, 187500.00, 187500.00, 183092.72, 187500.00, 187500.00, 187500.00, -0.00, -0.00, -0.00
224, 179154.88, 187500.00, 187500.00, 187500.00, 183101.48, 187500.00, 187500.00, 187500.00, -0.00, -0.00, -0.00
225, 179155.97, 187500.00, 187500.00, 187500.00, 183109.91, 187500.00, 187500.00, 187500.00, -0.00, -0.00, -0.00
226, 179157.05, 187500.00, 187500.00, 187500.00, 183118.30, 187500.00, 187500.00, 187500.00, -0.00, -0.00, -0.00
227, 179159.70, 187500.00, 187500.00, 187500.00, 183128.31, 187500.00, 187500.00, 187500.00, -0.00, -0.00, -0.00
228, 179159.22, 187500.00, 187500.00, 187500.00, 183135.34, 187500.00, 187500.00, 187500.00, -0.00, -0.00, -0.00
229, 179158.48, 187500.00, 187500.00, 187500.00, 183141.88, 187500.00, 187500.00, 187500.00, -0.00, -0.00, -0.00
230, 179160.20, 187500.00, 187500.00, 187500.00, 183150.92, 187500.00, 187500.00, 187500.00, -0.00, -0.00, -0.00
231, 179162.44, 187500.00, 187500.00, 187500.00, 183160.53, 187500.00, 187500.00, 187500.00, -0.00, -0.00, -0.00
232, 179165.55, 187500.00, 187500.00, 187500.00, 183170.95, 187500.00, 187500.00, 187500.00, -0.00, -0.00, -0.00
233, 179167.13, 187500.00, 187500.00, 187500.00, 183179.88, 187500.00, 187500.00, 187500.00, -0.00, -0.00, -0.00
234, 179169.16, 187500.00, 187500.00, 187500.00, 183189.14, 187500.00, 187500.00, 187500.00, -0.00, -0.00, -0.00
235, 179169.34, 187500.00, 187500.00, 187500.00, 183196.70, 187500.00, 187500.00, 187500.00, -0.00, -0.00, -0.00
236, 179170.66, 187500.00, 187500.00, 187500.00, 183205.36, 187500.00, 187500.00, 187500.00, -0.00, -0.00, -0.00
237, 179172.42, 187500.00, 187500.00, 187500.00, 183214.42, 187500.00, 187500.00, 187500.00, -0.00, -0.00, -0.00
238, 179171.89, 187500.00, 187500.00, 187500.00, 183221.27, 187500.00, 187500.00, 187500.00, -0.00, -0.00, -0.00
239, 179171.33, 187500.00, 187500.00, 187500.00, 183228.06, 187500.00, 187500.00, 187500.00, -0.00, -0.00, -0.00
240, 179171.83, 187500.00, 187500.00, 187500.00, 183235.86, 187500.00, 187500.00, 187500.00, -0.00, -0.00, -0.00
241, 179172.00, 187500.00, 187500.00, 187500.00, 183243.13, 187500.00, 187500.00, 187500.00, -0.00, -0.00, -0.00
242, 179174.44, 187500.00, 187500.00, 187500.00, 183252.80, 187500.00, 187500.00, 187500.00, -0.00, -0.00, -0.00
243, 179176.14, 187500.00, 187500.00, 187500.00, 183261.75, 187500.00, 187500.00, 187500.00, -0.00, -0.00, -0.00
244, 179179.20, 187500.00, 187500.00, 187500.00, 183272.19, 187500.00, 187500.00, 187500.00, -0.00, -0.00, -0.00
245, 179182.03, 187500.00, 187500.00, 187500.00, 183282.27, 187500.00, 187500.00, 187500.00, -0.00, -0.00, -0.00
246, 179184.08, 187500.00, 187500.00, 187500.00, 183291.77, 187500.00, 187500.00, 187500.00, -0.00, -0.00, -0.00
247, 179185.86, 187500.00, 187500.00, 187500.00, 183301.02, 187500.00, 187500.00, 187500.00, -0.00, -0.00, -0.00
248, 179187.31, 187500.00, 187500.00, 187500.00, 183309.98, 187500.00, 187500.00, 187500.00, -0.00, -0.00, -0.00
249, 179188.98, 187500.00, 187500.00, 187500.00, 183319.08, 187500.00, 187500.00, 187500.00, -0.00, -0.00, -0.00
250, 179190.94, 187500.00, 187500.00, 187500.00, 183328.42, 187500.00, 187500.00, 187500.00, -0.00, -0.00, -0.00
251, 179192.70, 187500.00, 187500.00, 187500.00, 183337.73, 187500.00, 187500.00, 187500.00, -0.00, -0.00, -0.00
252, 179193.73, 187500.00, 187500.00, 187500.00, 183346.30, 187500.00, 187500.00, 187500.00, -0.00, -0.00, -0.00
253, 179194.88, 187500.00, 187500.00, 187500.00, 183354.91, 187500.00, 187500.00, 187500.00, -0.00, -0.00, -0.00
254, 179195.19, 187500.00, 187500.00, 187500.00, 183362.73, 187500.00, 187500.00, 187500.00, -0.00, -0.00, -0.00
255, 179196.14, 187500.00, 187500.00, 187500.00, 183371.22, 187500.00, 187500.00, 187500.00, -0.00, -0.00, -0.00
0, 179196.56, 187500.00, 187500.00, 187500.00, 183379.06, 187500.00, 187500.00, 187500.00, -0.00, -0.00, -0.00
1, 179197.66, 187500.00, 187500.00, 187500.00, 183387.58, 187500.00, 187500.00, 187500.00, -0.00, -0.00, -0.00
2, 179198.47, 187500.00, 187500.00, 187500.00, 183395.78, 187500.00, 187500.00, 187500.00, -0.00, -0.00, -0.00
3, 179201.11, 187500.00, 187500.00, 187500.00, 183405.84, 187500.00, 187500.00, 187500.00, -0.00, -0.00, -0.00
4, 179203.77, 187500.00, 187500.00, 187500.00, 183416.08, 187500.00, 187500.00, 187500.00, -0.00, -0.00, -0.00
5, 179204.28, 187500.00, 187500.00, 187500.00, 183424.06, 187500.00, 187500.00, 187500.00, -0.00, -0.00, -0.00
6, 179205.23, 187500.00, 187500.00, 187500.00, 183432.41, 187500.00, 187500.00, 187500.00, -0.00, -0.00, -0.00
7, 179203.61, 187500.00, 187500.00, 187500.00, 183438.39, 187500.00, 187500.00, 187500.00, -0.00, -0.00, -0.00
8, 179201.89, 187500.00, 187500.00, 187500.00, 183444.06, 187500.00, 187500.00, 187500.00, -0.00, -0.00, -0.00
9, 179201.11, 187500.00, 187500.00, 187500.00, 183450.58, 187500.00, 187500.00, 187500.00, -0.00, -0.00, -0.00
10, 179200.66, 187500.00, 187500.00, 187500.00, 183457.38, 187500.00, 187500.00, 187500.00, -0.00, -0.00, -0.00
11, 179202.27, 187500.00, 187500.00, 187500.00, 183466.31, 187500.00, 187500.00, 187500.00, -0.00, -0.00, -0.00
12, 179205.39, 187500.00, 187500.00, 187500.00, 183476.80, 187500.00, 187500.00, 187500.00, -0.00, -0.00, -0.00
13, 179206.42, 187500.00, 187500.00, 187500.00, 183485.08, 187500.00, 187500.00, 187500.00, -0.00, -0.00, -0.00
14, 179208.95, 187500.00, 187500.00, 187500.00, 183494.98, 187500.00, 187500.00, 187500.00, -0.00, -0.00, -0.00
15, 179208.70, 187500.00, 187500.00, 187500.00, 183502.25, 187500.00, 187500.00, 187500.00, -0.00, -0.00, -0.00
16, 179210.52, 187500.00, 187500.00, 187500.00, 183511.45, 187500.00, 187500.00, 187500.00, -0.00, -0.00, -0.00
17, 179213.20, 187500.00, 187500.00, 187500.00, 183521.61, 187500.00, 187500.00, 187500.00, -0.00, -0.00, -0.00
18, 179218.47, 187500.00, 187500.00, 187500.00, 183534.39, 187500.00, 187500.00, 187500.00, -0.00, -0.00, -0.00
19, 179221.67, 187500.00, 187500.00, 187500.00, 183545.14, 187500.00, 187500.00, 187500.00, -0.00, -0.00, -0.00
20, 179226.94, 187500.00, 187500.00, 187500.00, 183557.97, 187500.00, 187500.00, 187500.00, -0.00, -0.00, -0.00
21, 179231.33, 187500.00, 187500.00, 187500.00, 183570.02, 187500.00, 187500.00, 187500.00, -0.00, -0.00, -0.00
22, 179234.56, 187500.00, 187500.00, 187500.00, 183581.20, 187500.00, 187500.00, 187500.00, -0.00, -0.00, -0.00
23, 179241.16, 187500.00, 187500.00, 187500.00, 183595.45, 187500.00, 187500.00, 187500.00, -0.00, -0.00, -0.00
24, 179246.30, 187500.00, 187500.00, 187500.00, 183608.48, 187500.00, 187500.00, 187500.00, -0.00, -0.00, -0.00
25, 179252.25, 187500.00, 187500.00, 187500.00, 183622.61, 187500.00, 187500.00, 187500.00, -0.00, -0.00, -0.00
26, 179258.44, 187500.00, 187500.00, 187500.00, 183636.88, 187500.00, 187500.00, 187500.00, -0.00, -0.00, -0.00
27, 179264.36, 187500.00, 187500.00, 187500.00, 183651.09, 187500.00, 187500.00, 187500.00, -0.00, -0.00, -0.00
28, 179268.45, 187500.00, 187500.00, 187500.00, 183663.47, 187500.00, 187500.00, 187500.00, -0.00, -0.00, -0.00
29, 179269.81, 187500.00, 187500.00, 187500.00, 183673.13, 187500.00, 187500.00, 187500.00, -0.00, -0.00, -0.00
30, 179271.05, 187500.00, 187500.00, 187500.00, 183682.73, 187500.00, 187500.00, 187500.00, -0.00, -0.00, -0.00
31, 179269.08, 187500.00, 187500.00, 187500.00, 183689.02, 187500.00, 187500.00, 187500.00, -0.00, -0.00, -0.00
32, 179267.69, 187500.00, 187500.00, 187500.00, 183695.81, 187500.00, 187500.00, 187500.00, -0.00, -0.00, -0.00
33, 179268.73, 187500.00, 187500.00, 187500.00, 183705.06, 187500.00, 187500.00, 187500.00, -0.00, -0.00, -0.00
34, 179268.45, 187500.00, 187500.00, 187500.00, 183712.88, 187500.00, 187500.00, 187500.00, -0.00, -0.00, -0.00
35, 179267.75, 187500.00, 187500.00, 187500.00, 183720.30, 187500.00, 187500.00, 187500.00, -0.00, -0.00, -0.00
36, 179269.23, 187500.00, 187500.00, 187500.00, 183729.88, 187500.00, 187500.00, 187500.00, -0.00, -0.00, -0.00
37, 179274.42, 187500.00, 187500.00, 187500.00, 183743.09, 187500.00, 187500.00, 187500.00, -0.00, -0.00, -0.00
38, 179276.98, 187500.00, 187500.00, 187500.00, 183753.78, 187500.00, 187500.00, 187500.00, -0.00, -0.00, -0.00
39, 179278.84, 187500.00, 187500.00, 187500.00, 183763.66, 187500.00, 187500.00, 187500.00, -0.00, -0.00, -0.00
40, 179285.66, 187500.00, 187500.00, 187500.00, 183778.73, 187500.00, 187500.00, 187500.00, -0.00, -0.00, -0.00
41, 179291.73, 187500.00, 187500.00, 187500.00, 183793.05, 187500.00, 187500.00, 187500.00, -0.00, -0.00, -0.00
42, 179296.70, 187500.00, 187500.00, 187500.00, 183806.34, 187500.00, 187500.00, 187500.00, -0.00, -0.00, -0.00
43, 179299.05, 187500.00, 187500.00, 187500.00, 183817.19, 187500.00, 187500.00, 187500.00, -0.00, -0.00, -0.00
44, 179301.08, 187500.00, 187500.00, 187500.00, 183827.80, 187500.00, 187500.00, 187500.00, -0.00, -0.00, -0.00
45, 179304.97, 187500.00, 187500.00, 187500.00, 183840.08, 187500.00, 187500.00, 187500.00, -0.00, -0.00, -0.00
46, 179307.67, 187500.00, 187500.00, 187500.00, 183851.36, 187500.00, 187500.00, 187500.00, -0.00, -0.00, -0.00
47, 179307.61, 187500.00, 187500.00, 187500.00, 183859.92, 187500.00, 187500.00, 187500.00, -0.00, -0.00, -0.00
48, 179307.72, 187500.00, 187500.00, 187500.00, 183868.38, 187500.00, 187500.00, 187500.00, -0.00, -0.00, -0.00
49, 179309.22, 187500.00, 187500.00, 187500.00, 183878.25, 187500.00, 187500.00, 187500.00, -0.00, -0.00, -0.00
50, 179311.72, 187500.00, 187500.00, 187500.00, 183889.42, 187500.00, 187500.00, 187500.00, -0.00, -0.00, -0.00
51, 179313.31, 187500.00, 187500.00, 187500.00, 183899.50, 187500.00, 187500.00, 187500.00, -0.00, -0.00, -0.00
52, 179311.64, 187500.00, 187500.00, 187500.00, 183906.19, 187500.00, 187500.00, 187500.00, -0.00, -0.00, -0.00
53, 179312.27, 187500.00, 187500.00, 187500.00, 183915.25, 187500.00, 187500.00, 187500.00, -0.00, -0.00, -0.00
54, 179313.47, 187500.00, 187500.00, 187500.00, 183924.77, 187500.00, 187500.00, 187500.00, -0.00, -0.00, -0.00
55, 179316.44, 187500.00, 187500.00, 187500.00, 183936.20, 187500.00, 187500.00, 187500.00, -0.00, -0.00, -0.00
56, 179317.31, 187500.00, 187500.00, 187500.00, 183945.47, 187500.00, 187500.00, 187500.00, -0.00, -0.00, -0.00
57, 179316.55, 187500.00, 187500.00, 187500.00, 183953.08, 187500.00, 187500.00, 187500.00, -0.00, -0.00, -0.00
58, 179316.11, 187500.00, 187500.00, 187500.00, 183961.09, 187500.00, 187500.00, 187500.00, -0.00, -0.00, -0.00
59, 179315.34, 187500.00, 187500.00, 187500.00, 183968.63, 187500.00, 187500.00, 187500.00, -0.00, -0.00, -0.00
60, 179317.63, 187500.00, 187500.00, 187500.00, 183979.23, 187500.00, 187500.00, 187500.00, -0.00, -0.00, -0.00
61, 179319.23, 187500.00, 187500.00, 187500.00, 183989.19, 187500.00, 187500.00, 187500.00, -0.00, -0.00, -0.00
62, 179317.98, 187500.00, 187500.00, 187500.00, 183996.20, 187500.00, 187500.00, 187500.00, -0.00, -0.00, -0.00
63, 179318.16, 187500.00, 187500.00, 187500.00, 184004.66, 187500.00, 187500.00, 187500.00, -0.00, -0.00, -0.00
64, 179318.14, 187500.00, 187500.00, 187500.00, 184012.81, 187500.00, 187500.00, 187500.00, -0.00, -0.00, -0.00
65, 179318.42, 187500.00, 187500.00, 187500.00, 184021.19, 187500.00, 187500.00, 187500.00, -0.00, -0.00, -0.00
66, 179318.16, 187500.00, 187500.00, 187500.00, 184029.03, 187500.00, 187500.00, 187500.00, -0.00, -0.00, -0.00
67, 179319.33, 187500.00, 187500.00, 187500.00, 184038.38, 187500.00, 187500.00, 187500.00, -0.00, -0.00, -0.00
68, 179321.64, 187500.00, 187500.00, 187500.00, 184048.81, 187500.00, 187500.00, 187500.00, -0.00, -0.00, -0.00
69, 179320.08, 187500.00, 187500.00, 187500.00, 184055.28, 187500.00, 187500.00, 187500.00, -0.00, -0.00, -0.00
70, 179320.55, 187500.00, 187500.00, 187500.00, 184063.80, 187500.00, 187500.00, 187500.00, -0.00, -0.00, -0.00
71, 179323.75, 187500.00, 187500.00, 187500.00, 184075.17, 187500.00, 187500.00, 187500.00, -0.00, -0.00, -0.00
72, 179322.63, 187500.00, 187500.00, 187500.00, 184082.13, 187500.00, 187500.00, 187500.00, -0.00, -0.00, -0.00
73, 179320.16, 187500.00, 187500.00, 187500.00, 184087.70, 187500.00, 187500.00, 187500.00, -0.00, -0.00, -0.00
74, 179319.50, 187500.00, 187500.00, 187500.00, 184095.20, 187500.00, 187500.00, 187500.00, -0.00, -0.00, -0.00
75, 179319.91, 187500.00, 187500.00, 187500.00, 184103.59, 187500.00, 187500.00, 187500.00, -0.00, -0.00, -0.00
76, 179322.08, 187500.00, 187500.00, 187500.00, 184113.80, 187500.00, 187500.00, 187500.00, -0.00, -0.00, -0.00
77, 179322.67, 187500.00, 187500.00, 187500.00, 184122.41, 187500.00, 187500.00, 187500.00, -0.00, -0.00, -0.00
78, 179322.19, 187500.00, 187500.00, 187500.00, 184129.89, 187500.00, 187500.00, 187500.00, -0.00, -0.00, -0.00
79, 179322.03, 187500.00, 187500.00, 187500.00, 184137.78, 187500.00, 187500.00, 187500.00, -0.00, -0.00, -0.00
80, 179322.23, 187500.00, 187500.00, 187500.00, 184145.94, 187500.00, 187500.00, 187500.00, -0.00, -0.00, -0.00
81, 179322.88, 187500.00, 187500.00, 187500.00, 184154.16, 187500.00, 187500.00, 187500.00, -0.00, -0.00, -0.00
82, 179321.80, 187500.00, 187500.00, 187500.00, 184159.30, 187500.00, 187500.00, 187500.00, -0.00, -0.00, -0.00
83, 179319.75, 187500.00, 187500.00, 187500.00, 184162.67, 187500.00, 187500.00, 187500.00, -0.00, -0.00, -0.00
84, 179319.19, 187500.00, 187500.00, 187500.00, 184166.97, 187500.00, 187500.00, 187500.00, -0.00, -0.00, -0.00
85, 179317.73, 187500.00, 187500.00, 187500.00, 184175.19, 187500.00, 187500.00, 187500.00, -0.00, -0.00, -0.00
86, 179314.70, 187500.00, 187500.00, 187500.00, 184183.59, 187500.00, 187500.00, 187500.00, -0.00, -0.00, -0.00
87, 179312.59, 187500.00, 187500.00, 187500.00, 184190.19, 187500.00, 187500.00, 187500.00, -0.00, -0.00, -0.00
88, 179310.22, 187500.00, 187500.00, 187500.00, 184196.06, 187500.00, 187500.00, 187500.00, -0.00, -0.00, -0.00
89, 179309.95, 187500.00, 187500.00, 187500.00, 184203.63, 187500.00, 187500.00, 187500.00, -0.00, -0.00, -0.00
90, 179306.20, 187500.00, 187500.00, 187500.00, 184207.56, 187500.00, 187500.00, 187500.00, -0.00, -0.00, -0.00
91, 179304.86, 187500.00, 187500.00, 187500.00, 184213.75, 187500.00, 187500.00, 187500.00, -0.00, -0.00, -0.00
92, 179302.58, 187500.00, 187500.00, 187500.00, 184218.94, 187500.00, 187500.00, 187500.00, -0.00, -0.00, -0.00
93, 179300.80, 187500.00, 187500.00, 187500.00, 184224.44, 187500.00, 187500.00, 187500.00, -0.00, -0.00, -0.00
94, 179300.50, 187500.00, 187500.00, 187500.00, 184231.34, 187500.00, 187500.00, 187500.00, -0.00, -0.00, -0.00
95, 179298.83, 187500.00, 187500.00, 187500.00, 184236.86, 187500.00, 187500.00, 187500.00, -0.00, -0.00, -0.00
96, 179299.39, 187500.00, 187500.00, 187500.00, 184244.78, 187500.00, 187500.00, 187500.00, -0.00, -0.00, -0.00
97, 179298.56, 187500.00, 187500.00, 187500.00, 184251.14, 187500.00, 187500.00, 187500.00, -0.00, -0.00, -0.00
98, 179299.19, 187500.00, 187500.00, 187500.00, 184259.11, 187500.00, 187500.00, 187500.00, -0.00, -0.00, -0.00
99, 179298.17, 187500.00, 187500.00, 187500.00, 184265.36, 187500.00, 187500.00, 187500.00, -0.00, -0.00, -0.00
100, 179297.94, 187500.00, 187500.00, 187500.00, 184272.25, 187500.00, 187500.00, 187500.00, -0.00, -0.00, -0.00
101, 179297.34, 187500.00, 187500.00, 187500.00, 184278.92, 187500.00, 187500.00, 187500.00, -0.00, -0.00, -0.00
102, 179299.00, 187500.00, 187500.00, 187500.00, 184287.75, 187500.00, 187500.00, 187500.00, -0.00, -0.00, -0.00
103, 179299.58, 187500.00, 187500.00, 187500.00, 184295.63, 187500.00, 187500.00, 187500.00, -0.00, -0.00, -0.00
104, 179299.27, 187500.00, 187500.00, 187500.00, 184302.52, 187500.00, 187500.00, 187500.00, -0.00, -0.00, -0.00
105, 179299.11, 187500.00, 187500.00, 187500.00, 184309.58, 187500.00, 187500.00, 187500.00, -0.00, -0.00, -0.00
106, 179300.86, 187500.00, 187500.00, 187500.00, 184318.61, 187500.00, 187500.00, 187500.00, -0.00, -0.00, -0.00
107, 179301.75, 187500.00, 187500.00, 187500.00, 184326.88, 187500.00, 187500.00, 187500.00, -0.00, -0.00, -0.00
108, 179302.05, 187500.00, 187500.00, 187500.00, 184334.50, 187500.00, 187500.00, 187500.00, -0.00, -0.00, -0.00
109, 179301.89, 187500.00, 187500.00, 187500.00, 184341.69, 187500.00, 187500.00, 187500.00, -0.00, -0.00, -0.00
110, 179298.48, 187500.00, 187500.00, 187500.00, 184345.53, 187500.00, 187500.00, 187500.00, -0.00, -0.00, -0.00
111, 179297.16, 187500.00, 187500.00, 187500.00, 184351.44, 187500.00, 187500.00, 187500.00, -0.00, -0.00, -0.00
112, 179296.50, 187500.00, 187500.00, 187500.00, 184357.92, 187500.00, 187500.00, 187500.00, -0.00, -0.00, -0.00
113, 179294.64, 187500.00, 187500.00, 187500.00, 184363.39, 187500.00, 187500.00, 187500.00, -0.00, -0.00, -0.00
114, 179294.88, 187500.00, 187500.00, 187500.00, 184370.73, 187500.00, 187500.00, 187500.00, -0.00, -0.00, -0.00
115, 179295.50, 187500.00, 187500.00, 187500.00, 184378.38, 187500.00, 187500.00, 187500.00, -0.00, -0.00, -0.00
116, 179295.78, 187500.00, 187500.00, 187500.00, 184385.81, 187500.00, 187500.00, 187500.00, -0.00, -0.00, -0.00
117, 179294.72, 187500.00, 187500.00, 187500.00, 184391.88, 187500.00, 187500.00, 187500.00, -0.00, -0.00, -0.00
118, 179292.72, 187500.00, 187500.00, 187500.00, 184397.06, 187500.00, 187500.00, 187500.00, -0.00, -0.00, -0.00
119, 179288.95, 187500.00, 187500.00, 187500.00, 184400.28, 187500.00, 187500.00, 187500.00, -0.00, -0.00, -0.00
120, 179288.72, 187500.00, 187500.00, 187500.00, 184407.09, 187500.00, 187500.00, 187500.00, -0.00, -0.00, -0.00
121, 179286.75, 187500.00, 187500.00, 187500.00, 184412.08, 187500.00, 187500.00, 187500.00, -0.00, -0.00, -0.00
122, 179285.22, 187500.00, 187500.00, 187500.00, 184417.44, 187500.00, 187500.00, 187500.00, -0.00, -0.00, -0.00
123, 179287.69, 187500.00, 187500.00, 187500.00, 184426.88, 187500.00, 187500.00, 187500.00, -0.00, -0.00, -0.00
124, 179288.81, 187500.00, 187500.00, 187500.00, 184434.91, 187500.00, 187500.00, 187500.00, -0.00, -0.00, -0.00
125, 179288.61, 187500.00, 187500.00, 187500.00, 184441.63, 187500.00, 187500.00, 187500.00, -0.00, -0.00, -0.00
126, 179289.11, 187500.00, 187500.00, 187500.00, 184449.03, 187500.00, 187500.00, 187500.00, -0.00, -0.00, -0.00
127, 179289.84, 187500.00, 187500.00, 187500.00, 184456.84, 187500.00, 187500.00, 187500.00, -0.00, -0.00, -0.00
128, 179291.53, 187500.00, 187500.00, 187500.00, 184465.50, 187500.00, 187500.00, 187500.00, -0.00, -0.00, -0.00
129, 179289.84, 187500.00, 187500.00, 187500.00, 184470.75, 187500.00, 187500.00, 187500.00, -0.00, -0.00, -0.00
130, 179288.34, 187500.00, 187500.00, 187500.00, 184476.27, 187500.00, 187500.00, 187500.00, -0.00, -0.00, -0.00
131, 179288.61, 187500.00, 187500.00, 187500.00, 184483.47, 187500.00, 187500.00, 187500.00, -0.00, -0.00, -0.00
132, 179286.78, 187500.00, 187500.00, 187500.00, 184488.77, 187500.00, 187500.00, 187500.00, -0.00, -0.00, -0.00
133, 179287.50, 187500.00, 187500.00, 187500.00, 184496.44, 187500.00, 187500.00, 187500.00, -0.00, -0.00, -0.00
134, 179287.53, 187500.00, 187500.00, 187500.00, 184503.34, 187500.00, 187500.00, 187500.00, -0.00, -0.00, -0.00
135, 179287.20, 187500.00, 187500.00, 187500.00, 184509.89, 187500.00, 187500.00, 187500.00, -0.00, -0.00, -0.00
136, 179289.02, 187500.00, 187500.00, 187500.00, 184518.63, 187500.00, 187500.00, 187500.00, -0.00, -0.00, -0.00
137, 179290.44, 187500.00, 187500.00, 187500.00, 184526.94, 187500.00, 187500.00, 187500.00, -0.00, -0.00, -0.00
138, 179290.59, 187500.00, 187500.00, 187500.00, 184534.09, 187500.00, 187500.00, 187500.00, -0.00, -0.00, -0.00
139, 179291.41, 187500.00, 187500.00, 187500.00, 184542.02, 187500.00, 187500.00, 187500.00, -0.00, -0.00, -0.00
140, 179291.50, 187500.00, 187500.00, 187500.00, 184549.19, 187500.00, 187500.00, 187500.00, -0.00, -0.00, -0.00
141, 179291.52, 187500.00, 187500.00, 187500.00, 184556.14, 187500.00, 187500.00, 187500.00, -0.00, -0.00, -0.00
142, 179292.05, 187500.00, 187500.00, 187500.00, 184563.58, 187500.00, 187500.00, 187500.00, -0.00, -0.00, -0.00
143, 179292.66, 187500.00, 187500.00, 187500.00, 184571.11, 187500.00, 187500.00, 187500.00, -0.00, -0.00, -0.00
144, 179291.92, 187500.00, 187500.00, 187500.00, 184577.30, 187500.00, 187500.00, 187500.00, -0.00, -0.00, -0.00
145, 179290.98, 187500.00, 187500.00, 187500.00, 184583.31, 187500.00, 187500.00, 187500.00, -0.00, -0.00, -0.00
146, 179290.75, 187500.00, 187500.00, 187500.00, 184590.05, 187500.00, 187500.00, 187500.00, -0.00, -0.00, -0.00
147, 179291.53, 187500.00, 187500.00, 187500.00, 184597.75, 187500.00, 187500.00, 187500.00, -0.00, -0.00, -0.00
148, 179286.59, 187500.00, 187500.00, 187500.00, 184599.72, 187500.00, 187500.00, 187500.00, -0.00, -0.00, -0.00
149, 179282.89, 187500.00, 187500.00, 187500.00, 184602.84, 187500.00, 187500.00, 187500.00, -0.00, -0.00, -0.00
150, 179284.61, 187500.00, 187500.00, 187500.00, 184611.30, 187500.00, 187500.00, 187500.00, -0.00, -0.00, -0.00
151, 179284.47, 187500.00, 187500.00, 187500.00, 184617.80, 187500.00, 187500.00, 187500.00, -0.00, -0.00, -0.00
152, 179282.59, 187500.00, 187500.00, 187500.00, 184622.67, 187500.00, 187500.00, 187500.00, -0.00, -0.00, -0.00
153, 179279.63, 187500.00, 187500.00, 187500.00, 184626.55, 187500.00, 187500.00, 187500.00, -0.00, -0.00, -0.00
154, 179278.78, 187500.00, 187500.00, 187500.00, 184632.47, 187500.00, 187500.00, 187500.00, -0.00, -0.00, -0.00
155, 179277.77, 187500.00, 187500.00, 187500.00, 184638.08, 187500.00, 187500.00, 187500.00, -0.00, -0.00, -0.00
156, 179277.50, 187500.00, 187500.00, 187500.00, 184644.41, 187500.00, 187500.00, 187500.00, -0.00, -0.00, -0.00
157, 179273.95, 187500.00, 187500.00, 187500.00, 184647.44, 187500.00, 187500.00, 187500.00, -0.00, -0.00, -0.00
158, 179272.56, 187500.00, 187500.00, 187500.00, 184652.67, 187500.00, 187500.00, 187500.00, -0.00, -0.00, -0.00
159, 179273.41, 187500.00, 187500.00, 187500.00, 184660.11, 187500.00, 187500.00, 187500.00, -0.00, -0.00, -0.00
160, 179272.11, 187500.00, 187500.00, 187500.00, 184665.61, 187500.00, 187500.00, 187500.00, -0.00, -0.00, -0.00
161, 179271.25, 187500.00, 187500.00, 187500.00, 184671.16, 187500.00, 187500.00, 187500.00, -0.00, -0.00, -0.00
162, 179273.86, 187500.00, 187500.00, 187500.00, 184680.25, 187500.00, 187500.00, 187500.00, -0.00, -0.00, -0.00
163, 179272.97, 187500.00, 187500.00, 187500.00, 184686.16, 187500.00, 187500.00, 187500.00, -0.00, -0.00, -0.00
164, 179272.25, 187500.00, 187500.00, 187500.00, 184692.09, 187500.00, 187500.00, 187500.00, -0.00, -0.00, -0.00
165, 179273.23, 187500.00, 187500.00, 187500.00, 184699.66, 187500.00, 187500.00, 187500.00, -0.00, -0.00, -0.00
166, 179272.98, 187500.00, 187500.00, 187500.00, 184706.05, 187500.00, 187500.00, 187500.00, -0.00, -0.00, -0.00
167, 179268.58, 187500.00, 187500.00, 187500.00, 184708.23, 187500.00, 187500.00, 187500.00, -0.00, -0.00, -0.00
168, 179267.56, 187500.00, 187500.00, 187500.00, 184713.78, 187500.00, 187500.00, 187500.00, -0.00, -0.00, -0.00
169, 179265.48, 187500.00, 187500.00, 187500.00, 184718.08, 187500.00, 187500.00, 187500.00, -0.00, -0.00, -0.00
170, 179259.52, 187500.00, 187500.00, 187500.00, 184718.63, 187500.00, 187500.00, 187500.00, -0.00, -0.00, -0.00
171, 179256.69, 187500.00, 187500.00, 187500.00, 184722.16, 187500.00, 187500.00, 187500.00, -0.00, -0.00, -0.00
172, 179255.38, 187500.00, 187500.00, 187500.00, 184727.02, 187500.00, 187500.00, 187500.00, -0.00, -0.00, -0.00
173, 179255.27, 187500.00, 187500.00, 187500.00, 184733.08, 187500.00, 187500.00, 187500.00, -0.00, -0.00, -0.00
174, 179256.06, 187500.00, 187500.00, 187500.00, 184740.11, 187500.00, 187500.00, 187500.00, -0.00, -0.00, -0.00
175, 179256.31, 187500.00, 187500.00, 187500.00, 184746.58, 187500.00, 187500.00, 187500.00, -0.00, -0.00, -0.00
176, 179257.44, 187500.00, 187500.00, 187500.00, 184753.98, 187500.00, 187500.00, 187500.00, -0.00, -0.00, -0.00
177, 179257.70, 187500.00, 187500.00, 187500.00, 184760.66, 187500.00, 187500.00, 187500.00, -0.00, -0.00, -0.00
178, 179257.94, 187500.00, 187500.00, 187500.00, 184767.25, 187500.00, 187500.00, 187500.00, -0.00, -0.00, -0.00
179, 179257.25, 187500.00, 187500.00, 187500.00, 184772.80, 187500.00, 187500.00, 187500.00, -0.00, -0.00, -0.00
180, 179256.83, 187500.00, 187500.00, 187500.00, 184778.83, 187500.00, 187500.00, 187500.00, -0.00, -0.00, -0.00
181, 179257.16, 187500.00, 187500.00, 187500.00, 184785.47, 187500.00, 187500.00, 187500.00, -0.00, -0.00, -0.00
182, 179257.36, 187500.00, 187500.00, 187500.00, 184791.91, 187500.00, 187500.00, 187500.00, -0.00, -0.00, -0.00
183, 179255.02, 187500.00, 187500.00, 187500.00, 184795.80, 187500.00, 187500.00, 187500.00, -0.00, -0.00, -0.00
184, 179255.27, 187500.00, 187500.00, 187500.00, 184802.45, 187500.00, 187500.00, 187500.00, -0.00, -0.00, -0.00
185, 179255.48, 187500.00, 187500.00, 187500.00, 184808.95, 187500.00, 187500.00, 187500.00, -0.00, -0.00, -0.00
186, 179256.48, 187500.00, 187500.00, 187500.00, 184816.28, 187500.00, 187500.00, 187500.00, -0.00, -0.00, -0.00
187, 179257.39, 187500.00, 187500.00, 187500.00, 184823.47, 187500.00, 187500.00, 187500.00, -0.00, -0.00, -0.00
188, 179259.08, 187500.00, 187500.00, 187500.00, 184831.55, 187500.00, 187500.00, 187500.00, -0.00, -0.00, -0.00
189, 179259.95, 187500.00, 187500.00, 187500.00, 184838.92, 187500.00, 187500.00, 187500.00, -0.00, -0.00, -0.00
190, 179261.86, 187500.00, 187500.00, 187500.00, 184847.17, 187500.00, 187500.00, 187500.00, -0.00, -0.00, -0.00
191, 179262.17, 187500.00, 187500.00, 187500.00, 184853.92, 187500.00, 187500.00, 187500.00, -0.00, -0.00, -0.00
192, 179261.41, 187500.00, 187500.00, 187500.00, 184859.73, 187500.00, 187500.00, 187500.00, -0.00, -0.00, -0.00
193, 179258.44, 187500.00, 187500.00, 187500.00, 184863.27, 187500.00, 187500.00, 187500.00, -0.00, -0.00, -0.00
194, 179256.92, 187500.00, 187500.00, 187500.00, 184868.23, 187500.00, 187500.00, 187500.00, -0.00, -0.00, -0.00
195, 179255.08, 187500.00, 187500.00, 187500.00, 184872.69, 187500.00, 187500.00, 187500.00, -0.00, -0.00, -0.00
196, 179253.98, 187500.00, 187500.00, 187500.00, 184878.00, 187500.00, 187500.00, 187500.00, -0.00, -0.00, -0.00
197, 179250.69, 187500.00, 187500.00, 187500.00, 184880.91, 187500.00, 187500.00, 187500.00, -0.00, -0.00, -0.00
198, 179249.16, 187500.00, 187500.00, 187500.00, 184885.52, 187500.00, 187500.00, 187500.00, -0.00, -0.00, -0.00
199, 179249.47, 187500.00, 187500.00, 187500.00, 184892.11, 187500.00, 187500.00, 187500.00, -0.00, -0.00, -0.00
200, 179250.17, 187500.00, 187500.00, 187500.00, 184899.17, 187500.00, 187500.00, 187500.00, -0.00, -0.00, -0.00
201, 179249.31, 187500.00, 187500.00, 187500.00, 184904.44, 187500.00, 187500.00, 187500.00, -0.00, -0.00, -0.00
202, 179248.20, 187500.00, 187500.00, 187500.00, 184909.58, 187500.00, 187500.00, 187500.00, -0.00, -0.00, -0.00
203, 179248.33, 187500.00, 187500.00, 187500.00, 184915.84, 187500.00, 187500.00, 187500.00, -0.00, -0.00, -0.00
204, 179247.06, 187500.00, 187500.00, 187500.00, 184920.69, 187500.00, 187500.00, 187500.00, -0.00, -0.00, -0.00
205, 179246.41, 187500.00, 187500.00, 187500.00, 184926.23, 187500.00, 187500.00, 187500.00, -0.00, -0.00, -0.00
206, 179243.69, 187500.00, 187500.00, 187500.00, 184929.61, 187500.00, 187500.00, 187500.00, -0.00, -0.00, -0.00
207, 179241.38, 187500.00, 187500.00, 187500.00, 184933.36, 187500.00, 187500.00, 187500.00, -0.00, -0.00, -0.00
208, 179242.16, 187500.00, 187500.00, 187500.00, 184940.23, 187500.00, 187500.00, 187500.00, -0.00, -0.00, -0.00
209, 179241.66, 187500.00, 187500.00, 187500.00, 184945.88, 187500.00, 187500.00, 187500.00, -0.00, -0.00, -0.00
210, 179241.83, 187500.00, 187500.00, 187500.00, 184952.20, 187500.00, 187500.00, 187500.00, -0.00, -0.00, -0.00
211, 179242.98, 187500.00, 187500.00, 187500.00, 184959.47, 187500.00, 187500.00, 187500.00, -0.00, -0.00, -0.00
212, 179246.70, 187500.00, 187500.00, 187500.00, 184969.16, 187500.00, 187500.00, 187500.00, -0.00, -0.00, -0.00
213, 179248.16, 187500.00, 187500.00, 187500.00, 184976.75, 187500.00, 187500.00, 187500.00, -0.00, -0.00, -0.00
214, 179249.09, 187500.00, 187500.00, 187500.00, 184983.86, 187500.00, 187500.00, 187500.00, -0.00, -0.00, -0.00
215, 179253.47, 187500.00, 187500.00, 187500.00, 184994.55, 187500.00, 187500.00, 187500.00, -0.00, -0.00, -0.00
216, 179253.47, 187500.00, 187500.00, 187500.00, 185001.05, 187500.00, 187500.00, 187500.00, -0.00, -0.00, -0.00
217, 179249.78, 187500.00, 187500.00, 187500.00, 185003.66, 187500.00, 187500.00, 187500.00, -0.00, -0.00, -0.00
218, 179249.66, 187500.00, 187500.00, 187500.00, 185009.83, 187500.00, 187500.00, 187500.00, -0.00, -0.00, -0.00
219, 179247.75, 187500.00, 187500.00, 187500.00, 185014.09, 187500.00, 187500.00, 187500.00, -0.00, -0.00, -0.00
220, 179249.31, 187500.00, 187500.00, 187500.00, 185021.83, 187500.00, 187500.00, 187500.00, -0.00, -0.00, -0.00
221, 179249.27, 187500.00, 187500.00, 187500.00, 185027.83, 187500.00, 187500.00, 187500.00, -0.00, -0.00, -0.00
222, 179247.03, 187500.00, 187500.00, 187500.00, 185031.84, 187500.00, 187500.00, 187500.00, -0.00, -0.00, -0.00
223, 179245.42, 187500.00, 187500.00, 187500.00, 185036.47, 187500.00, 187500.00, 187500.00, -0.00, -0.00, -0.00
224, 179244.17, 187500.00, 187500.00, 187500.00, 185041.22, 187500.00, 187500.00, 187500.00, -0.00, -0.00, -0.00
225, 179241.84, 187500.00, 187500.00, 187500.00, 185044.94, 187500.00, 187500.00, 187500.00, -0.00, -0.00, -0.00
226, 179240.72, 187500.00, 187500.00, 187500.00, 185049.84, 187500.00, 187500.00, 187500.00, -0.00, -0.00, -0.00
227, 179238.25, 187500.00, 187500.00, 187500.00, 185053.30, 187500.00, 187500.00, 187500.00, -0.00, -0.00, -0.00
228, 179236.48, 187500.00, 187500.00, 187500.00, 185057.53, 187500.00, 187500.00, 187500.00, -0.00, -0.00, -0.00
229, 179234.30, 187500.00, 187500.00, 187500.00, 185061.28, 187500.00, 187500.00, 187500.00, -0.00, -0.00, -0.00
230, 179234.91, 187500.00, 187500.00, 187500.00, 185067.75, 187500.00, 187500.00, 187500.00, -0.00, -0.00, -0.00
231, 179238.20, 187500.00, 187500.00, 187500.00, 185076.89, 187500.00, 187500.00, 187500.00, -0.00, -0.00, -0.00
232, 179237.47, 187500.00, 187500.00, 187500.00, 185082.03, 187500.00, 187500.00, 187500.00, -0.00, -0.00, -0.00
233, 179240.44, 187500.00, 187500.00, 187500.00, 185090.94, 187500.00, 187500.00, 187500.00, -0.00, -0.00, -0.00
234, 179241.97, 187500.00, 187500.00, 187500.00, 185098.48, 187500.00, 187500.00, 187500.00, -0.00, -0.00, -0.00
235, 179244.58, 187500.00, 187500.00, 187500.00, 185107.13, 187500.00, 187500.00, 187500.00, -0.00, -0.00, -0.00
236, 179245.34, 187500.00, 187500.00, 187500.00, 185114.09, 187500.00, 187500.00, 187500.00, -0.00, -0.00, -0.00
237, 179245.36, 187500.00, 187500.00, 187500.00, 185120.36, 187500.00, 187500.00, 187500.00, -0.00, -0.00, -0.00
238, 179245.66, 187500.00, 187500.00, 187500.00, 185126.94, 187500.00, 187500.00, 187500.00, -0.00, -0.00, -0.00
239, 179247.11, 187500.00, 187500.00, 187500.00, 185134.55, 187500.00, 187500.00, 187500.00, -0.00, -0.00, -0.00
240, 179249.41, 187500.00, 187500.00, 187500.00, 185143.03, 187500.00, 187500.00, 187500.00, -0.00, -0.00, -0.00
241, 179252.63, 187500.00, 187500.00, 187500.00, 185152.41, 187500.00, 187500.00, 187500.00, -0.00, -0.00, -0.00
242, 179253.72, 187500.00, 187500.00, 187500.00, 185159.72, 187500.00, 187500.00, 187500.00, -0.00, -0.00, -0.00
243, 179256.45, 187500.00, 187500.00, 187500.00, 185168.81, 187500.00, 187500.00, 187500.00, -0.00, -0.00, -0.00
244, 179255.44, 187500.00, 187500.00, 187500.00, 185174.16, 187500.00, 187500.00, 187500.00, -0.00, -0.00, -0.00
245, 179256.95, 187500.00, 187500.00, 187500.00, 185182.16, 187500.00, 187500.00, 187500.00, -0.00, -0.00, -0.00
246, 179259.63, 187500.00, 187500.00, 187500.00, 185191.27, 187500.00, 187500.00, 187500.00, -0.00, -0.00, -0.00
247, 179258.44, 187500.00, 187500.00, 187500.00, 185196.48, 187500.00, 187500.00, 187500.00, -0.00, -0.00, -0.00
248, 179259.58, 187500.00, 187500.00, 187500.00, 185203.84, 187500.00, 187500.00, 187500.00, -0.00, -0.00, -0.00
249, 179262.23, 187500.00, 187500.00, 187500.00, 185212.84, 187500.00, 187500.00, 187500.00, -0.00, -0.00, -0.00
250, 179263.13, 187500.00, 187500.00, 187500.00, 185220.09, 187500.00, 187500.00, 187500.00, -0.00, -0.00, -0.00
251, 179264.52, 187500.00, 187500.00, 187500.00, 185228.00, 187500.00, 187500.00, 187500.00, -0.00, -0.00, -0.00
252, 179264.56, 187500.00, 187500.00, 187500.00, 185234.55, 187500.00, 187500.00, 187500.00, -0.00, -0.00, -0.00
253, 179265.88, 187500.00, 187500.00, 187500.00, 185242.20, 187500.00, 187500.00, 187500.00, -0.00, -0.00, -0.00
254, 179266.14, 187500.00, 187500.00, 187500.00, 185248.88, 187500.00, 187500.00, 187500.00, -0.00, -0.00, -0.00
255, 179267.59, 187500.00, 187500.00, 187500.00, 185256.86, 187500.00, 187500.00, 187500.00, -0.00, -0.00, -0.00
0, 179268.30, 187500.00, 187500.00, 187500.00, 185263.97, 187500.00, 187500.00, 187500.00, -0.00, -0.00, -0.00
1, 179267.48, 187500.00, 187500.00, 187500.00, 185269.67, 187500.00, 187500.00, 187500.00, -0.00, -0.00, -0.00
2, 179265.64, 187500.00, 187500.00, 187500.00, 185274.25, 187500.00, 187500.00, 187500.00, -0.00, -0.00, -0.00
3, 179268.61, 187500.00, 187500.00, 187500.00, 185283.64, 187500.00, 187500.00, 187500.00, -0.00, -0.00, -0.00
4, 179269.61, 187500.00, 187500.00, 187500.00, 185291.06, 187500.00, 187500.00, 187500.00, -0.00, -0.00, -0.00
5, 179268.72, 187500.00, 187500.00, 187500.00, 185296.58, 187500.00, 187500.00, 187500.00, -0.00, -0.00, -0.00
6, 179268.88, 187500.00, 187500.00, 187500.00, 185303.08, 187500.00, 187500.00, 187500.00, -0.00, -0.00, -0.00
7, 179267.33, 187500.00, 187500.00, 187500.00, 185308.11, 187500.00, 187500.00, 187500.00, -0.00, -0.00, -0.00
8, 179267.05, 187500.00, 187500.00, 187500.00, 185314.34, 187500.00, 187500.00, 187500.00, -0.00, -0.00, -0.00
9, 179266.70, 187500.00, 187500.00, 187500.00, 185320.41, 187500.00, 187500.00, 187500.00, -0.00, -0.00, -0.00
10, 179265.08, 187500.00, 187500.00, 187500.00, 185325.08, 187500.00, 187500.00, 187500.00, -0.00, -0.00, -0.00
11, 179266.33, 187500.00, 187500.00, 187500.00, 185332.59, 187500.00, 187500.00, 187500.00, -0.00, -0.00, -0.00
12, 179268.41, 187500.00, 187500.00, 187500.00, 185341.13, 187500.00, 187500.00, 187500.00, -0.00, -0.00, -0.00
13, 179267.83, 187500.00, 187500.00, 187500.00, 185346.88, 187500.00, 187500.00, 187500.00, -0.00, -0.00, -0.00
14, 179266.75, 187500.00, 187500.00, 187500.00, 185352.08, 187500.00, 187500.00, 187500.00, -0.00, -0.00, -0.00
15, 179265.19, 187500.00, 187500.00, 187500.00, 185356.91, 187500.00, 187500.00, 187500.00, -0.00, -0.00, -0.00
16, 179263.59, 187500.00, 187500.00, 187500.00, 185361.77, 187500.00, 187500.00, 187500.00, -0.00, -0.00, -0.00
17, 179263.42, 187500.00, 187500.00, 187500.00, 185367.84, 187500.00, 187500.00, 187500.00, -0.00, -0.00, -0.00
18, 179261.63, 187500.00, 187500.00, 187500.00, 185372.20, 187500.00, 187500.00, 187500.00, -0.00, -0.00, -0.00
19, 179259.95, 187500.00, 187500.00, 187500.00, 185376.73, 187500.00, 187500.00, 187500.00, -0.00, -0.00, -0.00
20, 179258.53, 187500.00, 187500.00, 187500.00, 185381.41, 187500.00, 187500.00, 187500.00, -0.00, -0.00, -0.00
21, 179260.11, 187500.00, 187500.00, 187500.00, 185389.14, 187500.00, 187500.00, 187500.00, -0.00, -0.00, -0.00
22, 179257.20, 187500.00, 187500.00, 187500.00, 185392.38, 187500.00, 187500.00, 187500.00, -0.00, -0.00, -0.00
23, 179255.59, 187500.00, 187500.00, 187500.00, 185396.83, 187500.00, 187500.00, 187500.00, -0.00, -0.00, -0.00
24, 179253.70, 187500.00, 187500.00, 187500.00, 185400.86, 187500.00, 187500.00, 187500.00, -0.00, -0.00, -0.00
25, 179254.02, 187500.00, 187500.00, 187500.00, 185407.33, 187500.00, 187500.00, 187500.00, -0.00, -0.00, -0.00
26, 179252.67, 187500.00, 187500.00, 187500.00, 185411.89, 187500.00, 187500.00, 187500.00, -0.00, -0.00, -0.00
27, 179250.02, 187500.00, 187500.00, 187500.00, 185415.09, 187500.00, 187500.00, 187500.00, -0.00, -0.00, -0.00
28, 179250.55, 187500.00, 187500.00, 187500.00, 185421.61, 187500.00, 187500.00, 187500.00, -0.00, -0.00, -0.00
29, 179252.05, 187500.00, 187500.00, 187500.00, 185429.06, 187500.00, 187500.00, 187500.00, -0.00, -0.00, -0.00
30, 179251.69, 187500.00, 187500.00, 187500.00, 185434.73, 187500.00, 187500.00, 187500.00, -0.00, -0.00, -0.00
31, 179251.95, 187500.00, 187500.00, 187500.00, 185440.86, 187500.00, 187500.00, 187500.00, -0.00, -0.00, -0.00
32, 179254.09, 187500.00, 187500.00, 187500.00, 185448.97, 187500.00, 187500.00, 187500.00, -0.00, -0.00, -0.00
33, 179256.22, 187500.00, 187500.00, 187500.00, 185457.20, 187500.00, 187500.00, 187500.00, -0.00, -0.00, -0.00
34, 179256.27, 187500.00, 187500.00, 187500.00, 185463.33, 187500.00, 187500.00, 187500.00, -0.00, -0.00, -0.00
35, 179257.66, 187500.00, 187500.00, 187500.00, 185470.67, 187500.00, 187500.00, 187500.00, -0.00, -0.00, -0.00
36, 179257.83, 187500.00, 187500.00, 187500.00, 185476.89, 187500.00, 187500.00, 187500.00, -0.00, -0.00, -0.00
37, 179259.27, 187500.00, 187500.00, 187500.00, 185484.48, 187500.00, 187500.00, 187500.00, -0.00, -0.00, -0.00
38, 179261.67, 187500.00, 187500.00, 187500.00, 185492.98, 187500.00, 187500.00, 187500.00, -0.00, -0.00, -0.00
39, 179262.77, 187500.00, 187500.00, 187500.00, 185500.16, 187500.00, 187500.00, 187500.00, -0.00, -0.00, -0.00
40, 179264.81, 187500.00, 187500.00, 187500.00, 185508.34, 187500.00, 187500.00, 187500.00, -0.00, -0.00, -0.00
41, 179266.38, 187500.00, 187500.00, 187500.00, 185516.09, 187500.00, 187500.00, 187500.00, -0.00, -0.00, -0.00
42, 179267.42, 187500.00, 187500.00, 187500.00, 185523.36, 187500.00, 187500.00, 187500.00, -0.00, -0.00, -0.00
43, 179268.30, 187500.00, 187500.00, 187500.00, 185530.47, 187500.00, 187500.00, 187500.00, -0.00, -0.00, -0.00
44, 179271.13, 187500.00, 187500.00, 187500.00, 185539.55, 187500.00, 187500.00, 187500.00, -0.00, -0.00, -0.00
45, 179272.81, 187500.00, 187500.00, 187500.00, 185547.61, 187500.00, 187500.00, 187500.00, -0.00, -0.00, -0.00
46, 179271.17, 187500.00, 187500.00, 187500.00, 185552.28, 187500.00, 187500.00, 187500.00, -0.00, -0.00, -0.00
47, 179269.39, 187500.00, 187500.00, 187500.00, 185556.75, 187500.00, 187500.00, 187500.00, -0.00, -0.00, -0.00
48, 179269.50, 187500.00, 187500.00, 187500.00, 185563.23, 187500.00, 187500.00, 187500.00, -0.00, -0.00, -0.00
49, 179271.05, 187500.00, 187500.00, 187500.00, 185571.02, 187500.00, 187500.00, 187500.00, -0.00, -0.00, -0.00
50, 179270.55, 187500.00, 187500.00, 187500.00, 185576.77, 187500.00, 187500.00, 187500.00, -0.00, -0.00, -0.00
51, 179269.80, 187500.00, 187500.00, 187500.00, 185582.13, 187500.00, 187500.00, 187500.00, -0.00, -0.00, -0.00
52, 179269.59, 187500.00, 187500.00, 187500.00, 185588.11, 187500.00, 187500.00, 187500.00, -0.00, -0.00, -0.00
53, 179270.06, 187500.00, 187500.00, 187500.00, 185594.89, 187500.00, 187500.00, 187500.00, -0.00, -0.00, -0.00
54, 179268.66, 187500.00, 187500.00, 187500.00, 185599.64, 187500.00, 187500.00, 187500.00, -0.00, -0.00, -0.00
55, 179265.67, 187500.00, 187500.00, 187500.00, 185602.80, 187500.00, 187500.00, 187500.00, -0.00, -0.00, -0.00
56, 179264.27, 187500.00, 187500.00, 187500.00, 185607.38, 187500.00, 187500.00, 187500.00, -0.00, -0.00, -0.00
57, 179263.52, 187500.00, 187500.00, 187500.00, 185612.70, 187500.00, 187500.00, 187500.00, -0.00, -0.00, -0.00
58, 179263.88, 187500.00, 187500.00, 187500.00, 185619.23, 187500.00, 187500.00, 187500.00, -0.00, -0.00, -0.00
59, 179263.73, 187500.00, 187500.00, 187500.00, 185625.13, 187500.00, 187500.00, 187500.00, -0.00, -0.00, -0.00
60, 179262.55, 187500.00, 187500.00, 187500.00, 185629.94, 187500.00, 187500.00, 187500.00, -0.00, -0.00, -0.00
61, 179261.34, 187500.00, 187500.00, 187500.00, 185634.77, 187500.00, 187500.00, 187500.00, -0.00, -0.00, -0.00
62, 179260.47, 187500.00, 187500.00, 187500.00, 185639.84, 187500.00, 187500.00, 187500.00, -0.00, -0.00, -0.00
63, 179259.28, 187500.00, 187500.00, 187500.00, 185644.75, 187500.00, 187500.00, 187500.00, -0.00, -0.00, -0.00
64, 179259.33, 187500.00, 187500.00, 187500.00, 185650.70, 187500.00, 187500.00, 187500.00, -0.00, -0.00, -0.00
65, 179259.89, 187500.00, 187500.00, 187500.00, 185657.19, 187500.00, 187500.00, 187500.00, -0.00, -0.00, -0.00
66, 179261.36, 187500.00, 187500.00, 187500.00, 185664.56, 187500.00, 187500.00, 187500.00, -0.00, -0.00, -0.00
67, 179262.66, 187500.00, 187500.00, 187500.00, 185671.91, 187500.00, 187500.00, 187500.00, -0.00, -0.00, -0.00
68, 179263.73, 187500.00, 187500.00, 187500.00, 185678.81, 187500.00, 187500.00, 187500.00, -0.00, -0.00, -0.00
69, 179261.13, 187500.00, 187500.00, 187500.00, 185682.14, 187500.00, 187500.00, 187500.00, -0.00, -0.00, -0.00
70, 179258.89, 187500.00, 187500.00, 187500.00, 185686.02, 187500.00, 187500.00, 187500.00, -0.00, -0.00, -0.00
71, 179259.83, 187500.00, 187500.00, 187500.00, 185693.09, 187500.00, 187500.00, 187500.00, -0.00, -0.00, -0.00
72, 179259.70, 187500.00, 187500.00, 187500.00, 185699.42, 187500.00, 187500.00, 187500.00, -0.00, -0.00, -0.00
73, 179259.38, 187500.00, 187500.00, 187500.00, 185705.94, 187500.00, 187500.00, 187500.00, -0.00, -0.00, -0.00
74, 179257.41, 187500.00, 187500.00, 187500.00, 185710.89, 187500.00, 187500.00, 187500.00, -0.00, -0.00, -0.00
75, 179259.73, 187500.00, 187500.00, 187500.00, 185719.88, 187500.00, 187500.00, 187500.00, -0.00, -0.00, -0.00
76, 179261.61, 187500.00, 187500.00, 187500.00, 185727.88, 187500.00, 187500.00, 187500.00, -0.00, -0.00, -0.00
77, 179263.20, 187500.00, 187500.00, 187500.00, 185735.33, 187500.00, 187500.00, 187500.00, -0.00, -0.00, -0.00
78, 179262.17, 187500.00, 187500.00, 187500.00, 185740.39, 187500.00, 187500.00, 187500.00, -0.00, -0.00, -0.00
79, 179263.23, 187500.00, 187500.00, 187500.00, 185747.38, 187500.00, 187500.00, 187500.00, -0.00, -0.00, -0.00
80, 179265.20, 187500.00, 187500.00, 187500.00, 185755.23, 187500.00, 187500.00, 187500.00, -0.00, -0.00, -0.00
81, 179265.64, 187500.00, 187500.00, 187500.00, 185761.66, 187500.00, 187500.00, 187500.00, -0.00, -0.00, -0.00
82, 179265.70, 187500.00, 187500.00, 187500.00, 185767.70, 187500.00, 187500.00, 187500.00, -0.00, -0.00, -0.00
83, 179265.48, 187500.00, 187500.00, 187500.00, 185773.48, 187500.00, 187500.00, 187500.00, -0.00, -0.00, -0.00
84, 179265.08, 187500.00, 187500.00, 187500.00, 185779.20, 187500.00, 187500.00, 187500.00, -0.00, -0.00, -0.00
85, 179264.00, 187500.00, 187500.00, 187500.00, 185784.03, 187500.00, 187500.00, 187500.00, -0.00, -0.00, -0.00
86, 179261.59, 187500.00, 187500.00, 187500.00, 185787.52, 187500.00, 187500.00, 187500.00, -0.00, -0.00, -0.00
87, 179256.47, 187500.00, 187500.00, 187500.00, 185788.13, 187500.00, 187500.00, 187500.00, -0.00, -0.00, -0.00
88, 179254.48, 187500.00, 187500.00, 187500.00, 185791.97, 187500.00, 187500.00, 187500.00, -0.00, -0.00, -0.00
89, 179252.52, 187500.00, 187500.00, 187500.00, 185795.72, 187500.00, 187500.00, 187500.00, -0.00, -0.00, -0.00
90, 179252.22, 187500.00, 187500.00, 187500.00, 185801.27, 187500.00, 187500.00, 187500.00, -0.00, -0.00, -0.00
91, 179250.56, 187500.00, 187500.00, 187500.00, 185805.23, 187500.00, 187500.00, 187500.00, -0.00, -0.00, -0.00
92, 179252.41, 187500.00, 187500.00, 187500.00, 185812.77, 187500.00, 187500.00, 187500.00, -0.00, -0.00, -0.00
93, 179252.16, 187500.00, 187500.00, 187500.00, 185818.27, 187500.00, 187500.00, 187500.00, -0.00, -0.00, -0.00
94, 179250.64, 187500.00, 187500.00, 187500.00, 185822.31, 187500.00, 187500.00, 187500.00, -0.00, -0.00, -0.00
95, 179250.61, 187500.00, 187500.00, 187500.00, 185827.97, 187500.00, 187500.00, 187500.00, -0.00, -0.00, -0.00
96, 179250.69, 187500.00, 187500.00, 187500.00, 185833.61, 187500.00, 187500.00, 187500.00, -0.00, -0.00, -0.00
97, 179249.72, 187500.00, 187500.00, 187500.00, 185838.16, 187500.00, 187500.00, 187500.00, -0.00, -0.00, -0.00
98, 179248.22, 187500.00, 187500.00, 187500.00, 185842.44, 187500.00, 187500.00, 187500.00, -0.00, -0.00, -0.00
99, 179249.19, 187500.00, 187500.00, 187500.00, 185849.16, 187500.00, 187500.00, 187500.00, -0.00, -0.00, -0.00
100, 179250.13, 187500.00, 187500.00, 187500.00, 185855.75, 187500.00, 187500.00, 187500.00, -0.00, -0.00, -0.00
101, 179251.47, 187500.00, 187500.00, 187500.00, 185862.73, 187500.00, 187500.00, 187500.00, -0.00, -0.00, -0.00
102, 179252.95, 187500.00, 187500.00, 187500.00, 185870.02, 187500.00, 187500.00, 187500.00, -0.00, -0.00, -0.00
103, 179248.89, 187500.00, 187500.00, 187500.00, 185871.63, 187500.00, 187500.00, 187500.00, -0.00, -0.00, -0.00
104, 179243.02, 187500.00, 187500.00, 187500.00, 185871.47, 187500.00, 187500.00, 187500.00, -0.00, -0.00, -0.00
105, 179242.28, 187500.00, 187500.00, 187500.00, 185876.41, 187500.00, 187500.00, 187500.00, -0.00, -0.00, -0.00
106, 179239.23, 187500.00, 187500.00, 187500.00, 185878.84, 187500.00, 187500.00, 187500.00, -0.00, -0.00, -0.00
107, 179237.73, 187500.00, 187500.00, 187500.00, 185882.70, 187500.00, 187500.00, 187500.00, -0.00, -0.00, -0.00
108, 179235.75, 187500.00, 187500.00, 187500.00, 185885.92, 187500.00, 187500.00, 187500.00, -0.00, -0.00, -0.00
109, 179235.25, 187500.00, 187500.00, 187500.00, 185890.83, 187500.00, 187500.00, 187500.00, -0.00, -0.00, -0.00
110, 179235.92, 187500.00, 187500.00, 187500.00, 185896.88, 187500.00, 187500.00, 187500.00, -0.00, -0.00, -0.00
111, 179237.58, 187500.00, 187500.00, 187500.00, 185903.83, 187500.00, 187500.00, 187500.00, -0.00, -0.00, -0.00
112, 179237.81, 187500.00, 187500.00, 187500.00, 185909.52, 187500.00, 187500.00, 187500.00, -0.00, -0.00, -0.00
113, 179239.59, 187500.00, 187500.00, 187500.00, 185916.69, 187500.00, 187500.00, 187500.00, -0.00, -0.00, -0.00
114, 179242.36, 187500.00, 187500.00, 187500.00, 185924.98, 187500.00, 187500.00, 187500.00, -0.00, -0.00, -0.00
115, 179243.66, 187500.00, 187500.00, 187500.00, 185931.89, 187500.00, 187500.00, 187500.00, -0.00, -0.00, -0.00
116, 179245.88, 187500.00, 187500.00, 187500.00, 185939.81, 187500.00, 187500.00, 187500.00, -0.00, -0.00, -0.00
117, 179247.39, 187500.00, 187500.00, 187500.00, 185946.91, 187500.00, 187500.00, 187500.00, -0.00, -0.00, -0.00
118, 179249.70, 187500.00, 187500.00, 187500.00, 185954.86, 187500.00, 187500.00, 187500.00, -0.00, -0.00, -0.00
119, 179251.00, 187500.00, 187500.00, 187500.00, 185962.02, 187500.00, 187500.00, 187500.00, -0.00, -0.00, -0.00
120, 179251.02, 187500.00, 187500.00, 187500.00, 185967.92, 187500.00, 187500.00, 187500.00, -0.00, -0.00, -0.00
121, 179251.59, 187500.00, 187500.00, 187500.00, 185974.13, 187500.00, 187500.00, 187500.00, -0.00, -0.00, -0.00
122, 179250.77, 187500.00, 187500.00, 187500.00, 185979.06, 187500.00, 187500.00, 187500.00, -0.00, -0.00, -0.00
123, 179251.94, 187500.00, 187500.00, 187500.00, 185986.11, 187500.00, 187500.00, 187500.00, -0.00, -0.00, -0.00
124, 179253.66, 187500.00, 187500.00, 187500.00, 185993.59, 187500.00, 187500.00, 187500.00, -0.00, -0.00, -0.00
125, 179252.09, 187500.00, 187500.00, 187500.00, 185997.69, 187500.00, 187500.00, 187500.00, -0.00, -0.00, -0.00
126, 179253.11, 187500.00, 187500.00, 187500.00, 186004.50, 187500.00, 187500.00, 187500.00, -0.00, -0.00, -0.00
127, 179255.67, 187500.00, 187500.00, 187500.00, 186012.86, 187500.00, 187500.00, 187500.00, -0.00, -0.00, -0.00
128, 179257.28, 187500.00, 187500.00, 187500.00, 186020.23, 187500.00, 187500.00, 187500.00, -0.00, -0.00, -0.00
129, 179259.16, 187500.00, 187500.00, 187500.00, 186028.00, 187500.00, 187500.00, 187500.00, -0.00, -0.00, -0.00
130, 179261.45, 187500.00, 187500.00, 187500.00, 186036.20, 187500.00, 187500.00, 187500.00, -0.00, -0.00, -0.00
131, 179262.97, 187500.00, 187500.00, 187500.00, 186043.69, 187500.00, 187500.00, 187500.00, -0.00, -0.00, -0.00
132, 179265.05, 187500.00, 187500.00, 187500.00, 186051.72, 187500.00, 187500.00, 187500.00, -0.00, -0.00, -0.00
133, 179266.55, 187500.00, 187500.00, 187500.00, 186059.30, 187500.00, 187500.00, 187500.00, -0.00, -0.00, -0.00
134, 179268.31, 187500.00, 187500.00, 187500.00, 186067.11, 187500.00, 187500.00, 187500.00, -0.00, -0.00, -0.00
135, 179268.97, 187500.00, 187500.00, 187500.00, 186073.89, 187500.00, 187500.00, 187500.00, -0.00, -0.00, -0.00
136, 179271.11, 187500.00, 187500.00, 187500.00, 186081.97, 187500.00, 187500.00, 187500.00, -0.00, -0.00, -0.00
137, 179274.16, 187500.00, 187500.00, 187500.00, 186091.05, 187500.00, 187500.00, 187500.00, -0.00, -0.00, -0.00
138, 179276.31, 187500.00, 187500.00, 187500.00, 186099.36, 187500.00, 187500.00, 187500.00, -0.00, -0.00, -0.00
139, 179276.97, 187500.00, 187500.00, 187500.00, 186106.23, 187500.00, 187500.00, 187500.00, -0.00, -0.00, -0.00
140, 179276.47, 187500.00, 187500.00, 187500.00, 186111.77, 187500.00, 187500.00, 187500.00, -0.00, -0.00, -0.00
141, 179279.00, 187500.00, 187500.00, 187500.00, 186120.42, 187500.00, 187500.00, 187500.00, -0.00, -0.00, -0.00
142, 179279.06, 187500.00, 187500.00, 187500.00, 186126.69, 187500.00, 187500.00, 187500.00, -0.00, -0.00, -0.00
143, 179281.28, 187500.00, 187500.00, 187500.00, 186135.16, 187500.00, 187500.00, 187500.00, -0.00, -0.00, -0.00
144, 179283.31, 187500.00, 187500.00, 187500.00, 186143.41, 187500.00, 187500.00, 187500.00, -0.00, -0.00, -0.00
145, 179283.73, 187500.00, 187500.00, 187500.00, 186150.19, 187500.00, 187500.00, 187500.00, -0.00, -0.00, -0.00
146, 179284.55, 187500.00, 187500.00, 187500.00, 186157.14, 187500.00, 187500.00, 187500.00, -0.00, -0.00, -0.00
147, 179282.64, 187500.00, 187500.00, 187500.00, 186161.53, 187500.00, 187500.00, 187500.00, -0.00, -0.00, -0.00
148, 179283.92, 187500.00, 187500.00, 187500.00, 186168.88, 187500.00, 187500.00, 187500.00, -0.00, -0.00, -0.00
149, 179282.89, 187500.00, 187500.00, 187500.00, 186174.11, 187500.00, 187500.00, 187500.00, -0.00, -0.00, -0.00
150, 179280.81, 187500.00, 187500.00, 187500.00, 186178.22, 187500.00, 187500.00, 187500.00, -0.00, -0.00, -0.00
151, 179278.16, 187500.00, 187500.00, 187500.00, 186181.69, 187500.00, 187500.00, 187500.00, -0.00, -0.00, -0.00
152, 179277.38, 187500.00, 187500.00, 187500.00, 186186.89, 187500.00, 187500.00, 187500.00, -0.00, -0.00, -0.00
153, 179276.77, 187500.00, 187500.00, 187500.00, 186192.42, 187500.00, 187500.00, 187500.00, -0.00, -0.00, -0.00
154, 179278.27, 187500.00, 187500.00, 187500.00, 186199.92, 187500.00, 187500.00, 187500.00, -0.00, -0.00, -0.00
155, 179278.06, 187500.00, 187500.00, 187500.00, 186205.66, 187500.00, 187500.00, 187500.00, -0.00, -0.00, -0.00
156, 179276.39, 187500.00, 187500.00, 187500.00, 186210.05, 187500.00, 187500.00, 187500.00, -0.00, -0.00, -0.00
157, 179275.77, 187500.00, 187500.00, 187500.00, 186215.38, 187500.00, 187500.00, 187500.00, -0.00, -0.00, -0.00
158, 179277.08, 187500.00, 187500.00, 187500.00, 186222.64, 187500.00, 187500.00, 187500.00, -0.00, -0.00, -0.00
159, 179276.81, 187500.00, 187500.00, 187500.00, 186228.27, 187500.00, 187500.00, 187500.00, -0.00, -0.00, -0.00
160, 179275.88, 187500.00, 187500.00, 187500.00, 186233.36, 187500.00, 187500.00, 187500.00, -0.00, -0.00, -0.00
161, 179275.64, 187500.00, 187500.00, 187500.00, 186239.11, 187500.00, 187500.00, 187500.00, -0.00, -0.00, -0.00
162, 179274.19, 187500.00, 187500.00, 187500.00, 186243.44, 187500.00, 187500.00, 187500.00, -0.00, -0.00, -0.00
163, 179273.75, 187500.00, 187500.00, 187500.00, 186248.86, 187500.00, 187500.00, 187500.00, -0.00, -0.00, -0.00
164, 179274.03, 187500.00, 187500.00, 187500.00, 186254.91, 187500.00, 187500.00, 187500.00, -0.00, -0.00, -0.00
165, 179271.44, 187500.00, 187500.00, 187500.00, 186258.22, 187500.00, 187500.00, 187500.00, -0.00, -0.00, -0.00
166, 179270.63, 187500.00, 187500.00, 187500.00, 186263.23, 187500.00, 187500.00, 187500.00, -0.00, -0.00, -0.00
167, 179269.56, 187500.00, 187500.00, 187500.00, 186267.88, 187500.00, 187500.00, 187500.00, -0.00, -0.00, -0.00
168, 179271.58, 187500.00, 187500.00, 187500.00, 186275.47, 187500.00, 187500.00, 187500.00, -0.00, -0.00, -0.00
169, 179272.36, 187500.00, 187500.00, 187500.00, 186282.27, 187500.00, 187500.00, 187500.00, -0.00, -0.00, -0.00
170, 179274.02, 187500.00, 187500.00, 187500.00, 186289.84, 187500.00, 187500.00, 187500.00, -0.00, -0.00, -0.00
171, 179277.59, 187500.00, 187500.00, 187500.00, 186299.23, 187500.00, 187500.00, 187500.00, -0.00, -0.00, -0.00
172, 179277.48, 187500.00, 187500.00, 187500.00, 186305.05, 187500.00, 187500.00, 187500.00, -0.00, -0.00, -0.00
173, 179277.25, 187500.00, 187500.00, 187500.00, 186310.75, 187500.00, 187500.00, 187500.00, -0.00, -0.00, -0.00
174, 179278.84, 187500.00, 187500.00, 187500.00, 186318.39, 187500.00, 187500.00, 187500.00, -0.00, -0.00, -0.00
175, 179279.61, 187500.00, 187500.00, 187500.00, 186325.00, 187500.00, 187500.00, 187500.00, -0.00, -0.00, -0.00
176, 179278.44, 187500.00, 187500.00, 187500.00, 186329.64, 187500.00, 187500.00, 187500.00, -0.00, -0.00, -0.00
177, 179280.13, 187500.00, 187500.00, 187500.00, 186337.34, 187500.00, 187500.00, 187500.00, -0.00, -0.00, -0.00
178, 179277.34, 187500.00, 187500.00, 187500.00, 186340.56, 187500.00, 187500.00, 187500.00, -0.00, -0.00, -0.00
179, 179275.31, 187500.00, 187500.00, 187500.00, 186344.61, 187500.00, 187500.00, 187500.00, -0.00, -0.00, -0.00
180, 179272.88, 187500.00, 187500.00, 187500.00, 186347.89, 187500.00, 187500.00, 187500.00, -0.00, -0.00, -0.00
181, 179273.77, 187500.00, 187500.00, 187500.00, 186354.52, 187500.00, 187500.00, 187500.00, -0.00, -0.00, -0.00
182, 179274.13, 187500.00, 187500.00, 187500.00, 186360.59, 187500.00, 187500.00, 187500.00, -0.00, -0.00, -0.00
183, 179273.23, 187500.00, 187500.00, 187500.00, 186365.55, 187500.00, 187500.00, 187500.00, -0.00, -0.00, -0.00
184, 179272.92, 187500.00, 187500.00, 187500.00, 186371.20, 187500.00, 187500.00, 187500.00, -0.00, -0.00, -0.00
185, 179275.69, 187500.00, 187500.00, 187500.00, 186379.70, 187500.00, 187500.00, 187500.00, -0.00, -0.00, -0.00
186, 179275.22, 187500.00, 187500.00, 187500.00, 186384.95, 187500.00, 187500.00, 187500.00, -0.00, -0.00, -0.00
187, 179275.02, 187500.00, 187500.00, 187500.00, 186390.59, 187500.00, 187500.00, 187500.00, -0.00, -0.00, -0.00
188, 179271.58, 187500.00, 187500.00, 187500.00, 186392.94, 187500.00, 187500.00, 187500.00, -0.00, -0.00, -0.00
189, 179271.11, 187500.00, 187500.00, 187500.00, 186398.20, 187500.00, 187500.00, 187500.00, -0.00, -0.00, -0.00
190, 179271.06, 187500.00, 187500.00, 187500.00, 186404.00, 187500.00, 187500.00, 187500.00, -0.00, -0.00, -0.00
191, 179271.00, 187500.00, 187500.00, 187500.00, 186409.58, 187500.00, 187500.00, 187500.00, -0.00, -0.00, -0.00
192, 179270.22, 187500.00, 187500.00, 187500.00, 186414.53, 187500.00, 187500.00, 187500.00, -0.00, -0.00, -0.00
193, 179268.89, 187500.00, 187500.00, 187500.00, 186418.91, 187500.00, 187500.00, 187500.00, -0.00, -0.00, -0.00
194, 179265.48, 187500.00, 187500.00, 187500.00, 186421.20, 187500.00, 187500.00, 187500.00, -0.00, -0.00, -0.00
195, 179263.80, 187500.00, 187500.00, 187500.00, 186425.20, 187500.00, 187500.00, 187500.00, -0.00, -0.00, -0.00
196, 179265.30, 187500.00, 187500.00, 187500.00, 186432.39, 187500.00, 187500.00, 187500.00, -0.00, -0.00, -0.00
197, 179262.33, 187500.00, 187500.00, 187500.00, 186434.84, 187500.00, 187500.00, 187500.00, -0.00, -0.00, -0.00
198, 179260.69, 187500.00, 187500.00, 187500.00, 186438.69, 187500.00, 187500.00, 187500.00, -0.00, -0.00, -0.00
199, 179259.86, 187500.00, 187500.00, 187500.00, 186443.20, 187500.00, 187500.00, 187500.00, -0.00, -0.00, -0.00
200, 179258.70, 187500.00, 187500.00, 187500.00, 186447.52, 187500.00, 187500.00, 187500.00, -0.00, -0.00, -0.00
201, 179258.28, 187500.00, 187500.00, 187500.00, 186452.50, 187500.00, 187500.00, 187500.00, -0.00, -0.00, -0.00
202, 179258.73, 187500.00, 187500.00, 187500.00, 186458.42, 187500.00, 187500.00, 187500.00, -0.00, -0.00, -0.00
203, 179259.16, 187500.00, 187500.00, 187500.00, 186464.39, 187500.00, 187500.00, 187500.00, -0.00, -0.00, -0.00
204, 179260.50, 187500.00, 187500.00, 187500.00, 186471.17, 187500.00, 187500.00, 187500.00, -0.00, -0.00, -0.00
205, 179264.22, 187500.00, 187500.00, 187500.00, 186480.38, 187500.00, 187500.00, 187500.00, -0.00, -0.00, -0.00
206, 179267.09, 187500.00, 187500.00, 187500.00, 186488.89, 187500.00, 187500.00, 187500.00, -0.00, -0.00, -0.00
207, 179271.98, 187500.00, 187500.00, 187500.00, 186499.39, 187500.00, 187500.00, 187500.00, -0.00, -0.00, -0.00
208, 179275.09, 187500.00, 187500.00, 187500.00, 186508.30, 187500.00, 187500.00, 187500.00, -0.00, -0.00, -0.00
209, 179277.50, 187500.00, 187500.00, 187500.00, 186516.63, 187500.00, 187500.00, 187500.00, -0.00, -0.00, -0.00
210, 179277.39, 187500.00, 187500.00, 187500.00, 186522.27, 187500.00, 187500.00, 187500.00, -0.00, -0.00, -0.00
211, 179277.23, 187500.00, 187500.00, 187500.00, 186528.19, 187500.00, 187500.00, 187500.00, -0.00, -0.00, -0.00
212, 179276.27, 187500.00, 187500.00, 187500.00, 186533.27, 187500.00, 187500.00, 187500.00, -0.00, -0.00, -0.00
213, 179277.17, 187500.00, 187500.00, 187500.00, 186540.13, 187500.00, 187500.00, 187500.00, -0.00, -0.00, -0.00
214, 179274.64, 187500.00, 187500.00, 187500.00, 186543.39, 187500.00, 187500.00, 187500.00, -0.00, -0.00, -0.00
215, 179272.11, 187500.00, 187500.00, 187500.00, 186546.67, 187500.00, 187500.00, 187500.00, -0.00, -0.00, -0.00
216, 179271.89, 187500.00, 187500.00, 187500.00, 186552.25, 187500.00, 187500.00, 187500.00, -0.00, -0.00, -0.00
217, 179270.89, 187500.00, 187500.00, 187500.00, 186557.02, 187500.00, 187500.00, 187500.00, -0.00, -0.00, -0.00
218, 179271.20, 187500.00, 187500.00, 187500.00, 186562.94, 187500.00, 187500.00, 187500.00, -0.00, -0.00, -0.00
219, 179272.08, 187500.00, 187500.00, 187500.00, 186569.64, 187500.00, 187500.00, 187500.00, -0.00, -0.00, -0.00
220, 179272.78, 187500.00, 187500.00, 187500.00, 186576.13, 187500.00, 187500.00, 187500.00, -0.00, -0.00, -0.00
221, 179271.94, 187500.00, 187500.00, 187500.00, 186581.03, 187500.00, 187500.00, 187500.00, -0.00, -0.00, -0.00
222, 179268.81, 187500.00, 187500.00, 187500.00, 186583.61, 187500.00, 187500.00, 187500.00, -0.00, -0.00, -0.00
223, 179267.89, 187500.00, 187500.00, 187500.00, 186588.44, 187500.00, 187500.00, 187500.00, -0.00, -0.00, -0.00
224, 179268.22, 187500.00, 187500.00, 187500.00, 186594.59, 187500.00, 187500.00, 187500.00, -0.00, -0.00, -0.00
225, 179267.88, 187500.00, 187500.00, 187500.00, 186599.70, 187500.00, 187500.00, 187500.00, -0.00, -0.00, -0.00
226, 179268.63, 187500.00, 187500.00, 187500.00, 186606.02, 187500.00, 187500.00, 187500.00, -0.00, -0.00, -0.00
227, 179267.56, 187500.00, 187500.00, 187500.00, 186610.48, 187500.00, 187500.00, 187500.00, -0.00, -0.00, -0.00
228, 179267.83, 187500.00, 187500.00, 187500.00, 186616.47, 187500.00, 187500.00, 187500.00, -0.00, -0.00, -0.00
229, 179267.95, 187500.00, 187500.00, 187500.00, 186622.27, 187500.00, 187500.00, 187500.00, -0.00, -0.00, -0.00
230, 179264.84, 187500.00, 187500.00, 187500.00, 186624.78, 187500.00, 187500.00, 187500.00, -0.00, -0.00, -0.00
231, 179264.92, 187500.00, 187500.00, 187500.00, 186630.41, 187500.00, 187500.00, 187500.00, -0.00, -0.00, -0.00
232, 179263.23, 187500.00, 187500.00, 187500.00, 186634.33, 187500.00, 187500.00, 187500.00, -0.00, -0.00, -0.00
233, 179262.27, 187500.00, 187500.00, 187500.00, 186638.80, 187500.00, 187500.00, 187500.00, -0.00, -0.00, -0.00
234, 179260.61, 187500.00, 187500.00, 187500.00, 186642.52, 187500.00, 187500.00, 187500.00, -0.00, -0.00, -0.00
235, 179257.70, 187500.00, 187500.00, 187500.00, 186645.17, 187500.00, 187500.00, 187500.00, -0.00, -0.00, -0.00
236, 179253.58, 187500.00, 187500.00, 187500.00, 186646.56, 187500.00, 187500.00, 187500.00, -0.00, -0.00, -0.00
237, 179251.22, 187500.00, 187500.00, 187500.00, 186649.48, 187500.00, 187500.00, 187500.00, -0.00, -0.00, -0.00
238, 179255.47, 187500.00, 187500.00, 187500.00, 186658.92, 187500.00, 187500.00, 187500.00, -0.00, -0.00, -0.00
239, 179260.16, 187500.00, 187500.00, 187500.00, 186668.91, 187500.00, 187500.00, 187500.00, -0.00, -0.00, -0.00
240, 179263.88, 187500.00, 187500.00, 187500.00, 186678.17, 187500.00, 187500.00, 187500.00, -0.00, -0.00, -0.00
241, 179267.42, 187500.00, 187500.00, 187500.00, 186687.44, 187500.00, 187500.00, 187500.00, -0.00, -0.00, -0.00
242, 179270.03, 187500.00, 187500.00, 187500.00, 186695.70, 187500.00, 187500.00, 187500.00, -0.00, -0.00, -0.00
243, 179270.23, 187500.00, 187500.00, 187500.00, 186701.56, 187500.00, 187500.00, 187500.00, -0.00, -0.00, -0.00
244, 179271.95, 187500.00, 187500.00, 187500.00, 186709.02, 187500.00, 187500.00, 187500.00, -0.00, -0.00, -0.00
245, 179270.78, 187500.00, 187500.00, 187500.00, 186713.59, 187500.00, 187500.00, 187500.00, -0.00, -0.00, -0.00
246, 179269.28, 187500.00, 187500.00, 187500.00, 186717.70, 187500.00, 187500.00, 187500.00, -0.00, -0.00, -0.00
247, 179268.88, 187500.00, 187500.00, 187500.00, 186723.00, 187500.00, 187500.00, 187500.00, -0.00, -0.00, -0.00
248, 179267.53, 187500.00, 187500.00, 187500.00, 186727.31, 187500.00, 187500.00, 187500.00, -0.00, -0.00, -0.00
249, 179268.03, 187500.00, 187500.00, 187500.00, 186733.47, 187500.00, 187500.00, 187500.00, -0.00, -0.00, -0.00
250, 179267.00, 187500.00, 187500.00, 187500.00, 186738.05, 187500.00, 187500.00, 187500.00, -0.00, -0.00, -0.00
251, 179265.55, 187500.00, 187500.00, 187500.00, 186742.11, 187500.00, 187500.00, 187500.00, -0.00, -0.00, -0.00
252, 179264.45, 187500.00, 187500.00, 187500.00, 186746.56, 187500.00, 187500.00, 187500.00, -0.00, -0.00, -0.00
253, 179265.39, 187500.00, 187500.00, 187500.00, 186753.22, 187500.00, 187500.00, 187500.00, -0.00, -0.00, -0.00
254, 179262.50, 187500.00, 187500.00, 187500.00, 186755.95, 187500.00, 187500.00, 187500.00, -0.00, -0.00, -0.00
255, 179261.75, 187500.00, 187500.00, 187500.00, 186760.64, 187500.00, 187500.00, 187500.00, -0.00, -0.00, -0.00
0, 179262.66, 187500.00, 187500.00, 187500.00, 186767.02, 187500.00, 187500.00, 187500.00, -0.00, -0.00, -0.00
1, 179262.69, 187500.00, 187500.00, 187500.00, 186772.48, 187500.00, 187500.00, 187500.00, -0.00, -0.00, -0.00
2, 179265.39, 187500.00, 187500.00, 187500.00, 186780.78, 187500.00, 187500.00, 187500.00, -0.00, -0.00, -0.00
3, 179267.64, 187500.00, 187500.00, 187500.00, 186788.61, 187500.00, 187500.00, 187500.00, -0.00, -0.00, -0.00
4, 179270.39, 187500.00, 187500.00, 187500.00, 186796.94, 187500.00, 187500.00, 187500.00, -0.00, -0.00, -0.00
5, 179270.84, 187500.00, 187500.00, 187500.00, 186803.09, 187500.00, 187500.00, 187500.00, -0.00, -0.00, -0.00
6, 179270.73, 187500.00, 187500.00, 187500.00, 186808.78, 187500.00, 187500.00, 187500.00, -0.00, -0.00, -0.00
7, 179272.19, 187500.00, 187500.00, 187500.00, 186815.89, 187500.00, 187500.00, 187500.00, -0.00, -0.00, -0.00
8, 179272.97, 187500.00, 187500.00, 187500.00, 186822.38, 187500.00, 187500.00, 187500.00, -0.00, -0.00, -0.00
9, 179276.31, 187500.00, 187500.00, 187500.00, 186831.47, 187500.00, 187500.00, 187500.00, -0.00, -0.00, -0.00
10, 179279.67, 187500.00, 187500.00, 187500.00, 186840.64, 187500.00, 187500.00, 187500.00, -0.00, -0.00, -0.00
11, 179279.09, 187500.00, 187500.00, 187500.00, 186845.89, 187500.00, 187500.00, 187500.00, -0.00, -0.00, -0.00
12, 179281.30, 187500.00, 187500.00, 187500.00, 186854.00, 187500.00, 187500.00, 187500.00, -0.00, -0.00, -0.00
13, 179285.45, 187500.00, 187500.00, 187500.00, 186864.06, 187500.00, 187500.00, 187500.00, -0.00, -0.00, -0.00
14, 179287.73, 187500.00, 187500.00, 187500.00, 186872.31, 187500.00, 187500.00, 187500.00, -0.00, -0.00, -0.00
15, 179288.75, 187500.00, 187500.00, 187500.00, 186879.31, 187500.00, 187500.00, 187500.00, -0.00, -0.00, -0.00
16, 179289.14, 187500.00, 187500.00, 187500.00, 186885.92, 187500.00, 187500.00, 187500.00, -0.00, -0.00, -0.00
17, 179290.02, 187500.00, 187500.00, 187500.00, 186892.67, 187500.00, 187500.00, 187500.00, -0.00, -0.00, -0.00
18, 179290.13, 187500.00, 187500.00, 187500.00, 186898.86, 187500.00, 187500.00, 187500.00, -0.00, -0.00, -0.00
19, 179293.06, 187500.00, 187500.00, 187500.00, 186907.77, 187500.00, 187500.00, 187500.00, -0.00, -0.00, -0.00
20, 179295.05, 187500.00, 187500.00, 187500.00, 186915.81, 187500.00, 187500.00, 187500.00, -0.00, -0.00, -0.00
21, 179294.64, 187500.00, 187500.00, 187500.00, 186921.44, 187500.00, 187500.00, 187500.00, -0.00, -0.00, -0.00
22, 179294.47, 187500.00, 187500.00, 187500.00, 186927.31, 187500.00, 187500.00, 187500.00, -0.00, -0.00, -0.00
23, 179293.73, 187500.00, 187500.00, 187500.00, 186932.69, 187500.00, 187500.00, 187500.00, -0.00, -0.00, -0.00
24, 179294.48, 187500.00, 187500.00, 187500.00, 186939.55, 187500.00, 187500.00, 187500.00, -0.00, -0.00, -0.00
25, 179296.84, 187500.00, 187500.00, 187500.00, 186948.02, 187500.00, 187500.00, 187500.00, -0.00, -0.00, -0.00
26, 179297.33, 187500.00, 187500.00, 187500.00, 186954.55, 187500.00, 187500.00, 187500.00, -0.00, -0.00, -0.00
27, 179296.55, 187500.00, 187500.00, 187500.00, 186959.78, 187500.00, 187500.00, 187500.00, -0.00, -0.00, -0.00
28, 179297.38, 187500.00, 187500.00, 187500.00, 186966.61, 187500.00, 187500.00, 187500.00, -0.00, -0.00, -0.00
29, 179299.16, 187500.00, 187500.00, 187500.00, 186974.58, 187500.00, 187500.00, 187500.00, -0.00, -0.00, -0.00
30, 179297.81, 187500.00, 187500.00, 187500.00, 186979.28, 187500.00, 187500.00, 187500.00, -0.00, -0.00, -0.00
31, 179298.61, 187500.00, 187500.00, 187500.00, 186986.19, 187500.00, 187500.00, 187500.00, -0.00, -0.00, -0.00
32, 179297.81, 187500.00, 187500.00, 187500.00, 186991.38, 187500.00, 187500.00, 187500.00, -0.00, -0.00, -0.00
33, 179297.47, 187500.00, 187500.00, 187500.00, 186996.91, 187500.00, 187500.00, 187500.00, -0.00, -0.00, -0.00
34, 179297.17, 187500.00, 187500.00, 187500.00, 187002.59, 187500.00, 187500.00, 187500.00, -0.00, -0.00, -0.00
35, 179297.34, 187500.00, 187500.00, 187500.00, 187008.75, 187500.00, 187500.00, 187500.00, -0.00, -0.00, -0.00
36, 179297.55, 187500.00, 187500.00, 187500.00, 187014.83, 187500.00, 187500.00, 187500.00, -0.00, -0.00, -0.00
37, 179298.22, 187500.00, 187500.00, 187500.00, 187021.42, 187500.00, 187500.00, 187500.00, -0.00, -0.00, -0.00
38, 179298.56, 187500.00, 187500.00, 187500.00, 187027.64, 187500.00, 187500.00, 187500.00, -0.00, -0.00, -0.00
39, 179298.27, 187500.00, 187500.00, 187500.00, 187033.33, 187500.00, 187500.00, 187500.00, -0.00, -0.00, -0.00
