%OpenBCI Raw EEG Data
%
%Sample Rate = 250.0 Hz
%First Column = SampleIndex
%Other Columns = EEG data in microvolts followed by Accel Data (in G) interleaved with Aux Data
3, -187500.02, 31694.68, -187500.02, -187500.02, 36105.53, -187500.02, -184069.78, -187500.02, 0.00, 0.00, 0.00
4, -187500.02, 32870.14, -187500.02, -187500.02, 37415.10, -187500.02, -184246.30, -187500.02, 0.00, 0.00, 0.00
5, -187500.02, 30500.05, -187500.02, -187500.02, 35185.49, -187500.02, -184186.89, -187500.02, 0.00, 0.00, 0.00
6, -187500.02, 29017.62, -187500.02, -187500.02, 33594.69, -187500.02, -184046.63, -187500.02, 0.00, 0.00, 0.00
7, -187500.02, 31165.91, -187500.02, -187500.02, 35585.63, -187500.02, -184130.33, -187500.02, 0.00, 0.00, 0.00
8, -187500.02, 32963.01, -187500.02, -187500.02, 37464.38, -187500.02, -184345.61, -187500.02, 0.00, 0.00, 0.00
9, -187500.02, 31009.31, -187500.02, -187500.02, 35678.59, -187500.02, -184344.75, -187500.02, 0.00, 0.00, 0.00
10, -187500.02, 28997.90, -187500.02, -187500.02, 33607.21, -187500.02, -184163.81, -187500.02, 0.00, 0.00, 0.00
11, -187500.02, 30657.00, -187500.02, -187500.02, 35085.22, -187500.02, -184185.19, -187500.02, 0.00, 0.00, 0.00
12, -187500.02, 32928.34, -187500.02, -187500.02, 37391.76, -187500.02, -184410.41, -187500.02, 0.00, 0.00, 0.00
13, -187500.02, 31530.73, -187500.02, -187500.02, 36175.92, -187500.02, -184444.67, -187500.02, 0.00, 0.00, 0.00
14, -187500.02, 29100.21, -187500.02, -187500.02, 33729.32, -187500.02, -184302.58, -187500.02, 0.00, 0.00, 0.00
15, -187500.02, 30130.73, -187500.02, -187500.02, 34573.81, -187500.02, -184313.95, -187500.02, 0.00, 0.00, 0.00
16, -187500.02, 32735.65, -187500.02, -187500.02, 37165.63, -187500.02, -184470.38, -187500.02, 0.00, 0.00, 0.00
17, -187500.02, 31988.36, -187500.02, -187500.02, 36608.42, -187500.02, -184572.66, -187500.02, 0.00, 0.00, 0.00
18, -187500.02, 29381.68, -187500.02, -187500.02, 34036.54, -187500.02, -184377.30, -187500.02, 0.00, 0.00, 0.00
19, -187500.02, 29756.09, -187500.02, -187500.02, 34227.58, -187500.02, -184293.91, -187500.02, 0.00, 0.00, 0.00
20, -187500.02, 32448.16, -187500.02, -187500.02, 36856.86, -187500.02, -184469.98, -187500.02, 0.00, 0.00, 0.00
21, -187500.02, 32425.18, -187500.02, -187500.02, 37013.95, -187500.02, -184598.16, -187500.02, 0.00, 0.00, 0.00
22, -187500.02, 29743.17, -187500.02, -187500.02, 34410.75, -187500.02, -184479.61, -187500.02, 0.00, 0.00, 0.00
23, -187500.02, 29397.68, -187500.02, -187500.02, 33897.16, -187500.02, -184368.17, -187500.02, 0.00, 0.00, 0.00
24, -187500.02, 32026.94, -187500.02, -187500.02, 36414.95, -187500.02, -184519.41, -187500.02, 0.00, 0.00, 0.00
25, -187500.02, 32743.58, -187500.02, -187500.02, 37284.45, -187500.02, -184683.09, -187500.02, 0.00, 0.00, 0.00
26, -187500.02, 30205.28, -187500.02, -187500.02, 34866.42, -187500.02, -184580.70, -187500.02, 0.00, 0.00, 0.00
27, -187500.02, 29161.96, -187500.02, -187500.02, 33689.80, -187500.02, -184444.95, -187500.02, 0.00, 0.00, 0.00
28, -187500.02, 31551.41, -187500.02, -187500.02, 35941.52, -187500.02, -184544.72, -187500.02, 0.00, 0.00, 0.00
29, -187500.02, 32928.61, -187500.02, -187500.02, 37431.32, -187500.02, -184756.58, -187500.02, 0.00, 0.00, 0.00
30, -187500.02, 30714.00, -187500.02, -187500.02, 35369.24, -187500.02, -184668.19, -187500.02, 0.00, 0.00, 0.00
31, -187500.02, 29039.32, -187500.02, -187500.02, 33604.73, -187500.02, -184503.67, -187500.02, 0.00, 0.00, 0.00
32, -187500.02, 31000.28, -187500.02, -187500.02, 35402.43, -187500.02, -184594.61, -187500.02, 0.00, 0.00, 0.00
33, -187500.02, 32944.75, -187500.02, -187500.02, 37414.34, -187500.02, -184825.36, -187500.02, 0.00, 0.00, 0.00
34, -187500.02, 31171.32, -187500.02, -187500.02, 35816.43, -187500.02, -184822.67, -187500.02, 0.00, 0.00, 0.00
35, -187500.02, 29032.99, -187500.02, -187500.02, 33635.44, -187500.02, -184610.94, -187500.02, 0.00, 0.00, 0.00
36, -187500.02, 30497.90, -187500.02, -187500.02, 34921.00, -187500.02, -184580.44, -187500.02, 0.00, 0.00, 0.00
37, -187500.02, 32853.46, -187500.02, -187500.02, 37294.40, -187500.02, -184808.11, -187500.02, 0.00, 0.00, 0.00
38, -187500.02, 31643.41, -187500.02, -187500.02, 36274.96, -187500.02, -184887.08, -187500.02, 0.00, 0.00, 0.00
39, -187500.02, 29144.80, -187500.02, -187500.02, 33781.66, -187500.02, -184733.27, -187500.02, 0.00, 0.00, 0.00
40, -187500.02, 29981.18, -187500.02, -187500.02, 34431.16, -187500.02, -184672.92, -187500.02, 0.00, 0.00, 0.00
41, -187500.02, 32588.48, -187500.02, -187500.02, 37002.71, -187500.02, -184881.13, -187500.02, 0.00, 0.00, 0.00
42, -187500.02, 32105.46, -187500.02, -187500.02, 36702.01, -187500.02, -184964.03, -187500.02, 0.00, 0.00, 0.00
43, -187500.02, 29474.42, -187500.02, -187500.02, 34114.89, -187500.02, -184799.95, -187500.02, 0.00, 0.00, 0.00
44, -187500.02, 29617.27, -187500.02, -187500.02, 34078.79, -187500.02, -184700.81, -187500.02, 0.00, 0.00, 0.00
45, -187500.02, 32277.82, -187500.02, -187500.02, 36670.02, -187500.02, -184874.92, -187500.02, 0.00, 0.00, 0.00
46, -187500.02, 32507.13, -187500.02, -187500.02, 37072.96, -187500.02, -185008.11, -187500.02, 0.00, 0.00, 0.00
47, -187500.02, 29883.01, -187500.02, -187500.02, 34542.68, -187500.02, -184875.42, -187500.02, 0.00, 0.00, 0.00
48, -187500.02, 29304.48, -187500.02, -187500.02, 33804.87, -187500.02, -184746.69, -187500.02, 0.00, 0.00, 0.00
49, -187500.02, 31851.03, -187500.02, -187500.02, 36236.91, -187500.02, -184888.84, -187500.02, 0.00, 0.00, 0.00
50, -187500.02, 32791.30, -187500.02, -187500.02, 37314.65, -187500.02, -185078.19, -187500.02, 0.00, 0.00, 0.00
51, -187500.02, 30349.73, -187500.02, -187500.02, 35001.63, -187500.02, -185026.55, -187500.02, 0.00, 0.00, 0.00
52, -187500.02, 29109.14, -187500.02, -187500.02, 33639.11, -187500.02, -184896.16, -187500.02, 0.00, 0.00, 0.00
53, -187500.02, 31377.36, -187500.02, -187500.02, 35760.84, -187500.02, -184988.27, -187500.02, 0.00, 0.00, 0.00
54, -187500.02, 32984.42, -187500.02, -187500.02, 37472.21, -187500.02, -185154.92, -187500.02, 0.00, 0.00, 0.00
55, -187500.02, 30916.06, -187500.02, -187500.02, 35567.12, -187500.02, -185108.67, -187500.02, 0.00, 0.00, 0.00
56, -187500.02, 29114.42, -187500.02, -187500.02, 33690.98, -187500.02, -184911.66, -187500.02, 0.00, 0.00, 0.00
57, -187500.02, 30926.30, -187500.02, -187500.02, 35331.36, -187500.02, -184956.25, -187500.02, 0.00, 0.00, 0.00
58, -187500.02, 33042.00, -187500.02, -187500.02, 37499.97, -187500.02, -185156.44, -187500.02, 0.00, 0.00, 0.00
59, -187500.02, 31489.65, -187500.02, -187500.02, 36129.34, -187500.02, -185137.13, -187500.02, 0.00, 0.00, 0.00
60, -187500.02, 29219.90, -187500.02, -187500.02, 33830.44, -187500.02, -184972.69, -187500.02, 0.00, 0.00, 0.00
61, -187500.02, 30449.80, -187500.02, -187500.02, 34875.00, -187500.02, -185010.61, -187500.02, 0.00, 0.00, 0.00
62, -187500.02, 32934.31, -187500.02, -187500.02, 37358.79, -187500.02, -185192.78, -187500.02, 0.00, 0.00, 0.00
63, -187500.02, 31990.75, -187500.02, -187500.02, 36600.62, -187500.02, -185238.41, -187500.02, 0.00, 0.00, 0.00
64, -187500.02, 29449.88, -187500.02, -187500.02, 34077.31, -187500.02, -185086.31, -187500.02, 0.00, 0.00, 0.00
65, -187500.02, 30046.58, -187500.02, -187500.02, 34489.88, -187500.02, -185041.39, -187500.02, 0.00, 0.00, 0.00
66, -187500.02, 32699.37, -187500.02, -187500.02, 37095.60, -187500.02, -185206.23, -187500.02, 0.00, 0.00, 0.00
67, -187500.02, 32448.32, -187500.02, -187500.02, 37021.80, -187500.02, -185323.31, -187500.02, 0.00, 0.00, 0.00
68, -187500.02, 29799.08, -187500.02, -187500.02, 34438.36, -187500.02, -185195.44, -187500.02, 0.00, 0.00, 0.00
69, -187500.02, 29686.80, -187500.02, -187500.02, 34159.48, -187500.02, -185108.73, -187500.02, 0.00, 0.00, 0.00
70, -187500.02, 32316.04, -187500.02, -187500.02, 36699.73, -187500.02, -185299.80, -187500.02, 0.00, 0.00, 0.00
71, -187500.02, 32793.32, -187500.02, -187500.02, 37338.66, -187500.02, -185447.59, -187500.02, 0.00, 0.00, 0.00
72, -187500.02, 30231.87, -187500.02, -187500.02, 34880.19, -187500.02, -185324.88, -187500.02, 0.00, 0.00, 0.00
73, -187500.02, 29435.71, -187500.02, -187500.02, 33947.45, -187500.02, -185186.19, -187500.02, 0.00, 0.00, 0.00
74, -187500.02, 31894.93, -187500.02, -187500.02, 36279.70, -187500.02, -185307.06, -187500.02, 0.00, 0.00, 0.00
75, -187500.02, 33055.75, -187500.02, -187500.02, 37558.37, -187500.02, -185484.17, -187500.02, 0.00, 0.00, 0.00
76, -187500.02, 30720.26, -187500.02, -187500.02, 35365.22, -187500.02, -185431.56, -187500.02, 0.00, 0.00, 0.00
77, -187500.02, 29281.99, -187500.02, -187500.02, 33820.63, -187500.02, -185257.27, -187500.02, 0.00, 0.00, 0.00
78, -187500.02, 31396.00, -187500.02, -187500.02, 35777.34, -187500.02, -185329.30, -187500.02, 0.00, 0.00, 0.00
79, -187500.02, 33166.88, -187500.02, -187500.02, 37626.77, -187500.02, -185524.20, -187500.02, 0.00, 0.00, 0.00
80, -187500.02, 31239.56, -187500.02, -187500.02, 35861.54, -187500.02, -185529.00, -187500.02, 0.00, 0.00, 0.00
81, -187500.02, 29251.01, -187500.02, -187500.02, 33819.44, -187500.02, -185376.89, -187500.02, 0.00, 0.00, 0.00
82, -187500.02, 30882.76, -187500.02, -187500.02, 35274.27, -187500.02, -185398.92, -187500.02, 0.00, 0.00, 0.00
83, -187500.02, 33100.45, -187500.02, -187500.02, 37521.22, -187500.02, -185632.44, -187500.02, 0.00, 0.00, 0.00
84, -187500.02, 31749.24, -187500.02, -187500.02, 36344.85, -187500.02, -185636.02, -187500.02, 0.00, 0.00, 0.00
85, -187500.02, 29404.79, -187500.02, -187500.02, 33982.12, -187500.02, -185449.95, -187500.02, 0.00, 0.00, 0.00
86, -187500.02, 30435.68, -187500.02, -187500.02, 34832.87, -187500.02, -185439.44, -187500.02, 0.00, 0.00, 0.00
87, -187500.02, 32950.34, -187500.02, -187500.02, 37342.30, -187500.02, -185636.95, -187500.02, 0.00, 0.00, 0.00
88, -187500.02, 32209.85, -187500.02, -187500.02, 36784.73, -187500.02, -185729.28, -187500.02, 0.00, 0.00, 0.00
89, -187500.02, 29619.35, -187500.02, -187500.02, 34231.43, -187500.02, -185597.17, -187500.02, 0.00, 0.00, 0.00
90, -187500.02, 29986.16, -187500.02, -187500.02, 34420.10, -187500.02, -185522.28, -187500.02, 0.00, 0.00, 0.00
91, -187500.02, 32622.32, -187500.02, -187500.02, 36993.95, -187500.02, -185713.70, -187500.02, 0.00, 0.00, 0.00
92, -187500.02, 32613.05, -187500.02, -187500.02, 37157.76, -187500.02, -185849.03, -187500.02, 0.00, 0.00, 0.00
93, -187500.02, 30012.87, -187500.02, -187500.02, 34635.91, -187500.02, -185700.39, -187500.02, 0.00, 0.00, 0.00
94, -187500.02, 29687.34, -187500.02, -187500.02, 34148.77, -187500.02, -185582.77, -187500.02, 0.00, 0.00, 0.00
95, -187500.02, 32267.63, -187500.02, -187500.02, 36626.64, -187500.02, -185706.73, -187500.02, 0.00, 0.00, 0.00
96, -187500.02, 32938.34, -187500.02, -187500.02, 37438.50, -187500.02, -185909.16, -187500.02, 0.00, 0.00, 0.00
97, -187500.02, 30461.98, -187500.02, -187500.02, 35073.30, -187500.02, -185817.00, -187500.02, 0.00, 0.00, 0.00
98, -187500.02, 29473.26, -187500.02, -187500.02, 33951.58, -187500.02, -185628.44, -187500.02, 0.00, 0.00, 0.00
99, -187500.02, 31812.79, -187500.02, -187500.02, 36155.78, -187500.02, -185719.61, -187500.02, 0.00, 0.00, 0.00
100, -187500.02, 33166.61, -187500.02, -187500.02, 37622.75, -187500.02, -185893.17, -187500.02, 0.00, 0.00, 0.00
101, -187500.02, 30982.54, -187500.02, -187500.02, 35588.54, -187500.02, -185841.34, -187500.02, 0.00, 0.00, 0.00
102, -187500.02, 29373.07, -187500.02, -187500.02, 33887.72, -187500.02, -185680.98, -187500.02, 0.00, 0.00, 0.00
103, -187500.02, 31307.37, -187500.02, -187500.02, 35662.54, -187500.02, -185757.16, -187500.02, 0.00, 0.00, 0.00
104, -187500.02, 33193.21, -187500.02, -187500.02, 37620.06, -187500.02, -185987.45, -187500.02, 0.00, 0.00, 0.00
105, -187500.02, 31475.93, -187500.02, -187500.02, 36076.18, -187500.02, -185981.58, -187500.02, 0.00, 0.00, 0.00
106, -187500.02, 29394.85, -187500.02, -187500.02, 33956.52, -187500.02, -185775.56, -187500.02, 0.00, 0.00, 0.00
107, -187500.02, 30816.55, -187500.02, -187500.02, 35194.00, -187500.02, -185796.75, -187500.02, 0.00, 0.00, 0.00
108, -187500.02, 33144.91, -187500.02, -187500.02, 37538.50, -187500.02, -185985.03, -187500.02, 0.00, 0.00, 0.00
109, -187500.02, 31959.84, -187500.02, -187500.02, 36535.09, -187500.02, -186081.38, -187500.02, 0.00, 0.00, 0.00
110, -187500.02, 29530.74, -187500.02, -187500.02, 34113.41, -187500.02, -185911.44, -187500.02, 0.00, 0.00, 0.00
111, -187500.02, 30355.05, -187500.02, -187500.02, 34755.35, -187500.02, -185854.38, -187500.02, 0.00, 0.00, 0.00
112, -187500.02, 32922.31, -187500.02, -187500.02, 37291.94, -187500.02, -186026.14, -187500.02, 0.00, 0.00, 0.00
113, -187500.02, 32398.52, -187500.02, -187500.02, 36947.70, -187500.02, -186163.30, -187500.02, 0.00, 0.00, 0.00
114, -187500.02, 29808.24, -187500.02, -187500.02, 34401.90, -187500.02, -186027.23, -187500.02, 0.00, 0.00, 0.00
115, -187500.02, 29947.78, -187500.02, -187500.02, 34371.06, -187500.02, -185935.22, -187500.02, 0.00, 0.00, 0.00
116, -187500.02, 32554.11, -187500.02, -187500.02, 36901.03, -187500.02, -186109.83, -187500.02, 0.00, 0.00, 0.00
117, -187500.02, 32784.49, -187500.02, -187500.02, 37295.00, -187500.02, -186232.81, -187500.02, 0.00, 0.00, 0.00
118, -187500.02, 30220.96, -187500.02, -187500.02, 34815.61, -187500.02, -186095.72, -187500.02, 0.00, 0.00, 0.00
119, -187500.02, 29649.32, -187500.02, -187500.02, 34088.55, -187500.02, -185986.95, -187500.02, 0.00, 0.00, 0.00
120, -187500.02, 32155.64, -187500.02, -187500.02, 36479.63, -187500.02, -186095.31, -187500.02, 0.00, 0.00, 0.00
121, -187500.02, 33065.58, -187500.02, -187500.02, 37525.31, -187500.02, -186278.03, -187500.02, 0.00, 0.00, 0.00
122, -187500.02, 30683.18, -187500.02, -187500.02, 35271.86, -187500.02, -186189.38, -187500.02, 0.00, 0.00, 0.00
123, -187500.02, 29471.02, -187500.02, -187500.02, 33938.51, -187500.02, -186032.88, -187500.02, 0.00, 0.00, 0.00
124, -187500.02, 31666.63, -187500.02, -187500.02, 35989.84, -187500.02, -186141.83, -187500.02, 0.00, 0.00, 0.00
125, -187500.02, 33212.03, -187500.02, -187500.02, 37634.57, -187500.02, -186335.52, -187500.02, 0.00, 0.00, 0.00
126, -187500.02, 31182.65, -187500.02, -187500.02, 35762.86, -187500.02, -186294.05, -187500.02, 0.00, 0.00, 0.00
127, -187500.02, 29398.64, -187500.02, -187500.02, 33903.55, -187500.02, -186131.70, -187500.02, 0.00, 0.00, 0.00
128, -187500.02, 31161.93, -187500.02, -187500.02, 35492.40, -187500.02, -186175.70, -187500.02, 0.00, 0.00, 0.00
129, -187500.02, 33210.00, -187500.02, -187500.02, 37583.81, -187500.02, -186354.27, -187500.02, 0.00, 0.00, 0.00
130, -187500.02, 31646.40, -187500.02, -187500.02, 36192.01, -187500.02, -186398.25, -187500.02, 0.00, 0.00, 0.00
131, -187500.02, 29432.64, -187500.02, -187500.02, 33952.32, -187500.02, -186235.48, -187500.02, 0.00, 0.00, 0.00
132, -187500.02, 30644.49, -187500.02, -187500.02, 34988.64, -187500.02, -186230.80, -187500.02, 0.00, 0.00, 0.00
133, -187500.02, 33028.64, -187500.02, -187500.02, 37376.65, -187500.02, -186451.34, -187500.02, 0.00, 0.00, 0.00
134, -187500.02, 32117.20, -187500.02, -187500.02, 36646.15, -187500.02, -186500.61, -187500.02, 0.00, 0.00, 0.00
135, -187500.02, 29669.75, -187500.02, -187500.02, 34213.01, -187500.02, -186316.14, -187500.02, 0.00, 0.00, 0.00
136, -187500.02, 30240.57, -187500.02, -187500.02, 34601.73, -187500.02, -186280.58, -187500.02, 0.00, 0.00, 0.00
137, -187500.02, 32806.70, -187500.02, -187500.02, 37123.41, -187500.02, -186448.23, -187500.02, 0.00, 0.00, 0.00
138, -187500.02, 32538.80, -187500.02, -187500.02, 37033.98, -187500.02, -186581.66, -187500.02, 0.00, 0.00, 0.00
139, -187500.02, 29982.32, -187500.02, -187500.02, 34549.47, -187500.02, -186434.80, -187500.02, 0.00, 0.00, 0.00
140, -187500.02, 29906.48, -187500.02, -187500.02, 34309.57, -187500.02, -186294.63, -187500.02, 0.00, 0.00, 0.00
141, -187500.02, 32433.61, -187500.02, -187500.02, 36743.50, -187500.02, -186484.31, -187500.02, 0.00, 0.00, 0.00
142, -187500.02, 32887.28, -187500.02, -187500.02, 37351.02, -187500.02, -186629.30, -187500.02, 0.00, 0.00, 0.00
143, -187500.02, 30407.18, -187500.02, -187500.02, 34972.39, -187500.02, -186513.48, -187500.02, 0.00, 0.00, 0.00
144, -187500.02, 29631.73, -187500.02, -187500.02, 34057.42, -187500.02, -186386.42, -187500.02, 0.00, 0.00, 0.00
145, -187500.02, 31998.15, -187500.02, -187500.02, 36298.79, -187500.02, -186507.95, -187500.02, 0.00, 0.00, 0.00
146, -187500.02, 33101.46, -187500.02, -187500.02, 37526.70, -187500.02, -186703.11, -187500.02, 0.00, 0.00, 0.00
147, -187500.02, 30875.20, -187500.02, -187500.02, 35441.08, -187500.02, -186602.48, -187500.02, 0.00, 0.00, 0.00
148, -187500.02, 29474.53, -187500.02, -187500.02, 33939.80, -187500.02, -186445.53, -187500.02, 0.00, 0.00, 0.00
149, -187500.02, 31511.18, -187500.02, -187500.02, 35821.82, -187500.02, -186525.03, -187500.02, 0.00, 0.00, 0.00
150, -187500.02, 33222.54, -187500.02, -187500.02, 37609.54, -187500.02, -186698.34, -187500.02, 0.00, 0.00, 0.00
151, -187500.02, 31366.65, -187500.02, -187500.02, 35919.09, -187500.02, -186685.42, -187500.02, 0.00, 0.00, 0.00
152, -187500.02, 29436.80, -187500.02, -187500.02, 33932.03, -187500.02, -186558.41, -187500.02, 0.00, 0.00, 0.00
153, -187500.02, 31003.01, -187500.02, -187500.02, 35329.64, -187500.02, -186600.53, -187500.02, 0.00, 0.00, 0.00
154, -187500.02, 33146.96, -187500.02, -187500.02, 37506.20, -187500.02, -186808.47, -187500.02, 0.00, 0.00, 0.00
155, -187500.02, 31831.25, -187500.02, -187500.02, 36362.73, -187500.02, -186839.95, -187500.02, 0.00, 0.00, 0.00
156, -187500.02, 29567.85, -187500.02, -187500.02, 34088.18, -187500.02, -186657.56, -187500.02, 0.00, 0.00, 0.00
157, -187500.02, 30559.21, -187500.02, -187500.02, 34904.95, -187500.02, -186629.73, -187500.02, 0.00, 0.00, 0.00
158, -187500.02, 32981.88, -187500.02, -187500.02, 37320.24, -187500.02, -186810.42, -187500.02, 0.00, 0.00, 0.00
159, -187500.02, 32265.23, -187500.02, -187500.02, 36786.03, -187500.02, -186885.33, -187500.02, 0.00, 0.00, 0.00
160, -187500.02, 29769.01, -187500.02, -187500.02, 34318.24, -187500.02, -186753.53, -187500.02, 0.00, 0.00, 0.00
161, -187500.02, 30108.98, -187500.02, -187500.02, 34481.23, -187500.02, -186706.81, -187500.02, 0.00, 0.00, 0.00
162, -187500.02, 32642.67, -187500.02, -187500.02, 36957.00, -187500.02, -186880.16, -187500.02, 0.00, 0.00, 0.00
163, -187500.02, 32639.54, -187500.02, -187500.02, 37123.09, -187500.02, -186970.81, -187500.02, 0.00, 0.00, 0.00
164, -187500.02, 30113.10, -187500.02, -187500.02, 34671.40, -187500.02, -186847.20, -187500.02, 0.00, 0.00, 0.00
165, -187500.02, 29778.07, -187500.02, -187500.02, 34179.71, -187500.02, -186747.19, -187500.02, 0.00, 0.00, 0.00
166, -187500.02, 32260.47, -187500.02, -187500.02, 36557.91, -187500.02, -186876.69, -187500.02, 0.00, 0.00, 0.00
167, -187500.02, 32923.43, -187500.02, -187500.02, 37363.35, -187500.02, -187045.34, -187500.02, 0.00, 0.00, 0.00
168, -187500.02, 30516.39, -187500.02, -187500.02, 35073.26, -187500.02, -186970.66, -187500.02, 0.00, 0.00, 0.00
169, -187500.02, 29531.55, -187500.02, -187500.02, 33962.11, -187500.02, -186848.66, -187500.02, 0.00, 0.00, 0.00
170, -187500.02, 31796.99, -187500.02, -187500.02, 36093.64, -187500.02, -186922.80, -187500.02, 0.00, 0.00, 0.00
171, -187500.02, 33121.15, -187500.02, -187500.02, 37526.63, -187500.02, -187071.06, -187500.02, 0.00, 0.00, 0.00
172, -187500.02, 31021.87, -187500.02, -187500.02, 35572.15, -187500.02, -187020.77, -187500.02, 0.00, 0.00, 0.00
173, -187500.02, 29461.36, -187500.02, -187500.02, 33926.75, -187500.02, -186854.81, -187500.02, 0.00, 0.00, 0.00
174, -187500.02, 31314.66, -187500.02, -187500.02, 35625.17, -187500.02, -186916.28, -187500.02, 0.00, 0.00, 0.00
175, -187500.02, 33139.79, -187500.02, -187500.02, 37511.28, -187500.02, -187127.81, -187500.02, 0.00, 0.00, 0.00
176, -187500.02, 31483.73, -187500.02, -187500.02, 36018.43, -187500.02, -187108.77, -187500.02, 0.00, 0.00, 0.00
177, -187500.02, 29466.21, -187500.02, -187500.02, 33960.30, -187500.02, -186932.58, -187500.02, 0.00, 0.00, 0.00
178, -187500.02, 30844.13, -187500.02, -187500.02, 35174.92, -187500.02, -186913.70, -187500.02, 0.00, 0.00, 0.00
179, -187500.02, 33062.32, -187500.02, -187500.02, 37402.49, -187500.02, -187110.73, -187500.02, 0.00, 0.00, 0.00
180, -187500.02, 31929.94, -187500.02, -187500.02, 36433.97, -187500.02, -187191.55, -187500.02, 0.00, 0.00, 0.00
181, -187500.02, 29603.30, -187500.02, -187500.02, 34109.01, -187500.02, -187030.31, -187500.02, 0.00, 0.00, 0.00
182, -187500.02, 30378.61, -187500.02, -187500.02, 34710.13, -187500.02, -186997.06, -187500.02, 0.00, 0.00, 0.00
183, -187500.02, 32825.41, -187500.02, -187500.02, 37128.68, -187500.02, -187207.91, -187500.02, 0.00, 0.00, 0.00
184, -187500.02, 32372.30, -187500.02, -187500.02, 36848.82, -187500.02, -187271.77, -187500.02, 0.00, 0.00, 0.00
185, -187500.02, 29887.41, -187500.02, -187500.02, 34407.69, -187500.02, -187109.33, -187500.02, 0.00, 0.00, 0.00
186, -187500.02, 30005.81, -187500.02, -187500.02, 34358.56, -187500.02, -187022.11, -187500.02, 0.00, 0.00, 0.00
187, -187500.02, 32507.84, -187500.02, -187500.02, 36788.58, -187500.02, -187184.16, -187500.02, 0.00, 0.00, 0.00
188, -187500.02, 32714.15, -187500.02, -187500.02, 37156.13, -187500.02, -187311.08, -187500.02, 0.00, 0.00, 0.00
189, -187500.02, 30228.74, -187500.02, -187500.02, 34756.94, -187500.02, -187198.56, -187500.02, 0.00, 0.00, 0.00
190, -187500.02, 29679.96, -187500.02, -187500.02, 34060.75, -187500.02, -187090.73, -187500.02, 0.00, 0.00, 0.00
191, -187500.02, 32089.71, -187500.02, -187500.02, 36359.11, -187500.02, -187195.88, -187500.02, 0.00, 0.00, 0.00
192, -187500.02, 32959.19, -187500.02, -187500.02, 37363.98, -187500.02, -187379.11, -187500.02, 0.00, 0.00, 0.00
193, -187500.02, 30664.65, -187500.02, -187500.02, 35193.78, -187500.02, -187300.77, -187500.02, 0.00, 0.00, 0.00
194, -187500.02, 29487.72, -187500.02, -187500.02, 33904.76, -187500.02, -187151.34, -187500.02, 0.00, 0.00, 0.00
195, -187500.02, 31608.32, -187500.02, -187500.02, 35880.67, -187500.02, -187223.70, -187500.02, 0.00, 0.00, 0.00
196, -187500.02, 33091.09, -187500.02, -187500.02, 37453.77, -187500.02, -187406.19, -187500.02, 0.00, 0.00, 0.00
197, -187500.02, 31141.14, -187500.02, -187500.02, 35649.54, -187500.02, -187376.44, -187500.02, 0.00, 0.00, 0.00
198, -187500.02, 29432.11, -187500.02, -187500.02, 33868.39, -187500.02, -187209.63, -187500.02, 0.00, 0.00, 0.00
199, -187500.02, 31130.08, -187500.02, -187500.02, 35408.47, -187500.02, -187255.98, -187500.02, 0.00, 0.00, 0.00
200, -187500.02, 33088.00, -187500.02, -187500.02, 37419.59, -187500.02, -187477.34, -187500.02, 0.00, 0.00, 0.00
201, -187500.02, 31612.45, -187500.02, -187500.02, 36114.92, -187500.02, -187480.25, -187500.02, 0.00, 0.00, 0.00
202, -187500.02, 29510.34, -187500.02, -187500.02, 33984.06, -187500.02, -187272.92, -187500.02, 0.00, 0.00, 0.00
203, -187500.02, 30679.78, -187500.02, -187500.02, 34977.93, -187500.02, -187269.13, -187500.02, 0.00, 0.00, 0.00
204, -187500.02, 32968.42, -187500.02, -187500.02, 37266.68, -187500.02, -187490.14, -187500.02, 0.00, 0.00, 0.00
205, -187500.02, 32069.86, -187500.02, -187500.02, 36545.46, -187500.02, -187500.02, -187500.02, 0.00, 0.00, 0.00
206, -187500.02, 29714.05, -187500.02, -187500.02, 34206.75, -187500.02, -187355.80, -187500.02, 0.00, 0.00, 0.00
207, -187500.02, 30269.31, -187500.02, -187500.02, 34591.87, -187500.02, -187310.73, -187500.02, 0.00, 0.00, 0.00
208, -187500.02, 32748.99, -187500.02, -187500.02, 37033.00, -187500.02, -187483.23, -187500.02, 0.00, 0.00, 0.00
209, -187500.02, 32494.47, -187500.02, -187500.02, 36949.80, -187500.02, -187500.02, -187500.02, 0.00, 0.00, 0.00
210, -187500.02, 30005.29, -187500.02, -187500.02, 34523.81, -187500.02, -187487.86, -187500.02, 0.00, 0.00, 0.00
211, -187500.02, 29898.14, -187500.02, -187500.02, 34253.11, -187500.02, -187424.88, -187500.02, 0.00, 0.00, 0.00
212, -187500.02, 32381.44, -187500.02, -187500.02, 36645.59, -187500.02, -187500.02, -187500.02, 0.00, 0.00, 0.00
213, -187500.02, 32830.06, -187500.02, -187500.02, 37242.83, -187500.02, -187500.02, -187500.02, 0.00, 0.00, 0.00
214, -187500.02, 30442.65, -187500.02, -187500.02, 34959.31, -187500.02, -187500.02, -187500.02, 0.00, 0.00, 0.00
215, -187500.02, 29707.68, -187500.02, -187500.02, 34087.10, -187500.02, -187434.39, -187500.02, 0.00, 0.00, 0.00
216, -187500.02, 32025.53, -187500.02, -187500.02, 36283.79, -187500.02, -187500.02, -187500.02, 0.00, 0.00, 0.00
217, -187500.02, 33122.45, -187500.02, -187500.02, 37500.04, -187500.02, -187500.02, -187500.02, 0.00, 0.00, 0.00
218, -187500.02, 30940.16, -187500.02, -187500.02, 35449.48, -187500.02, -187500.02, -187500.02, 0.00, 0.00, 0.00
219, -187500.02, 29583.14, -187500.02, -187500.02, 33992.15, -187500.02, -187466.47, -187500.02, 0.00, 0.00, 0.00
220, -187500.02, 31558.27, -187500.02, -187500.02, 35825.89, -187500.02, -187500.02, -187500.02, 0.00, 0.00, 0.00
221, -187500.02, 33216.79, -187500.02, -187500.02, 37564.52, -187500.02, -187500.02, -187500.02, 0.00, 0.00, 0.00
222, -187500.02, 31386.03, -187500.02, -187500.02, 35890.29, -187500.02, -187500.02, -187500.02, 0.00, 0.00, 0.00
223, -187500.02, 29511.99, -187500.02, -187500.02, 33961.89, -187500.02, -187500.02, -187500.02, 0.00, 0.00, 0.00
224, -187500.02, 31054.71, -187500.02, -187500.02, 35343.00, -187500.02, -187500.02, -187500.02, 0.00, 0.00, 0.00
225, -187500.02, 33153.69, -187500.02, -187500.02, 37478.22, -187500.02, -187500.02, -187500.02, 0.00, 0.00, 0.00
226, -187500.02, 31858.88, -187500.02, -187500.02, 36362.51, -187500.02, -187500.02, -187500.02, 0.00, 0.00, 0.00
227, -187500.02, 29649.48, -187500.02, -187500.02, 34142.89, -187500.02, -187500.02, -187500.02, 0.00, 0.00, 0.00
228, -187500.02, 30623.07, -187500.02, -187500.02, 34934.23, -187500.02, -187500.02, -187500.02, 0.00, 0.00, 0.00
229, -187500.02, 32995.62, -187500.02, -187500.02, 37291.40, -187500.02, -187500.02, -187500.02, 0.00, 0.00, 0.00
230, -187500.02, 32303.03, -187500.02, -187500.02, 36777.18, -187500.02, -187500.02, -187500.02, 0.00, 0.00, 0.00
231, -187500.02, 29873.98, -187500.02, -187500.02, 34383.29, -187500.02, -187500.02, -187500.02, 0.00, 0.00, 0.00
232, -187500.02, 30221.41, -187500.02, -187500.02, 34567.29, -187500.02, -187500.02, -187500.02, 0.00, 0.00, 0.00
233, -187500.02, 32696.55, -187500.02, -187500.02, 36980.34, -187500.02, -187500.02, -187500.02, 0.00, 0.00, 0.00
234, -187500.02, 32687.82, -187500.02, -187500.02, 37140.33, -187500.02, -187500.02, -187500.02, 0.00, 0.00, 0.00
235, -187500.02, 30217.90, -187500.02, -187500.02, 34749.38, -187500.02, -187500.02, -187500.02, 0.00, 0.00, 0.00
236, -187500.02, 29880.66, -187500.02, -187500.02, 34262.61, -187500.02, -187500.02, -187500.02, 0.00, 0.00, 0.00
237, -187500.02, 32327.91, -187500.02, -187500.02, 36615.02, -187500.02, -187500.02, -187500.02, 0.00, 0.00, 0.00
238, -187500.02, 32986.82, -187500.02, -187500.02, 37409.91, -187500.02, -187500.02, -187500.02, 0.00, 0.00, 0.00
239, -187500.02, 30587.20, -187500.02, -187500.02, 35124.11, -187500.02, -187500.02, -187500.02, 0.00, 0.00, 0.00
240, -187500.02, 29614.00, -187500.02, -187500.02, 34030.71, -187500.02, -187500.02, -187500.02, 0.00, 0.00, 0.00
241, -187500.02, 31830.87, -187500.02, -187500.02, 36112.93, -187500.02, -187500.02, -187500.02, 0.00, 0.00, 0.00
242, -187500.02, 33113.84, -187500.02, -187500.02, 37502.14, -187500.02, -187500.02, -187500.02, 0.00, 0.00, 0.00
243, -187500.02, 31044.87, -187500.02, -187500.02, 35573.56, -187500.02, -187500.02, -187500.02, 0.00, 0.00, 0.00
244, -187500.02, 29524.42, -187500.02, -187500.02, 33965.78, -187500.02, -187500.02, -187500.02, 0.00, 0.00, 0.00
245, -187500.02, 31367.50, -187500.02, -187500.02, 35656.95, -187500.02, -187500.02, -187500.02, 0.00, 0.00, 0.00
246, -187500.02, 33185.10, -187500.02, -187500.02, 37543.44, -187500.02, -187500.02, -187500.02, 0.00, 0.00, 0.00
247, -187500.02, 31518.02, -187500.02, -187500.02, 36041.79, -187500.02, -187500.02, -187500.02, 0.00, 0.00, 0.00
248, -187500.02, 29482.15, -187500.02, -187500.02, 33965.48, -187500.02, -187500.02, -187500.02, 0.00, 0.00, 0.00
249, -187500.02, 30835.26, -187500.02, -187500.02, 35150.26, -187500.02, -187500.02, -187500.02, 0.00, 0.00, 0.00
250, -187500.02, 33071.73, -187500.02, -187500.02, 37403.03, -187500.02, -187500.02, -187500.02, 0.00, 0.00, 0.00
251, -187500.02, 31972.02, -187500.02, -187500.02, 36478.05, -187500.02, -187500.02, -187500.02, 0.00, 0.00, 0.00
252, -187500.02, 29660.41, -187500.02, -187500.02, 34168.69, -187500.02, -187500.02, -187500.02, 0.00, 0.00, 0.00
253, -187500.02, 30450.74, -187500.02, -187500.02, 34784.21, -187500.02, -187500.02, -187500.02, 0.00, 0.00, 0.00
254, -187500.02, 32921.39, -187500.02, -187500.02, 37221.06, -187500.02, -187500.02, -187500.02, 0.00, 0.00, 0.00
255, -187500.02, 32439.73, -187500.02, -187500.02, 36911.31, -187500.02, -187500.02, -187500.02, 0.00, 0.00, 0.00
0, -187500.02, 29962.33, -187500.02, -187500.02, 34483.46, -187500.02, -187500.02, -187500.02, 0.00, 0.00, 0.00
1, -187500.02, 30107.71, -187500.02, -187500.02, 34461.09, -187500.02, -187500.02, -187500.02, 0.00, 0.00, 0.00
2, -187500.02, 32587.86, -187500.02, -187500.02, 36868.55, -187500.02, -187500.02, -187500.02, 0.00, 0.00, 0.00
3, -187500.02, 32788.73, -187500.02, -187500.02, 37235.61, -187500.02, -187500.02, -187500.02, 0.00, 0.00, 0.00
4, -187500.02, 30319.51, -187500.02, -187500.02, 34857.75, -187500.02, -187500.02, -187500.02, 0.00, 0.00, 0.00
5, -187500.02, 29779.56, -187500.02, -187500.02, 34170.54, -187500.02, -187500.02, -187500.02, 0.00, 0.00, 0.00
6, -187500.02, 32160.34, -187500.02, -187500.02, 36436.79, -187500.02, -187500.02, -187500.02, 0.00, 0.00, 0.00
7, -187500.02, 33042.65, -187500.02, -187500.02, 37448.16, -187500.02, -187500.02, -187500.02, 0.00, 0.00, 0.00
8, -187500.02, 30740.40, -187500.02, -187500.02, 35274.88, -187500.02, -187500.02, -187500.02, 0.00, 0.00, 0.00
9, -187500.02, 29591.65, -187500.02, -187500.02, 34017.21, -187500.02, -187500.02, -187500.02, 0.00, 0.00, 0.00
10, -187500.02, 31712.79, -187500.02, -187500.02, 35998.36, -187500.02, -187500.02, -187500.02, 0.00, 0.00, 0.00
11, -187500.02, 33174.79, -187500.02, -187500.02, 37552.52, -187500.02, -187500.02, -187500.02, 0.00, 0.00, 0.00
12, -187500.02, 31198.45, -187500.02, -187500.02, 35729.38, -187500.02, -187500.02, -187500.02, 0.00, 0.00, 0.00
13, -187500.02, 29497.39, -187500.02, -187500.02, 33959.23, -187500.02, -187500.02, -187500.02, 0.00, 0.00, 0.00
14, -187500.02, 31229.72, -187500.02, -187500.02, 35527.63, -187500.02, -187500.02, -187500.02, 0.00, 0.00, 0.00
15, -187500.02, 33211.25, -187500.02, -187500.02, 37552.34, -187500.02, -187500.02, -187500.02, 0.00, 0.00, 0.00
16, -187500.02, 31736.12, -187500.02, -187500.02, 36246.06, -187500.02, -187500.02, -187500.02, 0.00, 0.00, 0.00
17, -187500.02, 29604.30, -187500.02, -187500.02, 34089.58, -187500.02, -187500.02, -187500.02, 0.00, 0.00, 0.00
18, -187500.02, 30796.57, -187500.02, -187500.02, 35106.61, -187500.02, -187500.02, -187500.02, 0.00, 0.00, 0.00
19, -187500.02, 33133.02, -187500.02, -187500.02, 37440.82, -187500.02, -187500.02, -187500.02, 0.00, 0.00, 0.00
20, -187500.02, 32212.13, -187500.02, -187500.02, 36694.84, -187500.02, -187500.02, -187500.02, 0.00, 0.00, 0.00
21, -187500.02, 29817.65, -187500.02, -187500.02, 34319.23, -187500.02, -187500.02, -187500.02, 0.00, 0.00, 0.00
22, -187500.02, 30395.82, -187500.02, -187500.02, 34728.75, -187500.02, -187500.02, -187500.02, 0.00, 0.00, 0.00
23, -187500.02, 32888.27, -187500.02, -187500.02, 37181.25, -187500.02, -187500.02, -187500.02, 0.00, 0.00, 0.00
24, -187500.02, 32613.68, -187500.02, -187500.02, 37081.30, -187500.02, -187500.02, -187500.02, 0.00, 0.00, 0.00
25, -187500.02, 30094.46, -187500.02, -187500.02, 34618.87, -187500.02, -187500.02, -187500.02, 0.00, 0.00, 0.00
26, -187500.02, 30029.86, -187500.02, -187500.02, 34384.94, -187500.02, -187500.02, -187500.02, 0.00, 0.00, 0.00
27, -187500.02, 32509.63, -187500.02, -187500.02, 36775.32, -187500.02, -187500.02, -187500.02, 0.00, 0.00, 0.00
28, -187500.02, 32932.21, -187500.02, -187500.02, 37355.39, -187500.02, -187500.02, -187500.02, 0.00, 0.00, 0.00
29, -187500.02, 30493.93, -187500.02, -187500.02, 35018.34, -187500.02, -187500.02, -187500.02, 0.00, 0.00, 0.00
30, -187500.02, 29735.42, -187500.02, -187500.02, 34124.54, -187500.02, -187500.02, -187500.02, 0.00, 0.00, 0.00
31, -187500.02, 32082.46, -187500.02, -187500.02, 36356.54, -187500.02, -187500.02, -187500.02, 0.00, 0.00, 0.00
32, -187500.02, 33167.89, -187500.02, -187500.02, 37563.47, -187500.02, -187500.02, -187500.02, 0.00, 0.00, 0.00
33, -187500.02, 30974.62, -187500.02, -187500.02, 35501.72, -187500.02, -187500.02, -187500.02, 0.00, 0.00, 0.00
34, -187500.02, 29614.03, -187500.02, -187500.02, 34043.74, -187500.02, -187500.02, -187500.02, 0.00, 0.00, 0.00
35, -187500.02, 31613.10, -187500.02, -187500.02, 35895.85, -187500.02, -187500.02, -187500.02, 0.00, 0.00, 0.00
36, -187500.02, 33288.52, -187500.02, -187500.02, 37652.56, -187500.02, -187500.02, -187500.02, 0.00, 0.00, 0.00
37, -187500.02, 31451.29, -187500.02, -187500.02, 35972.29, -187500.02, -187500.02, -187500.02, 0.00, 0.00, 0.00
38, -187500.02, 29563.82, -187500.02, -187500.02, 34026.42, -187500.02, -187500.02, -187500.02, 0.00, 0.00, 0.00
39, -187500.02, 31103.88, -187500.02, -187500.02, 35396.11, -187500.02, -187500.02, -187500.02, 0.00, 0.00, 0.00
40, -187500.02, 33234.52, -187500.02, -187500.02, 37560.16, -187500.02, -187500.02, -187500.02, 0.00, 0.00, 0.00
41, -187500.02, 31906.31, -187500.02, -187500.02, 36407.37, -187500.02, -187500.02, -187500.02, 0.00, 0.00, 0.00
42, -187500.02, 29646.59, -187500.02, -187500.02, 34134.84, -187500.02, -187500.02, -187500.02, 0.00, 0.00, 0.00
43, -187500.02, 30640.91, -187500.02, -187500.02, 34951.98, -187500.02, -187500.02, -187500.02, 0.00, 0.00, 0.00
44, -187500.02, 33054.52, -187500.02, -187500.02, 37350.52, -187500.02, -187500.02, -187500.02, 0.00, 0.00, 0.00
45, -187500.02, 32351.33, -187500.02, -187500.02, 36824.74, -187500.02, -187500.02, -187500.02, 0.00, 0.00, 0.00
46, -187500.02, 29886.61, -187500.02, -187500.02, 34392.34, -187500.02, -187500.02, -187500.02, 0.00, 0.00, 0.00
47, -187500.02, 30248.57, -187500.02, -187500.02, 34584.61, -187500.02, -187500.02, -187500.02, 0.00, 0.00, 0.00
48, -187500.02, 32780.82, -187500.02, -187500.02, 37057.56, -187500.02, -187500.02, -187500.02, 0.00, 0.00, 0.00
49, -187500.02, 32741.86, -187500.02, -187500.02, 37191.20, -187500.02, -187500.02, -187500.02, 0.00, 0.00, 0.00
50, -187500.02, 30223.33, -187500.02, -187500.02, 34752.51, -187500.02, -187500.02, -187500.02, 0.00, 0.00, 0.00
51, -187500.02, 29917.72, -187500.02, -187500.02, 34291.51, -187500.02, -187500.02, -187500.02, 0.00, 0.00, 0.00
52, -187500.02, 32371.54, -187500.02, -187500.02, 36643.70, -187500.02, -187500.02, -187500.02, 0.00, 0.00, 0.00
53, -187500.02, 33048.80, -187500.02, -187500.02, 37459.64, -187500.02, -187500.02, -187500.02, 0.00, 0.00, 0.00
54, -187500.02, 30672.02, -187500.02, -187500.02, 35195.05, -187500.02, -187500.02, -187500.02, 0.00, 0.00, 0.00
55, -187500.02, 29698.27, -187500.02, -187500.02, 34098.93, -187500.02, -187500.02, -187500.02, 0.00, 0.00, 0.00
56, -187500.02, 31949.72, -187500.02, -187500.02, 36220.82, -187500.02, -187500.02, -187500.02, 0.00, 0.00, 0.00
57, -187500.02, 33234.38, -187500.02, -187500.02, 37610.59, -187500.02, -187500.02, -187500.02, 0.00, 0.00, 0.00
58, -187500.02, 31106.47, -187500.02, -187500.02, 35627.76, -187500.02, -187500.02, -187500.02, 0.00, 0.00, 0.00
59, -187500.02, 29540.02, -187500.02, -187500.02, 33975.32, -187500.02, -187500.02, -187500.02, 0.00, 0.00, 0.00
60, -187500.02, 31426.78, -187500.02, -187500.02, 35706.60, -187500.02, -187500.02, -187500.02, 0.00, 0.00, 0.00
61, -187500.02, 33279.94, -187500.02, -187500.02, 37627.33, -187500.02, -187500.02, -187500.02, 0.00, 0.00, 0.00
62, -187500.02, 31634.56, -187500.02, -187500.02, 36150.01, -187500.02, -187500.02, -187500.02, 0.00, 0.00, 0.00
63, -187500.02, 29621.40, -187500.02, -187500.02, 34089.89, -187500.02, -187500.02, -187500.02, 0.00, 0.00, 0.00
64, -187500.02, 30995.54, -187500.02, -187500.02, 35291.88, -187500.02, -187500.02, -187500.02, 0.00, 0.00, 0.00
65, -187500.02, 33220.05, -187500.02, -187500.02, 37530.21, -187500.02, -187500.02, -187500.02, 0.00, 0.00, 0.00
66, -187500.02, 32102.83, -187500.02, -187500.02, 36581.07, -187500.02, -187500.02, -187500.02, 0.00, 0.00, 0.00
67, -187500.02, 29791.92, -187500.02, -187500.02, 34269.56, -187500.02, -187500.02, -187500.02, 0.00, 0.00, 0.00
68, -187500.02, 30584.16, -187500.02, -187500.02, 34886.45, -187500.02, -187500.02, -187500.02, 0.00, 0.00, 0.00
69, -187500.02, 33059.21, -187500.02, -187500.02, 37338.41, -187500.02, -187500.02, -187500.02, 0.00, 0.00, 0.00
70, -187500.02, 32557.84, -187500.02, -187500.02, 37012.86, -187500.02, -187500.02, -187500.02, 0.00, 0.00, 0.00
71, -187500.02, 30030.69, -187500.02, -187500.02, 34528.71, -187500.02, -187500.02, -187500.02, 0.00, 0.00, 0.00
72, -187500.02, 30157.46, -187500.02, -187500.02, 34496.30, -187500.02, -187500.02, -187500.02, 0.00, 0.00, 0.00
73, -187500.02, 32708.69, -187500.02, -187500.02, 36975.37, -187500.02, -187500.02, -187500.02, 0.00, 0.00, 0.00
74, -187500.02, 32920.09, -187500.02, -187500.02, 37340.20, -187500.02, -187500.02, -187500.02, 0.00, 0.00, 0.00
75, -187500.02, 30444.17, -187500.02, -187500.02, 34950.48, -187500.02, -187500.02, -187500.02, 0.00, 0.00, 0.00
76, -187500.02, 29927.46, -187500.02, -187500.02, 34291.89, -187500.02, -187500.02, -187500.02, 0.00, 0.00, 0.00
77, -187500.02, 32341.70, -187500.02, -187500.02, 36598.43, -187500.02, -187500.02, -187500.02, 0.00, 0.00, 0.00
78, -187500.02, 33240.62, -187500.02, -187500.02, 37629.47, -187500.02, -187500.02, -187500.02, 0.00, 0.00, 0.00
79, -187500.02, 30910.76, -187500.02, -187500.02, 35423.69, -187500.02, -187500.02, -187500.02, 0.00, 0.00, 0.00
80, -187500.02, 29741.79, -187500.02, -187500.02, 34146.80, -187500.02, -187500.02, -187500.02, 0.00, 0.00, 0.00
81, -187500.02, 31884.52, -187500.02, -187500.02, 36149.56, -187500.02, -187500.02, -187500.02, 0.00, 0.00, 0.00
82, -187500.02, 33372.58, -187500.02, -187500.02, 37730.95, -187500.02, -187500.02, -187500.02, 0.00, 0.00, 0.00
83, -187500.02, 31380.48, -187500.02, -187500.02, 35896.57, -187500.02, -187500.02, -187500.02, 0.00, 0.00, 0.00
84, -187500.02, 29654.84, -187500.02, -187500.02, 34102.99, -187500.02, -187500.02, -187500.02, 0.00, 0.00, 0.00
85, -187500.02, 31381.02, -187500.02, -187500.02, 35671.66, -187500.02, -187500.02, -187500.02, 0.00, 0.00, 0.00
86, -187500.02, 33357.81, -187500.02, -187500.02, 37693.73, -187500.02, -187500.02, -187500.02, 0.00, 0.00, 0.00
87, -187500.02, 31844.44, -187500.02, -187500.02, 36350.33, -187500.02, -187500.02, -187500.02, 0.00, 0.00, 0.00
88, -187500.02, 29706.88, -187500.02, -187500.02, 34186.57, -187500.02, -187500.02, -187500.02, 0.00, 0.00, 0.00
89, -187500.02, 30907.81, -187500.02, -187500.02, 35212.56, -187500.02, -187500.02, -187500.02, 0.00, 0.00, 0.00
90, -187500.02, 33246.90, -187500.02, -187500.02, 37559.58, -187500.02, -187500.02, -187500.02, 0.00, 0.00, 0.00
91, -187500.02, 32328.62, -187500.02, -187500.02, 36813.34, -187500.02, -187500.02, -187500.02, 0.00, 0.00, 0.00
92, -187500.02, 29912.73, -187500.02, -187500.02, 34407.65, -187500.02, -187500.02, -187500.02, 0.00, 0.00, 0.00
93, -187500.02, 30490.84, -187500.02, -187500.02, 34813.51, -187500.02, -187500.02, -187500.02, 0.00, 0.00, 0.00
94, -187500.02, 32998.37, -187500.02, -187500.02, 37275.00, -187500.02, -187500.02, -187500.02, 0.00, 0.00, 0.00
95, -187500.02, 32719.53, -187500.02, -187500.02, 37167.55, -187500.02, -187500.02, -187500.02, 0.00, 0.00, 0.00
96, -187500.02, 30205.65, -187500.02, -187500.02, 34717.73, -187500.02, -187500.02, -187500.02, 0.00, 0.00, 0.00
97, -187500.02, 30117.99, -187500.02, -187500.02, 34470.73, -187500.02, -187500.02, -187500.02, 0.00, 0.00, 0.00
98, -187500.02, 32615.69, -187500.02, -187500.02, 36883.80, -187500.02, -187500.02, -187500.02, 0.00, 0.00, 0.00
99, -187500.02, 33044.17, -187500.02, -187500.02, 37463.15, -187500.02, -187500.02, -187500.02, 0.00, 0.00, 0.00
100, -187500.02, 30603.00, -187500.02, -187500.02, 35120.07, -187500.02, -187500.02, -187500.02, 0.00, 0.00, 0.00
101, -187500.02, 29874.98, -187500.02, -187500.02, 34256.98, -187500.02, -187500.02, -187500.02, 0.00, 0.00, 0.00
102, -187500.02, 32207.30, -187500.02, -187500.02, 36472.39, -187500.02, -187500.02, -187500.02, 0.00, 0.00, 0.00
103, -187500.02, 33290.60, -187500.02, -187500.02, 37672.12, -187500.02, -187500.02, -187500.02, 0.00, 0.00, 0.00
104, -187500.02, 31055.76, -187500.02, -187500.02, 35569.13, -187500.02, -187500.02, -187500.02, 0.00, 0.00, 0.00
105, -187500.02, 29716.71, -187500.02, -187500.02, 34135.54, -187500.02, -187500.02, -187500.02, 0.00, 0.00, 0.00
106, -187500.02, 31731.23, -187500.02, -187500.02, 36008.48, -187500.02, -187500.02, -187500.02, 0.00, 0.00, 0.00
107, -187500.02, 33388.83, -187500.02, -187500.02, 37747.31, -187500.02, -187500.02, -187500.02, 0.00, 0.00, 0.00
108, -187500.02, 31572.75, -187500.02, -187500.02, 36085.59, -187500.02, -187500.02, -187500.02, 0.00, 0.00, 0.00
109, -187500.02, 29717.29, -187500.02, -187500.02, 34164.48, -187500.02, -187500.02, -187500.02, 0.00, 0.00, 0.00
110, -187500.02, 31267.03, -187500.02, -187500.02, 35544.01, -187500.02, -187500.02, -187500.02, 0.00, 0.00, 0.00
111, -187500.02, 33363.71, -187500.02, -187500.02, 37681.51, -187500.02, -187500.02, -187500.02, 0.00, 0.00, 0.00
112, -187500.02, 32060.09, -187500.02, -187500.02, 36554.96, -187500.02, -187500.02, -187500.02, 0.00, 0.00, 0.00
113, -187500.02, 29829.54, -187500.02, -187500.02, 34308.72, -187500.02, -187500.02, -187500.02, 0.00, 0.00, 0.00
114, -187500.02, 30810.89, -187500.02, -187500.02, 35116.67, -187500.02, -187500.02, -187500.02, 0.00, 0.00, 0.00
115, -187500.02, 33214.04, -187500.02, -187500.02, 37510.88, -187500.02, -187500.02, -187500.02, 0.00, 0.00, 0.00
116, -187500.02, 32515.71, -187500.02, -187500.02, 36988.80, -187500.02, -187500.02, -187500.02, 0.00, 0.00, 0.00
117, -187500.02, 30036.63, -187500.02, -187500.02, 34545.38, -187500.02, -187500.02, -187500.02, 0.00, 0.00, 0.00
118, -187500.02, 30385.77, -187500.02, -187500.02, 34719.72, -187500.02, -187500.02, -187500.02, 0.00, 0.00, 0.00
119, -187500.02, 32902.59, -187500.02, -187500.02, 37175.38, -187500.02, -187500.02, -187500.02, 0.00, 0.00, 0.00
120, -187500.02, 32901.59, -187500.02, -187500.02, 37344.58, -187500.02, -187500.02, -187500.02, 0.00, 0.00, 0.00
121, -187500.02, 30405.19, -187500.02, -187500.02, 34922.41, -187500.02, -187500.02, -187500.02, 0.00, 0.00, 0.00
122, -187500.02, 30089.27, -187500.02, -187500.02, 34447.46, -187500.02, -187500.02, -187500.02, 0.00, 0.00, 0.00
123, -187500.02, 32574.92, -187500.02, -187500.02, 36832.90, -187500.02, -187500.02, -187500.02, 0.00, 0.00, 0.00
124, -187500.02, 33217.48, -187500.02, -187500.02, 37620.73, -187500.02, -187500.02, -187500.02, 0.00, 0.00, 0.00
125, -187500.02, 30833.52, -187500.02, -187500.02, 35353.33, -187500.02, -187500.02, -187500.02, 0.00, 0.00, 0.00
126, -187500.02, 29891.66, -187500.02, -187500.02, 34287.02, -187500.02, -187500.02, -187500.02, 0.00, 0.00, 0.00
127, -187500.02, 32134.05, -187500.02, -187500.02, 36398.32, -187500.02, -187500.02, -187500.02, 0.00, 0.00, 0.00
128, -187500.02, 33410.78, -187500.02, -187500.02, 37783.34, -187500.02, -187500.02, -187500.02, 0.00, 0.00, 0.00
129, -187500.02, 31312.92, -187500.02, -187500.02, 35833.29, -187500.02, -187500.02, -187500.02, 0.00, 0.00, 0.00
130, -187500.02, 29769.37, -187500.02, -187500.02, 34210.93, -187500.02, -187500.02, -187500.02, 0.00, 0.00, 0.00
131, -187500.02, 31647.63, -187500.02, -187500.02, 35938.16, -187500.02, -187500.02, -187500.02, 0.00, 0.00, 0.00
132, -187500.02, 33485.50, -187500.02, -187500.02, 37838.82, -187500.02, -187500.02, -187500.02, 0.00, 0.00, 0.00
133, -187500.02, 31795.11, -187500.02, -187500.02, 36309.83, -187500.02, -187500.02, -187500.02, 0.00, 0.00, 0.00
134, -187500.02, 29772.32, -187500.02, -187500.02, 34249.04, -187500.02, -187500.02, -187500.02, 0.00, 0.00, 0.00
135, -187500.02, 31166.00, -187500.02, -187500.02, 35470.05, -187500.02, -187500.02, -187500.02, 0.00, 0.00, 0.00
136, -187500.02, 33393.21, -187500.02, -187500.02, 37717.43, -187500.02, -187500.02, -187500.02, 0.00, 0.00, 0.00
137, -187500.02, 32264.16, -187500.02, -187500.02, 36767.66, -187500.02, -187500.02, -187500.02, 0.00, 0.00, 0.00
138, -187500.02, 29949.48, -187500.02, -187500.02, 34459.93, -187500.02, -187500.02, -187500.02, 0.00, 0.00, 0.00
139, -187500.02, 30751.08, -187500.02, -187500.02, 35090.74, -187500.02, -187500.02, -187500.02, 0.00, 0.00, 0.00
140, -187500.02, 33219.70, -187500.02, -187500.02, 37528.91, -187500.02, -187500.02, -187500.02, 0.00, 0.00, 0.00
141, -187500.02, 32741.62, -187500.02, -187500.02, 37226.18, -187500.02, -187500.02, -187500.02, 0.00, 0.00, 0.00
142, -187500.02, 30244.28, -187500.02, -187500.02, 34778.06, -187500.02, -187500.02, -187500.02, 0.00, 0.00, 0.00
143, -187500.02, 30385.92, -187500.02, -187500.02, 34756.05, -187500.02, -187500.02, -187500.02, 0.00, 0.00, 0.00
144, -187500.02, 32919.09, -187500.02, -187500.02, 37219.03, -187500.02, -187500.02, -187500.02, 0.00, 0.00, 0.00
145, -187500.02, 33121.13, -187500.02, -187500.02, 37579.34, -187500.02, -187500.02, -187500.02, 0.00, 0.00, 0.00
146, -187500.02, 30651.30, -187500.02, -187500.02, 35188.89, -187500.02, -187500.02, -187500.02, 0.00, 0.00, 0.00
147, -187500.02, 30117.16, -187500.02, -187500.02, 34502.06, -187500.02, -187500.02, -187500.02, 0.00, 0.00, 0.00
148, -187500.02, 32543.67, -187500.02, -187500.02, 36820.72, -187500.02, -187500.02, -187500.02, 0.00, 0.00, 0.00
149, -187500.02, 33416.24, -187500.02, -187500.02, 37826.82, -187500.02, -187500.02, -187500.02, 0.00, 0.00, 0.00
150, -187500.02, 31083.09, -187500.02, -187500.02, 35617.55, -187500.02, -187500.02, -187500.02, 0.00, 0.00, 0.00
151, -187500.02, 29927.71, -187500.02, -187500.02, 34354.65, -187500.02, -187500.02, -187500.02, 0.00, 0.00, 0.00
152, -187500.02, 32054.28, -187500.02, -187500.02, 36341.88, -187500.02, -187500.02, -187500.02, 0.00, 0.00, 0.00
153, -187500.02, 33535.68, -187500.02, -187500.02, 37917.01, -187500.02, -187500.02, -187500.02, 0.00, 0.00, 0.00
154, -187500.02, 31585.09, -187500.02, -187500.02, 36111.63, -187500.02, -187500.02, -187500.02, 0.00, 0.00, 0.00
155, -187500.02, 29891.61, -187500.02, -187500.02, 34339.16, -187500.02, -187500.02, -187500.02, 0.00, 0.00, 0.00
156, -187500.02, 31601.14, -187500.02, -187500.02, 35895.71, -187500.02, -187500.02, -187500.02, 0.00, 0.00, 0.00
157, -187500.02, 33588.43, -187500.02, -187500.02, 37938.89, -187500.02, -187500.02, -187500.02, 0.00, 0.00, 0.00
158, -187500.02, 32085.41, -187500.02, -187500.02, 36611.75, -187500.02, -187500.02, -187500.02, 0.00, 0.00, 0.00
159, -187500.02, 29926.28, -187500.02, -187500.02, 34426.47, -187500.02, -187500.02, -187500.02, 0.00, 0.00, 0.00
160, -187500.02, 31117.72, -187500.02, -187500.02, 35439.72, -187500.02, -187500.02, -187500.02, 0.00, 0.00, 0.00
161, -187500.02, 33432.89, -187500.02, -187500.02, 37753.86, -187500.02, -187500.02, -187500.02, 0.00, 0.00, 0.00
162, -187500.02, 32503.26, -187500.02, -187500.02, 36995.24, -187500.02, -187500.02, -187500.02, 0.00, 0.00, 0.00
163, -187500.02, 30100.02, -187500.02, -187500.02, 34606.18, -187500.02, -187500.02, -187500.02, 0.00, 0.00, 0.00
164, -187500.02, 30676.52, -187500.02, -187500.02, 35008.53, -187500.02, -187500.02, -187500.02, 0.00, 0.00, 0.00
165, -187500.02, 33161.05, -187500.02, -187500.02, 37451.46, -187500.02, -187500.02, -187500.02, 0.00, 0.00, 0.00
166, -187500.02, 32896.09, -187500.02, -187500.02, 37362.86, -187500.02, -187500.02, -187500.02, 0.00, 0.00, 0.00
167, -187500.02, 30407.00, -187500.02, -187500.02, 34944.11, -187500.02, -187500.02, -187500.02, 0.00, 0.00, 0.00
168, -187500.02, 30321.88, -187500.02, -187500.02, 34697.62, -187500.02, -187500.02, -187500.02, 0.00, 0.00, 0.00
169, -187500.02, 32807.73, -187500.02, -187500.02, 37093.12, -187500.02, -187500.02, -187500.02, 0.00, 0.00, 0.00
170, -187500.02, 33224.95, -187500.02, -187500.02, 37665.28, -187500.02, -187500.02, -187500.02, 0.00, 0.00, 0.00
171, -187500.02, 30810.38, -187500.02, -187500.02, 35347.61, -187500.02, -187500.02, -187500.02, 0.00, 0.00, 0.00
172, -187500.02, 30072.91, -187500.02, -187500.02, 34469.05, -187500.02, -187500.02, -187500.02, 0.00, 0.00, 0.00
173, -187500.02, 32395.21, -187500.02, -187500.02, 36675.12, -187500.02, -187500.02, -187500.02, 0.00, 0.00, 0.00
174, -187500.02, 33459.96, -187500.02, -187500.02, 37862.31, -187500.02, -187500.02, -187500.02, 0.00, 0.00, 0.00
175, -187500.02, 31249.17, -187500.02, -187500.02, 35786.17, -187500.02, -187500.02, -187500.02, 0.00, 0.00, 0.00
176, -187500.02, 29896.26, -187500.02, -187500.02, 34328.23, -187500.02, -187500.02, -187500.02, 0.00, 0.00, 0.00
177, -187500.02, 31892.94, -187500.02, -187500.02, 36170.95, -187500.02, -187500.02, -187500.02, 0.00, 0.00, 0.00
178, -187500.02, 33541.65, -187500.02, -187500.02, 37902.37, -187500.02, -187500.02, -187500.02, 0.00, 0.00, 0.00
179, -187500.02, 31708.90, -187500.02, -187500.02, 36229.02, -187500.02, -187500.02, -187500.02, 0.00, 0.00, 0.00
180, -187500.02, 29854.87, -187500.02, -187500.02, 34313.79, -187500.02, -187500.02, -187500.02, 0.00, 0.00, 0.00
181, -187500.02, 31391.26, -187500.02, -187500.02, 35680.27, -187500.02, -187500.02, -187500.02, 0.00, 0.00, 0.00
182, -187500.02, 33487.20, -187500.02, -187500.02, 37809.25, -187500.02, -187500.02, -187500.02, 0.00, 0.00, 0.00
183, -187500.02, 32168.34, -187500.02, -187500.02, 36664.77, -187500.02, -187500.02, -187500.02, 0.00, 0.00, 0.00
184, -187500.02, 29949.91, -187500.02, -187500.02, 34434.29, -187500.02, -187500.02, -187500.02, 0.00, 0.00, 0.00
185, -187500.02, 30947.49, -187500.02, -187500.02, 35253.50, -187500.02, -187500.02, -187500.02, 0.00, 0.00, 0.00
186, -187500.02, 33321.27, -187500.02, -187500.02, 37616.89, -187500.02, -187500.02, -187500.02, 0.00, 0.00, 0.00
187, -187500.02, 32619.91, -187500.02, -187500.02, 37096.56, -187500.02, -187500.02, -187500.02, 0.00, 0.00, 0.00
188, -187500.02, 30180.71, -187500.02, -187500.02, 34688.97, -187500.02, -187500.02, -187500.02, 0.00, 0.00, 0.00
189, -187500.02, 30540.82, -187500.02, -187500.02, 34869.46, -187500.02, -187500.02, -187500.02, 0.00, 0.00, 0.00
190, -187500.02, 33045.29, -187500.02, -187500.02, 37312.82, -187500.02, -187500.02, -187500.02, 0.00, 0.00, 0.00
191, -187500.02, 33027.61, -187500.02, -187500.02, 37460.34, -187500.02, -187500.02, -187500.02, 0.00, 0.00, 0.00
192, -187500.02, 30534.02, -187500.02, -187500.02, 35039.11, -187500.02, -187500.02, -187500.02, 0.00, 0.00, 0.00
193, -187500.02, 30206.19, -187500.02, -187500.02, 34560.49, -187500.02, -187500.02, -187500.02, 0.00, 0.00, 0.00
194, -187500.02, 32653.37, -187500.02, -187500.02, 36909.64, -187500.02, -187500.02, -187500.02, 0.00, 0.00, 0.00
195, -187500.02, 33313.33, -187500.02, -187500.02, 37714.88, -187500.02, -187500.02, -187500.02, 0.00, 0.00, 0.00
196, -187500.02, 30956.47, -187500.02, -187500.02, 35472.98, -187500.02, -187500.02, -187500.02, 0.00, 0.00, 0.00
197, -187500.02, 29992.29, -187500.02, -187500.02, 34383.71, -187500.02, -187500.02, -187500.02, 0.00, 0.00, 0.00
198, -187500.02, 32239.26, -187500.02, -187500.02, 36497.47, -187500.02, -187500.02, -187500.02, 0.00, 0.00, 0.00
199, -187500.02, 33520.66, -187500.02, -187500.02, 37886.41, -187500.02, -187500.02, -187500.02, 0.00, 0.00, 0.00
200, -187500.02, 31418.24, -187500.02, -187500.02, 35924.86, -187500.02, -187500.02, -187500.02, 0.00, 0.00, 0.00
201, -187500.02, 29882.58, -187500.02, -187500.02, 34298.82, -187500.02, -187500.02, -187500.02, 0.00, 0.00, 0.00
202, -187500.02, 31751.05, -187500.02, -187500.02, 36011.50, -187500.02, -187500.02, -187500.02, 0.00, 0.00, 0.00
203, -187500.02, 33564.83, -187500.02, -187500.02, 37893.92, -187500.02, -187500.02, -187500.02, 0.00, 0.00, 0.00
204, -187500.02, 31907.40, -187500.02, -187500.02, 36402.00, -187500.02, -187500.02, -187500.02, 0.00, 0.00, 0.00
205, -187500.02, 29914.32, -187500.02, -187500.02, 34370.75, -187500.02, -187500.02, -187500.02, 0.00, 0.00, 0.00
206, -187500.02, 31302.81, -187500.02, -187500.02, 35592.71, -187500.02, -187500.02, -187500.02, 0.00, 0.00, 0.00
207, -187500.02, 33540.27, -187500.02, -187500.02, 37851.00, -187500.02, -187500.02, -187500.02, 0.00, 0.00, 0.00
208, -187500.02, 32438.73, -187500.02, -187500.02, 36919.85, -187500.02, -187500.02, -187500.02, 0.00, 0.00, 0.00
209, -187500.02, 30130.33, -187500.02, -187500.02, 34607.63, -187500.02, -187500.02, -187500.02, 0.00, 0.00, 0.00
210, -187500.02, 30885.26, -187500.02, -187500.02, 35189.33, -187500.02, -187500.02, -187500.02, 0.00, 0.00, 0.00
211, -187500.02, 33314.00, -187500.02, -187500.02, 37590.58, -187500.02, -187500.02, -187500.02, 0.00, 0.00, 0.00
212, -187500.02, 32852.41, -187500.02, -187500.02, 37308.48, -187500.02, -187500.02, -187500.02, 0.00, 0.00, 0.00
213, -187500.02, 30414.08, -187500.02, -187500.02, 34922.70, -187500.02, -187500.02, -187500.02, 0.00, 0.00, 0.00
214, -187500.02, 30528.32, -187500.02, -187500.02, 34870.66, -187500.02, -187500.02, -187500.02, 0.00, 0.00, 0.00
215, -187500.02, 33000.23, -187500.02, -187500.02, 37266.93, -187500.02, -187500.02, -187500.02, 0.00, 0.00, 0.00
216, -187500.02, 33213.55, -187500.02, -187500.02, 37635.44, -187500.02, -187500.02, -187500.02, 0.00, 0.00, 0.00
217, -187500.02, 30784.47, -187500.02, -187500.02, 35296.06, -187500.02, -187500.02, -187500.02, 0.00, 0.00, 0.00
218, -187500.02, 30271.50, -187500.02, -187500.02, 34639.70, -187500.02, -187500.02, -187500.02, 0.00, 0.00, 0.00
219, -187500.02, 32638.22, -187500.02, -187500.02, 36904.92, -187500.02, -187500.02, -187500.02, 0.00, 0.00, 0.00
220, -187500.02, 33503.88, -187500.02, -187500.02, 37901.45, -187500.02, -187500.02, -187500.02, 0.00, 0.00, 0.00
221, -187500.02, 31219.02, -187500.02, -187500.02, 35730.25, -187500.02, -187500.02, -187500.02, 0.00, 0.00, 0.00
222, -187500.02, 30037.70, -187500.02, -187500.02, 34440.82, -187500.02, -187500.02, -187500.02, 0.00, 0.00, 0.00
223, -187500.02, 32134.45, -187500.02, -187500.02, 36405.20, -187500.02, -187500.02, -187500.02, 0.00, 0.00, 0.00
224, -187500.02, 33609.49, -187500.02, -187500.02, 37975.68, -187500.02, -187500.02, -187500.02, 0.00, 0.00, 0.00
225, -187500.02, 31663.57, -187500.02, -187500.02, 36175.52, -187500.02, -187500.02, -187500.02, 0.00, 0.00, 0.00
226, -187500.02, 29968.08, -187500.02, -187500.02, 34412.50, -187500.02, -187500.02, -187500.02, 0.00, 0.00, 0.00
227, -187500.02, 31687.06, -187500.02, -187500.02, 35967.15, -187500.02, -187500.02, -187500.02, 0.00, 0.00, 0.00
228, -187500.02, 33664.92, -187500.02, -187500.02, 37987.59, -187500.02, -187500.02, -187500.02, 0.00, 0.00, 0.00
229, -187500.02, 32186.06, -187500.02, -187500.02, 36675.66, -187500.02, -187500.02, -187500.02, 0.00, 0.00, 0.00
230, -187500.02, 30082.72, -187500.02, -187500.02, 34548.84, -187500.02, -187500.02, -187500.02, 0.00, 0.00, 0.00
231, -187500.02, 31246.91, -187500.02, -187500.02, 35546.92, -187500.02, -187500.02, -187500.02, 0.00, 0.00, 0.00
232, -187500.02, 33515.34, -187500.02, -187500.02, 37822.55, -187500.02, -187500.02, -187500.02, 0.00, 0.00, 0.00
233, -187500.02, 32619.89, -187500.02, -187500.02, 37099.18, -187500.02, -187500.02, -187500.02, 0.00, 0.00, 0.00
234, -187500.02, 30269.04, -187500.02, -187500.02, 34759.98, -187500.02, -187500.02, -187500.02, 0.00, 0.00, 0.00
235, -187500.02, 30843.55, -187500.02, -187500.02, 35166.42, -187500.02, -187500.02, -187500.02, 0.00, 0.00, 0.00
236, -187500.02, 33315.16, -187500.02, -187500.02, 37597.62, -187500.02, -187500.02, -187500.02, 0.00, 0.00, 0.00
237, -187500.02, 33065.79, -187500.02, -187500.02, 37515.23, -187500.02, -187500.02, -187500.02, 0.00, 0.00, 0.00
238, -187500.02, 30579.69, -187500.02, -187500.02, 35099.28, -187500.02, -187500.02, -187500.02, 0.00, 0.00, 0.00
239, -187500.02, 30494.60, -187500.02, -187500.02, 34861.34, -187500.02, -187500.02, -187500.02, 0.00, 0.00, 0.00
240, -187500.02, 32967.01, -187500.02, -187500.02, 37248.82, -187500.02, -187500.02, -187500.02, 0.00, 0.00, 0.00
241, -187500.02, 33388.21, -187500.02, -187500.02, 37821.25, -187500.02, -187500.02, -187500.02, 0.00, 0.00, 0.00
242, -187500.02, 30989.33, -187500.02, -187500.02, 35521.95, -187500.02, -187500.02, -187500.02, 0.00, 0.00, 0.00
243, -187500.02, 30252.73, -187500.02, -187500.02, 34650.95, -187500.02, -187500.02, -187500.02, 0.00, 0.00, 0.00
244, -187500.02, 32596.53, -187500.02, -187500.02, 36874.21, -187500.02, -187500.02, -187500.02, 0.00, 0.00, 0.00
245, -187500.02, 33687.54, -187500.02, -187500.02, 38083.86, -187500.02, -187500.02, -187500.02, 0.00, 0.00, 0.00
246, -187500.02, 31490.54, -187500.02, -187500.02, 36026.09, -187500.02, -187500.02, -187500.02, 0.00, 0.00, 0.00
247, -187500.02, 30154.34, -187500.02, -187500.02, 34593.32, -187500.02, -187500.02, -187500.02, 0.00, 0.00, 0.00
248, -187500.02, 32149.21, -187500.02, -187500.02, 36437.88, -187500.02, -187500.02, -187500.02, 0.00, 0.00, 0.00
249, -187500.02, 33791.97, -187500.02, -187500.02, 38151.86, -187500.02, -187500.02, -187500.02, 0.00, 0.00, 0.00
250, -187500.02, 31981.32, -187500.02, -187500.02, 36495.86, -187500.02, -187500.02, -187500.02, 0.00, 0.00, 0.00
251, -187500.02, 30147.94, -187500.02, -187500.02, 34600.79, -187500.02, -187500.02, -187500.02, 0.00, 0.00, 0.00
252, -187500.02, 31699.78, -187500.02, -187500.02, 35988.72, -187500.02, -187500.02, -187500.02, 0.00, 0.00, 0.00
253, -187500.02, 33803.10, -187500.02, -187500.02, 38126.82, -187500.02, -187500.02, -187500.02, 0.00, 0.00, 0.00
254, -187500.02, 32453.19, -187500.02, -187500.02, 36956.20, -187500.02, -187500.02, -187500.02, 0.00, 0.00, 0.00
255, -187500.02, 30211.35, -187500.02, -187500.02, 34709.08, -187500.02, -187500.02, -187500.02, 0.00, 0.00, 0.00
0, -187500.02, 31205.58, -187500.02, -187500.02, 35527.71, -187500.02, -187500.02, -187500.02, 0.00, 0.00, 0.00
1, -187500.02, 33609.63, -187500.02, -187500.02, 37913.30, -187500.02, -187500.02, -187500.02, 0.00, 0.00, 0.00
2, -187500.02, 32924.03, -187500.02, -187500.02, 37401.24, -187500.02, -187500.02, -187500.02, 0.00, 0.00, 0.00
3, -187500.02, 30497.70, -187500.02, -187500.02, 35012.80, -187500.02, -187500.02, -187500.02, 0.00, 0.00, 0.00
4, -187500.02, 30857.95, -187500.02, -187500.02, 35211.37, -187500.02, -187500.02, -187500.02, 0.00, 0.00, 0.00
5, -187500.02, 33364.36, -187500.02, -187500.02, 37661.61, -187500.02, -187500.02, -187500.02, 0.00, 0.00, 0.00
6, -187500.02, 33329.73, -187500.02, -187500.02, 37798.43, -187500.02, -187500.02, -187500.02, 0.00, 0.00, 0.00
7, -187500.02, 30841.76, -187500.02, -187500.02, 35390.28, -187500.02, -187500.02, -187500.02, 0.00, 0.00, 0.00
8, -187500.02, 30526.42, -187500.02, -187500.02, 34927.35, -187500.02, -187500.02, -187500.02, 0.00, 0.00, 0.00
9, -187500.02, 32989.07, -187500.02, -187500.02, 37295.14, -187500.02, -187500.02, -187500.02, 0.00, 0.00, 0.00
10, -187500.02, 33650.95, -187500.02, -187500.02, 38090.14, -187500.02, -187500.02, -187500.02, 0.00, 0.00, 0.00
11, -187500.02, 31268.41, -187500.02, -187500.02, 35811.00, -187500.02, -187500.02, -187500.02, 0.00, 0.00, 0.00
12, -187500.02, 30312.45, -187500.02, -187500.02, 34721.22, -187500.02, -187500.02, -187500.02, 0.00, 0.00, 0.00
13, -187500.02, 32525.21, -187500.02, -187500.02, 36811.09, -187500.02, -187500.02, -187500.02, 0.00, 0.00, 0.00
14, -187500.02, 33810.07, -187500.02, -187500.02, 38211.80, -187500.02, -187500.02, -187500.02, 0.00, 0.00, 0.00
15, -187500.02, 31743.81, -187500.02, -187500.02, 36293.33, -187500.02, -187500.02, -187500.02, 0.00, 0.00, 0.00
16, -187500.02, 30217.99, -187500.02, -187500.02, 34681.28, -187500.02, -187500.02, -187500.02, 0.00, 0.00, 0.00
17, -187500.02, 32068.47, -187500.02, -187500.02, 36379.72, -187500.02, -187500.02, -187500.02, 0.00, 0.00, 0.00
18, -187500.02, 33866.76, -187500.02, -187500.02, 38237.69, -187500.02, -187500.02, -187500.02, 0.00, 0.00, 0.00
19, -187500.02, 32193.75, -187500.02, -187500.02, 36720.85, -187500.02, -187500.02, -187500.02, 0.00, 0.00, 0.00
20, -187500.02, 30192.98, -187500.02, -187500.02, 34676.25, -187500.02, -187500.02, -187500.02, 0.00, 0.00, 0.00
21, -187500.02, 31553.26, -187500.02, -187500.02, 35872.83, -187500.02, -187500.02, -187500.02, 0.00, 0.00, 0.00
22, -187500.02, 33781.93, -187500.02, -187500.02, 38123.43, -187500.02, -187500.02, -187500.02, 0.00, 0.00, 0.00
23, -187500.02, 32686.43, -187500.02, -187500.02, 37205.75, -187500.02, -187500.02, -187500.02, 0.00, 0.00, 0.00
24, -187500.02, 30363.14, -187500.02, -187500.02, 34888.08, -187500.02, -187500.02, -187500.02, 0.00, 0.00, 0.00
25, -187500.02, 31158.29, -187500.02, -187500.02, 35513.28, -187500.02, -187500.02, -187500.02, 0.00, 0.00, 0.00
26, -187500.02, 33610.68, -187500.02, -187500.02, 37936.07, -187500.02, -187500.02, -187500.02, 0.00, 0.00, 0.00
27, -187500.02, 33114.20, -187500.02, -187500.02, 37610.86, -187500.02, -187500.02, -187500.02, 0.00, 0.00, 0.00
28, -187500.02, 30634.29, -187500.02, -187500.02, 35178.87, -187500.02, -187500.02, -187500.02, 0.00, 0.00, 0.00
29, -187500.02, 30753.61, -187500.02, -187500.02, 35130.41, -187500.02, -187500.02, -187500.02, 0.00, 0.00, 0.00
30, -187500.02, 33244.62, -187500.02, -187500.02, 37548.09, -187500.02, -187500.02, -187500.02, 0.00, 0.00, 0.00
31, -187500.02, 33449.92, -187500.02, -187500.02, 37912.98, -187500.02, -187500.02, -187500.02, 0.00, 0.00, 0.00
32, -187500.02, 30949.86, -187500.02, -187500.02, 35503.60, -187500.02, -187500.02, -187500.02, 0.00, 0.00, 0.00
33, -187500.02, 30410.04, -187500.02, -187500.02, 34815.95, -187500.02, -187500.02, -187500.02, 0.00, 0.00, 0.00
34, -187500.02, 32796.58, -187500.02, -187500.02, 37089.61, -187500.02, -187500.02, -187500.02, 0.00, 0.00, 0.00
35, -187500.02, 33679.52, -187500.02, -187500.02, 38100.96, -187500.02, -187500.02, -187500.02, 0.00, 0.00, 0.00
36, -187500.02, 31362.69, -187500.02, -187500.02, 35912.12, -187500.02, -187500.02, -187500.02, 0.00, 0.00, 0.00
37, -187500.02, 30174.14, -187500.02, -187500.02, 34614.43, -187500.02, -187500.02, -187500.02, 0.00, 0.00, 0.00
38, -187500.02, 32313.09, -187500.02, -187500.02, 36611.26, -187500.02, -187500.02, -187500.02, 0.00, 0.00, 0.00
39, -187500.02, 33823.51, -187500.02, -187500.02, 38213.43, -187500.02, -187500.02, -187500.02, 0.00, 0.00, 0.00
40, -187500.02, 31845.94, -187500.02, -187500.02, 36395.21, -187500.02, -187500.02, -187500.02, 0.00, 0.00, 0.00
41, -187500.02, 30135.40, -187500.02, -187500.02, 34608.95, -187500.02, -187500.02, -187500.02, 0.00, 0.00, 0.00
42, -187500.02, 31855.50, -187500.02, -187500.02, 36165.32, -187500.02, -187500.02, -187500.02, 0.00, 0.00, 0.00
43, -187500.02, 33834.59, -187500.02, -187500.02, 38192.78, -187500.02, -187500.02, -187500.02, 0.00, 0.00, 0.00
44, -187500.02, 32349.81, -187500.02, -187500.02, 36875.41, -187500.02, -187500.02, -187500.02, 0.00, 0.00, 0.00
45, -187500.02, 30217.79, -187500.02, -187500.02, 34713.69, -187500.02, -187500.02, -187500.02, 0.00, 0.00, 0.00
46, -187500.02, 31419.35, -187500.02, -187500.02, 35742.16, -187500.02, -187500.02, -187500.02, 0.00, 0.00, 0.00
47, -187500.02, 33767.32, -187500.02, -187500.02, 38082.92, -187500.02, -187500.02, -187500.02, 0.00, 0.00, 0.00
48, -187500.02, 32824.45, -187500.02, -187500.02, 37315.54, -187500.02, -187500.02, -187500.02, 0.00, 0.00, 0.00
49, -187500.02, 30406.62, -187500.02, -187500.02, 34917.60, -187500.02, -187500.02, -187500.02, 0.00, 0.00, 0.00
50, -187500.02, 30984.17, -187500.02, -187500.02, 35329.14, -187500.02, -187500.02, -187500.02, 0.00, 0.00, 0.00
51, -187500.02, 33494.67, -187500.02, -187500.02, 37795.48, -187500.02, -187500.02, -187500.02, 0.00, 0.00, 0.00
52, -187500.02, 33254.12, -187500.02, -187500.02, 37724.02, -187500.02, -187500.02, -187500.02, 0.00, 0.00, 0.00
53, -187500.02, 30746.86, -187500.02, -187500.02, 35273.98, -187500.02, -187500.02, -187500.02, 0.00, 0.00, 0.00
54, -187500.02, 30650.19, -187500.02, -187500.02, 35016.84, -187500.02, -187500.02, -187500.02, 0.00, 0.00, 0.00
55, -187500.02, 33159.55, -187500.02, -187500.02, 37448.27, -187500.02, -187500.02, -187500.02, 0.00, 0.00, 0.00
56, -187500.02, 33603.93, -187500.02, -187500.02, 38033.46, -187500.02, -187500.02, -187500.02, 0.00, 0.00, 0.00
57, -187500.02, 31177.40, -187500.02, -187500.02, 35697.84, -187500.02, -187500.02, -187500.02, 0.00, 0.00, 0.00
58, -187500.02, 30434.65, -187500.02, -187500.02, 34816.84, -187500.02, -187500.02, -187500.02, 0.00, 0.00, 0.00
59, -187500.02, 32773.87, -187500.02, -187500.02, 37038.14, -187500.02, -187500.02, -187500.02, 0.00, 0.00, 0.00
60, -187500.02, 33850.91, -187500.02, -187500.02, 38228.95, -187500.02, -187500.02, -187500.02, 0.00, 0.00, 0.00
61, -187500.02, 31615.49, -187500.02, -187500.02, 36129.98, -187500.02, -187500.02, -187500.02, 0.00, 0.00, 0.00
62, -187500.02, 30240.61, -187500.02, -187500.02, 34663.84, -187500.02, -187500.02, -187500.02, 0.00, 0.00, 0.00
63, -187500.02, 32242.39, -187500.02, -187500.02, 36515.95, -187500.02, -187500.02, -187500.02, 0.00, 0.00, 0.00
64, -187500.02, 33896.44, -187500.02, -187500.02, 38250.74, -187500.02, -187500.02, -187500.02, 0.00, 0.00, 0.00
65, -187500.02, 32080.07, -187500.02, -187500.02, 36581.09, -187500.02, -187500.02, -187500.02, 0.00, 0.00, 0.00
66, -187500.02, 30221.21, -187500.02, -187500.02, 34662.19, -187500.02, -187500.02, -187500.02, 0.00, 0.00, 0.00
67, -187500.02, 31797.23, -187500.02, -187500.02, 36076.74, -187500.02, -187500.02, -187500.02, 0.00, 0.00, 0.00
68, -187500.02, 33937.86, -187500.02, -187500.02, 38242.25, -187500.02, -187500.02, -187500.02, 0.00, 0.00, 0.00
69, -187500.02, 32628.72, -187500.02, -187500.02, 37095.04, -187500.02, -187500.02, -187500.02, 0.00, 0.00, 0.00
70, -187500.02, 30383.87, -187500.02, -187500.02, 34827.28, -187500.02, -187500.02, -187500.02, 0.00, 0.00, 0.00
71, -187500.02, 31372.97, -187500.02, -187500.02, 35643.90, -187500.02, -187500.02, -187500.02, 0.00, 0.00, 0.00
72, -187500.02, 33780.37, -187500.02, -187500.02, 38034.04, -187500.02, -187500.02, -187500.02, 0.00, 0.00, 0.00
73, -187500.02, 33082.79, -187500.02, -187500.02, 37510.88, -187500.02, -187500.02, -187500.02, 0.00, 0.00, 0.00
74, -187500.02, 30644.58, -187500.02, -187500.02, 35107.77, -187500.02, -187500.02, -187500.02, 0.00, 0.00, 0.00
75, -187500.02, 30995.79, -187500.02, -187500.02, 35289.13, -187500.02, -187500.02, -187500.02, 0.00, 0.00, 0.00
76, -187500.02, 33502.00, -187500.02, -187500.02, 37726.70, -187500.02, -187500.02, -187500.02, 0.00, 0.00, 0.00
77, -187500.02, 33482.18, -187500.02, -187500.02, 37855.88, -187500.02, -187500.02, -187500.02, 0.00, 0.00, 0.00
78, -187500.02, 30995.48, -187500.02, -187500.02, 35432.10, -187500.02, -187500.02, -187500.02, 0.00, 0.00, 0.00
79, -187500.02, 30698.29, -187500.02, -187500.02, 34976.86, -187500.02, -187500.02, -187500.02, 0.00, 0.00, 0.00
80, -187500.02, 33140.95, -187500.02, -187500.02, 37316.28, -187500.02, -187500.02, -187500.02, 0.00, 0.00, 0.00
81, -187500.02, 33785.73, -187500.02, -187500.02, 38095.60, -187500.02, -187500.02, -187500.02, 0.00, 0.00, 0.00
82, -187500.02, 31416.54, -187500.02, -187500.02, 35830.88, -187500.02, -187500.02, -187500.02, 0.00, 0.00, 0.00
83, -187500.02, 30466.46, -187500.02, -187500.02, 34752.25, -187500.02, -187500.02, -187500.02, 0.00, 0.00, 0.00
84, -187500.02, 32689.16, -187500.02, -187500.02, 36838.45, -187500.02, -187500.02, -187500.02, 0.00, 0.00, 0.00
85, -187500.02, 33984.78, -187500.02, -187500.02, 38234.58, -187500.02, -187500.02, -187500.02, 0.00, 0.00, 0.00
86, -187500.02, 31934.63, -187500.02, -187500.02, 36314.54, -187500.02, -187500.02, -187500.02, 0.00, 0.00, 0.00
87, -187500.02, 30405.52, -187500.02, -187500.02, 34697.02, -187500.02, -187500.02, -187500.02, 0.00, 0.00, 0.00
88, -187500.02, 32280.68, -187500.02, -187500.02, 36411.91, -187500.02, -187500.02, -187500.02, 0.00, 0.00, 0.00
89, -187500.02, 34100.34, -187500.02, -187500.02, 38280.07, -187500.02, -187500.02, -187500.02, 0.00, 0.00, 0.00
90, -187500.02, 32427.28, -187500.02, -187500.02, 36771.14, -187500.02, -187500.02, -187500.02, 0.00, 0.00, 0.00
91, -187500.02, 30440.59, -187500.02, -187500.02, 34752.29, -187500.02, -187500.02, -187500.02, 0.00, 0.00, 0.00
92, -187500.02, 31798.78, -187500.02, -187500.02, 35943.70, -187500.02, -187500.02, -187500.02, 0.00, 0.00, 0.00
93, -187500.02, 33973.33, -187500.02, -187500.02, 38135.47, -187500.02, -187500.02, -187500.02, 0.00, 0.00, 0.00
94, -187500.02, 32894.82, -187500.02, -187500.02, 37222.71, -187500.02, -187500.02, -187500.02, 0.00, 0.00, 0.00
95, -187500.02, 30620.55, -187500.02, -187500.02, 34945.81, -187500.02, -187500.02, -187500.02, 0.00, 0.00, 0.00
96, -187500.02, 31380.87, -187500.02, -187500.02, 35537.60, -187500.02, -187500.02, -187500.02, 0.00, 0.00, 0.00
97, -187500.02, 33803.04, -187500.02, -187500.02, 37927.55, -187500.02, -187500.02, -187500.02, 0.00, 0.00, 0.00
98, -187500.02, 33320.84, -187500.02, -187500.02, 37608.89, -187500.02, -187500.02, -187500.02, 0.00, 0.00, 0.00
99, -187500.02, 30870.46, -187500.02, -187500.02, 35216.04, -187500.02, -187500.02, -187500.02, 0.00, 0.00, 0.00
100, -187500.02, 31005.24, -187500.02, -187500.02, 35199.23, -187500.02, -187500.02, -187500.02, 0.00, 0.00, 0.00
101, -187500.02, 33469.41, -187500.02, -187500.02, 37589.02, -187500.02, -187500.02, -187500.02, 0.00, 0.00, 0.00
102, -187500.02, 33663.87, -187500.02, -187500.02, 37933.46, -187500.02, -187500.02, -187500.02, 0.00, 0.00, 0.00
103, -187500.02, 31231.60, -187500.02, -187500.02, 35582.32, -187500.02, -187500.02, -187500.02, 0.00, 0.00, 0.00
104, -187500.02, 30741.16, -187500.02, -187500.02, 34947.80, -187500.02, -187500.02, -187500.02, 0.00, 0.00, 0.00
105, -187500.02, 33106.64, -187500.02, -187500.02, 37211.25, -187500.02, -187500.02, -187500.02, 0.00, 0.00, 0.00
106, -187500.02, 33928.02, -187500.02, -187500.02, 38162.54, -187500.02, -187500.02, -187500.02, 0.00, 0.00, 0.00
107, -187500.02, 31644.21, -187500.02, -187500.02, 36000.01, -187500.02, -187500.02, -187500.02, 0.00, 0.00, 0.00
108, -187500.02, 30506.62, -187500.02, -187500.02, 34750.75, -187500.02, -187500.02, -187500.02, 0.00, 0.00, 0.00
109, -187500.02, 32570.51, -187500.02, -187500.02, 36675.70, -187500.02, -187500.02, -187500.02, 0.00, 0.00, 0.00
110, -187500.02, 34011.62, -187500.02, -187500.02, 38210.86, -187500.02, -187500.02, -187500.02, 0.00, 0.00, 0.00
111, -187500.02, 32099.61, -187500.02, -187500.02, 36444.09, -187500.02, -187500.02, -187500.02, 0.00, 0.00, 0.00
112, -187500.02, 30447.90, -187500.02, -187500.02, 34713.75, -187500.02, -187500.02, -187500.02, 0.00, 0.00, 0.00
113, -187500.02, 32115.99, -187500.02, -187500.02, 36226.12, -187500.02, -187500.02, -187500.02, 0.00, 0.00, 0.00
114, -187500.02, 34015.80, -187500.02, -187500.02, 38175.08, -187500.02, -187500.02, -187500.02, 0.00, 0.00, 0.00
115, -187500.02, 32565.53, -187500.02, -187500.02, 36887.73, -187500.02, -187500.02, -187500.02, 0.00, 0.00, 0.00
116, -187500.02, 30506.06, -187500.02, -187500.02, 34800.70, -187500.02, -187500.02, -187500.02, 0.00, 0.00, 0.00
117, -187500.02, 31660.98, -187500.02, -187500.02, 35791.76, -187500.02, -187500.02, -187500.02, 0.00, 0.00, 0.00
118, -187500.02, 33900.87, -187500.02, -187500.02, 38030.66, -187500.02, -187500.02, -187500.02, 0.00, 0.00, 0.00
119, -187500.02, 32972.96, -187500.02, -187500.02, 37264.85, -187500.02, -187500.02, -187500.02, 0.00, 0.00, 0.00
120, -187500.02, 30648.40, -187500.02, -187500.02, 34961.66, -187500.02, -187500.02, -187500.02, 0.00, 0.00, 0.00
121, -187500.02, 31199.26, -187500.02, -187500.02, 35356.86, -187500.02, -187500.02, -187500.02, 0.00, 0.00, 0.00
122, -187500.02, 33593.02, -187500.02, -187500.02, 37715.62, -187500.02, -187500.02, -187500.02, 0.00, 0.00, 0.00
123, -187500.02, 33335.61, -187500.02, -187500.02, 37614.32, -187500.02, -187500.02, -187500.02, 0.00, 0.00, 0.00
124, -187500.02, 30934.46, -187500.02, -187500.02, 35267.34, -187500.02, -187500.02, -187500.02, 0.00, 0.00, 0.00
125, -187500.02, 30853.97, -187500.02, -187500.02, 35031.26, -187500.02, -187500.02, -187500.02, 0.00, 0.00, 0.00
126, -187500.02, 33284.16, -187500.02, -187500.02, 37383.16, -187500.02, -187500.02, -187500.02, 0.00, 0.00, 0.00
127, -187500.02, 33689.06, -187500.02, -187500.02, 37937.48, -187500.02, -187500.02, -187500.02, 0.00, 0.00, 0.00
128, -187500.02, 31335.94, -187500.02, -187500.02, 35674.30, -187500.02, -187500.02, -187500.02, 0.00, 0.00, 0.00
129, -187500.02, 30621.11, -187500.02, -187500.02, 34825.92, -187500.02, -187500.02, -187500.02, 0.00, 0.00, 0.00
130, -187500.02, 32854.14, -187500.02, -187500.02, 36950.54, -187500.02, -187500.02, -187500.02, 0.00, 0.00, 0.00
131, -187500.02, 33908.11, -187500.02, -187500.02, 38112.92, -187500.02, -187500.02, -187500.02, 0.00, 0.00, 0.00
132, -187500.02, 31775.53, -187500.02, -187500.02, 36101.17, -187500.02, -187500.02, -187500.02, 0.00, 0.00, 0.00
133, -187500.02, 30468.85, -187500.02, -187500.02, 34698.69, -187500.02, -187500.02, -187500.02, 0.00, 0.00, 0.00
134, -187500.02, 32411.79, -187500.02, -187500.02, 36505.23, -187500.02, -187500.02, -187500.02, 0.00, 0.00, 0.00
135, -187500.02, 34024.23, -187500.02, -187500.02, 38198.97, -187500.02, -187500.02, -187500.02, 0.00, 0.00, 0.00
136, -187500.02, 32305.49, -187500.02, -187500.02, 36619.31, -187500.02, -187500.02, -187500.02, 0.00, 0.00, 0.00
137, -187500.02, 30526.18, -187500.02, -187500.02, 34777.19, -187500.02, -187500.02, -187500.02, 0.00, 0.00, 0.00
138, -187500.02, 32047.01, -187500.02, -187500.02, 36147.62, -187500.02, -187500.02, -187500.02, 0.00, 0.00, 0.00
139, -187500.02, 34084.98, -187500.02, -187500.02, 38215.29, -187500.02, -187500.02, -187500.02, 0.00, 0.00, 0.00
140, -187500.02, 32799.26, -187500.02, -187500.02, 37092.88, -187500.02, -187500.02, -187500.02, 0.00, 0.00, 0.00
141, -187500.02, 30648.67, -187500.02, -187500.02, 34921.80, -187500.02, -187500.02, -187500.02, 0.00, 0.00, 0.00
142, -187500.02, 31606.62, -187500.02, -187500.02, 35708.43, -187500.02, -187500.02, -187500.02, 0.00, 0.00, 0.00
143, -187500.02, 33913.38, -187500.02, -187500.02, 38011.13, -187500.02, -187500.02, -187500.02, 0.00, 0.00, 0.00
144, -187500.02, 33237.94, -187500.02, -187500.02, 37515.79, -187500.02, -187500.02, -187500.02, 0.00, 0.00, 0.00
145, -187500.02, 30894.65, -187500.02, -187500.02, 35201.43, -187500.02, -187500.02, -187500.02, 0.00, 0.00, 0.00
146, -187500.02, 31256.01, -187500.02, -187500.02, 35398.08, -187500.02, -187500.02, -187500.02, 0.00, 0.00, 0.00
147, -187500.02, 33664.95, -187500.02, -187500.02, 37754.57, -187500.02, -187500.02, -187500.02, 0.00, 0.00, 0.00
148, -187500.02, 33630.79, -187500.02, -187500.02, 37878.25, -187500.02, -187500.02, -187500.02, 0.00, 0.00, 0.00
149, -187500.02, 31254.20, -187500.02, -187500.02, 35561.60, -187500.02, -187500.02, -187500.02, 0.00, 0.00, 0.00
150, -187500.02, 30972.30, -187500.02, -187500.02, 35124.45, -187500.02, -187500.02, -187500.02, 0.00, 0.00, 0.00
151, -187500.02, 33353.07, -187500.02, -187500.02, 37410.07, -187500.02, -187500.02, -187500.02, 0.00, 0.00, 0.00
152, -187500.02, 33986.03, -187500.02, -187500.02, 38175.48, -187500.02, -187500.02, -187500.02, 0.00, 0.00, 0.00
153, -187500.02, 31680.54, -187500.02, -187500.02, 35984.54, -187500.02, -187500.02, -187500.02, 0.00, 0.00, 0.00
154, -187500.02, 30751.53, -187500.02, -187500.02, 34943.93, -187500.02, -187500.02, -187500.02, 0.00, 0.00, 0.00
155, -187500.02, 32912.83, -187500.02, -187500.02, 36980.18, -187500.02, -187500.02, -187500.02, 0.00, 0.00, 0.00
156, -187500.02, 34151.86, -187500.02, -187500.02, 38318.55, -187500.02, -187500.02, -187500.02, 0.00, 0.00, 0.00
157, -187500.02, 32143.66, -187500.02, -187500.02, 36440.16, -187500.02, -187500.02, -187500.02, 0.00, 0.00, 0.00
158, -187500.02, 30653.07, -187500.02, -187500.02, 34856.38, -187500.02, -187500.02, -187500.02, 0.00, 0.00, 0.00
159, -187500.02, 32443.24, -187500.02, -187500.02, 36501.36, -187500.02, -187500.02, -187500.02, 0.00, 0.00, 0.00
160, -187500.02, 34197.16, -187500.02, -187500.02, 38322.87, -187500.02, -187500.02, -187500.02, 0.00, 0.00, 0.00
161, -187500.02, 32600.33, -187500.02, -187500.02, 36876.82, -187500.02, -187500.02, -187500.02, 0.00, 0.00, 0.00
162, -187500.02, 30686.31, -187500.02, -187500.02, 34914.77, -187500.02, -187500.02, -187500.02, 0.00, 0.00, 0.00
163, -187500.02, 31990.73, -187500.02, -187500.02, 36064.18, -187500.02, -187500.02, -187500.02, 0.00, 0.00, 0.00
164, -187500.02, 34129.64, -187500.02, -187500.02, 38226.46, -187500.02, -187500.02, -187500.02, 0.00, 0.00, 0.00
165, -187500.02, 33046.58, -187500.02, -187500.02, 37309.04, -187500.02, -187500.02, -187500.02, 0.00, 0.00, 0.00
166, -187500.02, 30838.99, -187500.02, -187500.02, 35098.21, -187500.02, -187500.02, -187500.02, 0.00, 0.00, 0.00
167, -187500.02, 31608.34, -187500.02, -187500.02, 35699.67, -187500.02, -187500.02, -187500.02, 0.00, 0.00, 0.00
168, -187500.02, 33937.37, -187500.02, -187500.02, 38005.32, -187500.02, -187500.02, -187500.02, 0.00, 0.00, 0.00
169, -187500.02, 33469.19, -187500.02, -187500.02, 37703.26, -187500.02, -187500.02, -187500.02, 0.00, 0.00, 0.00
170, -187500.02, 31093.60, -187500.02, -187500.02, 35360.04, -187500.02, -187500.02, -187500.02, 0.00, 0.00, 0.00
171, -187500.02, 31237.08, -187500.02, -187500.02, 35338.46, -187500.02, -187500.02, -187500.02, 0.00, 0.00, 0.00
172, -187500.02, 33644.18, -187500.02, -187500.02, 37678.69, -187500.02, -187500.02, -187500.02, 0.00, 0.00, 0.00
173, -187500.02, 33800.66, -187500.02, -187500.02, 37988.73, -187500.02, -187500.02, -187500.02, 0.00, 0.00, 0.00
174, -187500.02, 31407.75, -187500.02, -187500.02, 35678.12, -187500.02, -187500.02, -187500.02, 0.00, 0.00, 0.00
175, -187500.02, 30893.80, -187500.02, -187500.02, 35025.47, -187500.02, -187500.02, -187500.02, 0.00, 0.00, 0.00
176, -187500.02, 33212.32, -187500.02, -187500.02, 37241.56, -187500.02, -187500.02, -187500.02, 0.00, 0.00, 0.00
177, -187500.02, 34062.49, -187500.02, -187500.02, 38215.00, -187500.02, -187500.02, -187500.02, 0.00, 0.00, 0.00
178, -187500.02, 31869.99, -187500.02, -187500.02, 36131.44, -187500.02, -187500.02, -187500.02, 0.00, 0.00, 0.00
179, -187500.02, 30766.13, -187500.02, -187500.02, 34918.83, -187500.02, -187500.02, -187500.02, 0.00, 0.00, 0.00
180, -187500.02, 32804.83, -187500.02, -187500.02, 36825.70, -187500.02, -187500.02, -187500.02, 0.00, 0.00, 0.00
181, -187500.02, 34232.05, -187500.02, -187500.02, 38327.38, -187500.02, -187500.02, -187500.02, 0.00, 0.00, 0.00
182, -187500.02, 32340.20, -187500.02, -187500.02, 36573.20, -187500.02, -187500.02, -187500.02, 0.00, 0.00, 0.00
183, -187500.02, 30682.42, -187500.02, -187500.02, 34846.39, -187500.02, -187500.02, -187500.02, 0.00, 0.00, 0.00
184, -187500.02, 32346.08, -187500.02, -187500.02, 36357.41, -187500.02, -187500.02, -187500.02, 0.00, 0.00, 0.00
185, -187500.02, 34241.93, -187500.02, -187500.02, 38306.06, -187500.02, -187500.02, -187500.02, 0.00, 0.00, 0.00
186, -187500.02, 32801.70, -187500.02, -187500.02, 37022.67, -187500.02, -187500.02, -187500.02, 0.00, 0.00, 0.00
187, -187500.02, 30756.02, -187500.02, -187500.02, 34944.94, -187500.02, -187500.02, -187500.02, 0.00, 0.00, 0.00
188, -187500.02, 31899.94, -187500.02, -187500.02, 35923.01, -187500.02, -187500.02, -187500.02, 0.00, 0.00, 0.00
189, -187500.02, 34118.71, -187500.02, -187500.02, 38142.02, -187500.02, -187500.02, -187500.02, 0.00, 0.00, 0.00
190, -187500.02, 33225.91, -187500.02, -187500.02, 37417.29, -187500.02, -187500.02, -187500.02, 0.00, 0.00, 0.00
191, -187500.02, 30889.66, -187500.02, -187500.02, 35101.85, -187500.02, -187500.02, -187500.02, 0.00, 0.00, 0.00
192, -187500.02, 31420.49, -187500.02, -187500.02, 35471.19, -187500.02, -187500.02, -187500.02, 0.00, 0.00, 0.00
193, -187500.02, 33828.00, -187500.02, -187500.02, 37838.26, -187500.02, -187500.02, -187500.02, 0.00, 0.00, 0.00
194, -187500.02, 33610.38, -187500.02, -187500.02, 37785.04, -187500.02, -187500.02, -187500.02, 0.00, 0.00, 0.00
195, -187500.02, 31192.69, -187500.02, -187500.02, 35423.02, -187500.02, -187500.02, -187500.02, 0.00, 0.00, 0.00
196, -187500.02, 31098.81, -187500.02, -187500.02, 35174.36, -187500.02, -187500.02, -187500.02, 0.00, 0.00, 0.00
197, -187500.02, 33513.36, -187500.02, -187500.02, 37509.60, -187500.02, -187500.02, -187500.02, 0.00, 0.00, 0.00
198, -187500.02, 33940.95, -187500.02, -187500.02, 38077.74, -187500.02, -187500.02, -187500.02, 0.00, 0.00, 0.00
199, -187500.02, 31591.51, -187500.02, -187500.02, 35820.21, -187500.02, -187500.02, -187500.02, 0.00, 0.00, 0.00
200, -187500.02, 30836.69, -187500.02, -187500.02, 34941.88, -187500.02, -187500.02, -187500.02, 0.00, 0.00, 0.00
201, -187500.02, 33078.61, -187500.02, -187500.02, 37081.36, -187500.02, -187500.02, -187500.02, 0.00, 0.00, 0.00
202, -187500.02, 34146.78, -187500.02, -187500.02, 38255.66, -187500.02, -187500.02, -187500.02, 0.00, 0.00, 0.00
203, -187500.02, 32000.23, -187500.02, -187500.02, 36223.86, -187500.02, -187500.02, -187500.02, 0.00, 0.00, 0.00
204, -187500.02, 30673.23, -187500.02, -187500.02, 34803.41, -187500.02, -187500.02, -187500.02, 0.00, 0.00, 0.00
205, -187500.02, 32603.13, -187500.02, -187500.02, 36595.73, -187500.02, -187500.02, -187500.02, 0.00, 0.00, 0.00
206, -187500.02, 34225.53, -187500.02, -187500.02, 38293.54, -187500.02, -187500.02, -187500.02, 0.00, 0.00, 0.00
207, -187500.02, 32466.98, -187500.02, -187500.02, 36680.69, -187500.02, -187500.02, -187500.02, 0.00, 0.00, 0.00
208, -187500.02, 30650.97, -187500.02, -187500.02, 34806.38, -187500.02, -187500.02, -187500.02, 0.00, 0.00, 0.00
209, -187500.02, 32146.70, -187500.02, -187500.02, 36145.74, -187500.02, -187500.02, -187500.02, 0.00, 0.00, 0.00
210, -187500.02, 34190.19, -187500.02, -187500.02, 38225.71, -187500.02, -187500.02, -187500.02, 0.00, 0.00, 0.00
211, -187500.02, 32932.79, -187500.02, -187500.02, 37126.96, -187500.02, -187500.02, -187500.02, 0.00, 0.00, 0.00
212, -187500.02, 30735.50, -187500.02, -187500.02, 34917.22, -187500.02, -187500.02, -187500.02, 0.00, 0.00, 0.00
213, -187500.02, 31694.35, -187500.02, -187500.02, 35715.65, -187500.02, -187500.02, -187500.02, 0.00, 0.00, 0.00
214, -187500.02, 34030.66, -187500.02, -187500.02, 38045.42, -187500.02, -187500.02, -187500.02, 0.00, 0.00, 0.00
215, -187500.02, 33356.02, -187500.02, -187500.02, 37538.39, -187500.02, -187500.02, -187500.02, 0.00, 0.00, 0.00
216, -187500.02, 30985.42, -187500.02, -187500.02, 35195.93, -187500.02, -187500.02, -187500.02, 0.00, 0.00, 0.00
217, -187500.02, 31303.95, -187500.02, -187500.02, 35349.02, -187500.02, -187500.02, -187500.02, 0.00, 0.00, 0.00
218, -187500.02, 33751.89, -187500.02, -187500.02, 37740.20, -187500.02, -187500.02, -187500.02, 0.00, 0.00, 0.00
219, -187500.02, 33720.55, -187500.02, -187500.02, 37865.95, -187500.02, -187500.02, -187500.02, 0.00, 0.00, 0.00
220, -187500.02, 31298.95, -187500.02, -187500.02, 35507.96, -187500.02, -187500.02, -187500.02, 0.00, 0.00, 0.00
221, -187500.02, 30986.36, -187500.02, -187500.02, 35050.55, -187500.02, -187500.02, -187500.02, 0.00, 0.00, 0.00
222, -187500.02, 33367.42, -187500.02, -187500.02, 37338.10, -187500.02, -187500.02, -187500.02, 0.00, 0.00, 0.00
223, -187500.02, 34022.21, -187500.02, -187500.02, 38124.41, -187500.02, -187500.02, -187500.02, 0.00, 0.00, 0.00
224, -187500.02, 31732.32, -187500.02, -187500.02, 35935.84, -187500.02, -187500.02, -187500.02, 0.00, 0.00, 0.00
225, -187500.02, 30768.31, -187500.02, -187500.02, 34851.09, -187500.02, -187500.02, -187500.02, 0.00, 0.00, 0.00
226, -187500.02, 32946.34, -187500.02, -187500.02, 36909.61, -187500.02, -187500.02, -187500.02, 0.00, 0.00, 0.00
227, -187500.02, 34231.00, -187500.02, -187500.02, 38291.20, -187500.02, -187500.02, -187500.02, 0.00, 0.00, 0.00
228, -187500.02, 32171.65, -187500.02, -187500.02, 36365.44, -187500.02, -187500.02, -187500.02, 0.00, 0.00, 0.00
229, -187500.02, 30650.05, -187500.02, -187500.02, 34761.77, -187500.02, -187500.02, -187500.02, 0.00, 0.00, 0.00
230, -187500.02, 32479.77, -187500.02, -187500.02, 36439.54, -187500.02, -187500.02, -187500.02, 0.00, 0.00, 0.00
231, -187500.02, 34286.86, -187500.02, -187500.02, 38301.64, -187500.02, -187500.02, -187500.02, 0.00, 0.00, 0.00
232, -187500.02, 32682.34, -187500.02, -187500.02, 36850.38, -187500.02, -187500.02, -187500.02, 0.00, 0.00, 0.00
233, -187500.02, 30721.22, -187500.02, -187500.02, 34848.16, -187500.02, -187500.02, -187500.02, 0.00, 0.00, 0.00
234, -187500.02, 32026.72, -187500.02, -187500.02, 35997.93, -187500.02, -187500.02, -187500.02, 0.00, 0.00, 0.00
235, -187500.02, 34203.84, -187500.02, -187500.02, 38199.75, -187500.02, -187500.02, -187500.02, 0.00, 0.00, 0.00
236, -187500.02, 33121.57, -187500.02, -187500.02, 37283.34, -187500.02, -187500.02, -187500.02, 0.00, 0.00, 0.00
237, -187500.02, 30833.58, -187500.02, -187500.02, 34992.91, -187500.02, -187500.02, -187500.02, 0.00, 0.00, 0.00
238, -187500.02, 31584.76, -187500.02, -187500.02, 35573.23, -187500.02, -187500.02, -187500.02, 0.00, 0.00, 0.00
239, -187500.02, 34002.30, -187500.02, -187500.02, 37962.18, -187500.02, -187500.02, -187500.02, 0.00, 0.00, 0.00
240, -187500.02, 33535.62, -187500.02, -187500.02, 37666.06, -187500.02, -187500.02, -187500.02, 0.00, 0.00, 0.00
241, -187500.02, 31082.36, -187500.02, -187500.02, 35256.03, -187500.02, -187500.02, -187500.02, 0.00, 0.00, 0.00
242, -187500.02, 31216.20, -187500.02, -187500.02, 35234.82, -187500.02, -187500.02, -187500.02, 0.00, 0.00, 0.00
243, -187500.02, 33694.29, -187500.02, -187500.02, 37647.80, -187500.02, -187500.02, -187500.02, 0.00, 0.00, 0.00
244, -187500.02, 33890.68, -187500.02, -187500.02, 37996.09, -187500.02, -187500.02, -187500.02, 0.00, 0.00, 0.00
245, -187500.02, 31472.35, -187500.02, -187500.02, 35663.73, -187500.02, -187500.02, -187500.02, 0.00, 0.00, 0.00
246, -187500.02, 30932.11, -187500.02, -187500.02, 34983.47, -187500.02, -187500.02, -187500.02, 0.00, 0.00, 0.00
247, -187500.02, 33294.84, -187500.02, -187500.02, 37237.07, -187500.02, -187500.02, -187500.02, 0.00, 0.00, 0.00
248, -187500.02, 34168.39, -187500.02, -187500.02, 38229.93, -187500.02, -187500.02, -187500.02, 0.00, 0.00, 0.00
249, -187500.02, 31909.95, -187500.02, -187500.02, 36083.79, -187500.02, -187500.02, -187500.02, 0.00, 0.00, 0.00
250, -187500.02, 30752.56, -187500.02, -187500.02, 34815.10, -187500.02, -187500.02, -187500.02, 0.00, 0.00, 0.00
251, -187500.02, 32817.79, -187500.02, -187500.02, 36743.96, -187500.02, -187500.02, -187500.02, 0.00, 0.00, 0.00
252, -187500.02, 34308.05, -187500.02, -187500.02, 38319.56, -187500.02, -187500.02, -187500.02, 0.00, 0.00, 0.00
253, -187500.02, 32385.33, -187500.02, -187500.02, 36544.56, -187500.02, -187500.02, -187500.02, 0.00, 0.00, 0.00
254, -187500.02, 30689.17, -187500.02, -187500.02, 34781.57, -187500.02, -187500.02, -187500.02, 0.00, 0.00, 0.00
255, -187500.02, 32347.51, -187500.02, -187500.02, 36291.66, -187500.02, -187500.02, -187500.02, 0.00, 0.00, 0.00
0, -187500.02, 34281.96, -187500.02, -187500.02, 38282.57, -187500.02, -187500.02, -187500.02, 0.00, 0.00, 0.00
1, -187500.02, 32851.05, -187500.02, -187500.02, 37014.29, -187500.02, -187500.02, -187500.02, 0.00, 0.00, 0.00
2, -187500.02, 30763.80, -187500.02, -187500.02, 34893.78, -187500.02, -187500.02, -187500.02, 0.00, 0.00, 0.00
3, -187500.02, 31906.73, -187500.02, -187500.02, 35867.78, -187500.02, -187500.02, -187500.02, 0.00, 0.00, 0.00
4, -187500.02, 34185.56, -187500.02, -187500.02, 38148.08, -187500.02, -187500.02, -187500.02, 0.00, 0.00, 0.00
5, -187500.02, 33309.46, -187500.02, -187500.02, 37440.09, -187500.02, -187500.02, -187500.02, 0.00, 0.00, 0.00
6, -187500.02, 30941.94, -187500.02, -187500.02, 35087.34, -187500.02, -187500.02, -187500.02, 0.00, 0.00, 0.00
7, -187500.02, 31481.85, -187500.02, -187500.02, 35461.78, -187500.02, -187500.02, -187500.02, 0.00, 0.00, 0.00
8, -187500.02, 33943.94, -187500.02, -187500.02, 37886.63, -187500.02, -187500.02, -187500.02, 0.00, 0.00, 0.00
9, -187500.02, 33721.94, -187500.02, -187500.02, 37822.73, -187500.02, -187500.02, -187500.02, 0.00, 0.00, 0.00
10, -187500.02, 31250.80, -187500.02, -187500.02, 35407.17, -187500.02, -187500.02, -187500.02, 0.00, 0.00, 0.00
11, -187500.02, 31137.72, -187500.02, -187500.02, 35133.75, -187500.02, -187500.02, -187500.02, 0.00, 0.00, 0.00
12, -187500.02, 33575.38, -187500.02, -187500.02, 37486.54, -187500.02, -187500.02, -187500.02, 0.00, 0.00, 0.00
13, -187500.02, 34030.35, -187500.02, -187500.02, 38085.83, -187500.02, -187500.02, -187500.02, 0.00, 0.00, 0.00
14, -187500.02, 31647.90, -187500.02, -187500.02, 35797.39, -187500.02, -187500.02, -187500.02, 0.00, 0.00, 0.00
15, -187500.02, 30897.35, -187500.02, -187500.02, 34926.52, -187500.02, -187500.02, -187500.02, 0.00, 0.00, 0.00
16, -187500.02, 33170.55, -187500.02, -187500.02, 37086.28, -187500.02, -187500.02, -187500.02, 0.00, 0.00, 0.00
17, -187500.02, 34260.55, -187500.02, -187500.02, 38287.13, -187500.02, -187500.02, -187500.02, 0.00, 0.00, 0.00
18, -187500.02, 32112.95, -187500.02, -187500.02, 36267.00, -187500.02, -187500.02, -187500.02, 0.00, 0.00, 0.00
19, -187500.02, 30754.99, -187500.02, -187500.02, 34810.58, -187500.02, -187500.02, -187500.02, 0.00, 0.00, 0.00
20, -187500.02, 32685.80, -187500.02, -187500.02, 36599.44, -187500.02, -187500.02, -187500.02, 0.00, 0.00, 0.00
21, -187500.02, 34326.33, -187500.02, -187500.02, 38308.07, -187500.02, -187500.02, -187500.02, 0.00, 0.00, 0.00
22, -187500.02, 32564.99, -187500.02, -187500.02, 36690.79, -187500.02, -187500.02, -187500.02, 0.00, 0.00, 0.00
23, -187500.02, 30707.29, -187500.02, -187500.02, 34790.63, -187500.02, -187500.02, -187500.02, 0.00, 0.00, 0.00
24, -187500.02, 32190.51, -187500.02, -187500.02, 36126.14, -187500.02, -187500.02, -187500.02, 0.00, 0.00, 0.00
25, -187500.02, 34286.75, -187500.02, -187500.02, 38256.20, -187500.02, -187500.02, -187500.02, 0.00, 0.00, 0.00
26, -187500.02, 33014.60, -187500.02, -187500.02, 37145.40, -187500.02, -187500.02, -187500.02, 0.00, 0.00, 0.00
27, -187500.02, 30802.83, -187500.02, -187500.02, 34914.68, -187500.02, -187500.02, -187500.02, 0.00, 0.00, 0.00
28, -187500.02, 31735.25, -187500.02, -187500.02, 35678.99, -187500.02, -187500.02, -187500.02, 0.00, 0.00, 0.00
29, -187500.02, 34089.11, -187500.02, -187500.02, 38017.03, -187500.02, -187500.02, -187500.02, 0.00, 0.00, 0.00
30, -187500.02, 33452.78, -187500.02, -187500.02, 37546.91, -187500.02, -187500.02, -187500.02, 0.00, 0.00, 0.00
31, -187500.02, 31047.87, -187500.02, -187500.02, 35176.82, -187500.02, -187500.02, -187500.02, 0.00, 0.00, 0.00
32, -187500.02, 31335.85, -187500.02, -187500.02, 35313.21, -187500.02, -187500.02, -187500.02, 0.00, 0.00, 0.00
33, -187500.02, 33777.26, -187500.02, -187500.02, 37700.71, -187500.02, -187500.02, -187500.02, 0.00, 0.00, 0.00
34, -187500.02, 33810.95, -187500.02, -187500.02, 37882.61, -187500.02, -187500.02, -187500.02, 0.00, 0.00, 0.00
35, -187500.02, 31381.76, -187500.02, -187500.02, 35513.37, -187500.02, -187500.02, -187500.02, 0.00, 0.00, 0.00
36, -187500.02, 31027.39, -187500.02, -187500.02, 35016.38, -187500.02, -187500.02, -187500.02, 0.00, 0.00, 0.00
37, -187500.02, 33419.23, -187500.02, -187500.02, 37322.29, -187500.02, -187500.02, -187500.02, 0.00, 0.00, 0.00
38, -187500.02, 34102.46, -187500.02, -187500.02, 38135.90, -187500.02, -187500.02, -187500.02, 0.00, 0.00, 0.00
39, -187500.02, 31750.85, -187500.02, -187500.02, 35887.98, -187500.02, -187500.02, -187500.02, 0.00, 0.00, 0.00
40, -187500.02, 30762.68, -187500.02, -187500.02, 34779.16, -187500.02, -187500.02, -187500.02, 0.00, 0.00, 0.00
41, -187500.02, 32947.07, -187500.02, -187500.02, 36837.20, -187500.02, -187500.02, -187500.02, 0.00, 0.00, 0.00
42, -187500.02, 34230.87, -187500.02, -187500.02, 38227.58, -187500.02, -187500.02, -187500.02, 0.00, 0.00, 0.00
43, -187500.02, 32185.59, -187500.02, -187500.02, 36325.41, -187500.02, -187500.02, -187500.02, 0.00, 0.00, 0.00
44, -187500.02, 30654.84, -187500.02, -187500.02, 34717.62, -187500.02, -187500.02, -187500.02, 0.00, 0.00, 0.00
45, -187500.02, 32461.41, -187500.02, -187500.02, 36370.87, -187500.02, -187500.02, -187500.02, 0.00, 0.00, 0.00
46, -187500.02, 34287.93, -187500.02, -187500.02, 38248.59, -187500.02, -187500.02, -187500.02, 0.00, 0.00, 0.00
47, -187500.02, 32677.82, -187500.02, -187500.02, 36788.02, -187500.02, -187500.02, -187500.02, 0.00, 0.00, 0.00
48, -187500.02, 30690.89, -187500.02, -187500.02, 34755.42, -187500.02, -187500.02, -187500.02, 0.00, 0.00, 0.00
49, -187500.02, 32001.30, -187500.02, -187500.02, 35900.01, -187500.02, -187500.02, -187500.02, 0.00, 0.00, 0.00
50, -187500.02, 34196.25, -187500.02, -187500.02, 38115.11, -187500.02, -187500.02, -187500.02, 0.00, 0.00, 0.00
51, -187500.02, 33105.23, -187500.02, -187500.02, 37195.54, -187500.02, -187500.02, -187500.02, 0.00, 0.00, 0.00
52, -187500.02, 30827.97, -187500.02, -187500.02, 34914.32, -187500.02, -187500.02, -187500.02, 0.00, 0.00, 0.00
53, -187500.02, 31564.04, -187500.02, -187500.02, 35485.11, -187500.02, -187500.02, -187500.02, 0.00, 0.00, 0.00
54, -187500.02, 33959.74, -187500.02, -187500.02, 37861.60, -187500.02, -187500.02, -187500.02, 0.00, 0.00, 0.00
55, -187500.02, 33501.06, -187500.02, -187500.02, 37570.18, -187500.02, -187500.02, -187500.02, 0.00, 0.00, 0.00
56, -187500.02, 31057.61, -187500.02, -187500.02, 35165.75, -187500.02, -187500.02, -187500.02, 0.00, 0.00, 0.00
57, -187500.02, 31149.26, -187500.02, -187500.02, 35100.73, -187500.02, -187500.02, -187500.02, 0.00, 0.00, 0.00
58, -187500.02, 33612.95, -187500.02, -187500.02, 37495.23, -187500.02, -187500.02, -187500.02, 0.00, 0.00, 0.00
59, -187500.02, 33861.19, -187500.02, -187500.02, 37888.62, -187500.02, -187500.02, -187500.02, 0.00, 0.00, 0.00
60, -187500.02, 31424.25, -187500.02, -187500.02, 35540.77, -187500.02, -187500.02, -187500.02, 0.00, 0.00, 0.00
61, -187500.02, 30869.95, -187500.02, -187500.02, 34852.18, -187500.02, -187500.02, -187500.02, 0.00, 0.00, 0.00
62, -187500.02, 33229.71, -187500.02, -187500.02, 37104.95, -187500.02, -187500.02, -187500.02, 0.00, 0.00, 0.00
63, -187500.02, 34112.36, -187500.02, -187500.02, 38110.71, -187500.02, -187500.02, -187500.02, 0.00, 0.00, 0.00
64, -187500.02, 31871.08, -187500.02, -187500.02, 35988.70, -187500.02, -187500.02, -187500.02, 0.00, 0.00, 0.00
65, -187500.02, 30697.06, -187500.02, -187500.02, 34709.73, -187500.02, -187500.02, -187500.02, 0.00, 0.00, 0.00
66, -187500.02, 32773.63, -187500.02, -187500.02, 36642.96, -187500.02, -187500.02, -187500.02, 0.00, 0.00, 0.00
67, -187500.02, 34255.41, -187500.02, -187500.02, 38202.84, -187500.02, -187500.02, -187500.02, 0.00, 0.00, 0.00
68, -187500.02, 32304.33, -187500.02, -187500.02, 36390.98, -187500.02, -187500.02, -187500.02, 0.00, 0.00, 0.00
69, -187500.02, 30570.48, -187500.02, -187500.02, 34590.95, -187500.02, -187500.02, -187500.02, 0.00, 0.00, 0.00
70, -187500.02, 32253.19, -187500.02, -187500.02, 36120.33, -187500.02, -187500.02, -187500.02, 0.00, 0.00, 0.00
71, -187500.02, 34214.51, -187500.02, -187500.02, 38131.47, -187500.02, -187500.02, -187500.02, 0.00, 0.00, 0.00
72, -187500.02, 32778.50, -187500.02, -187500.02, 36860.30, -187500.02, -187500.02, -187500.02, 0.00, 0.00, 0.00
73, -187500.02, 30670.08, -187500.02, -187500.02, 34722.70, -187500.02, -187500.02, -187500.02, 0.00, 0.00, 0.00
74, -187500.02, 31817.86, -187500.02, -187500.02, 35705.55, -187500.02, -187500.02, -187500.02, 0.00, 0.00, 0.00
75, -187500.02, 34144.48, -187500.02, -187500.02, 38038.82, -187500.02, -187500.02, -187500.02, 0.00, 0.00, 0.00
76, -187500.02, 33253.70, -187500.02, -187500.02, 37322.92, -187500.02, -187500.02, -187500.02, 0.00, 0.00, 0.00
77, -187500.02, 30846.93, -187500.02, -187500.02, 34928.55, -187500.02, -187500.02, -187500.02, 0.00, 0.00, 0.00
78, -187500.02, 31380.35, -187500.02, -187500.02, 35290.90, -187500.02, -187500.02, -187500.02, 0.00, 0.00, 0.00
79, -187500.02, 33847.98, -187500.02, -187500.02, 37712.18, -187500.02, -187500.02, -187500.02, 0.00, 0.00, 0.00
80, -187500.02, 33619.66, -187500.02, -187500.02, 37639.02, -187500.02, -187500.02, -187500.02, 0.00, 0.00, 0.00
81, -187500.02, 31158.31, -187500.02, -187500.02, 35235.02, -187500.02, -187500.02, -187500.02, 0.00, 0.00, 0.00
82, -187500.02, 31055.83, -187500.02, -187500.02, 34985.15, -187500.02, -187500.02, -187500.02, 0.00, 0.00, 0.00
83, -187500.02, 33535.44, -187500.02, -187500.02, 37388.01, -187500.02, -187500.02, -187500.02, 0.00, 0.00, 0.00
84, -187500.02, 34011.11, -187500.02, -187500.02, 38007.71, -187500.02, -187500.02, -187500.02, 0.00, 0.00, 0.00
85, -187500.02, 31588.98, -187500.02, -187500.02, 35686.73, -187500.02, -187500.02, -187500.02, 0.00, 0.00, 0.00
86, -187500.02, 30798.27, -187500.02, -187500.02, 34771.56, -187500.02, -187500.02, -187500.02, 0.00, 0.00, 0.00
87, -187500.02, 33105.35, -187500.02, -187500.02, 36959.59, -187500.02, -187500.02, -187500.02, 0.00, 0.00, 0.00
88, -187500.02, 34231.88, -187500.02, -187500.02, 38196.34, -187500.02, -187500.02, -187500.02, 0.00, 0.00, 0.00
89, -187500.02, 32026.43, -187500.02, -187500.02, 36116.93, -187500.02, -187500.02, -187500.02, 0.00, 0.00, 0.00
90, -187500.02, 30639.32, -187500.02, -187500.02, 34624.73, -187500.02, -187500.02, -187500.02, 0.00, 0.00, 0.00
91, -187500.02, 32627.13, -187500.02, -187500.02, 36467.68, -187500.02, -187500.02, -187500.02, 0.00, 0.00, 0.00
92, -187500.02, 34316.14, -187500.02, -187500.02, 38230.24, -187500.02, -187500.02, -187500.02, 0.00, 0.00, 0.00
93, -187500.02, 32516.62, -187500.02, -187500.02, 36583.48, -187500.02, -187500.02, -187500.02, 0.00, 0.00, 0.00
94, -187500.02, 30607.81, -187500.02, -187500.02, 34629.47, -187500.02, -187500.02, -187500.02, 0.00, 0.00, 0.00
95, -187500.02, 32133.07, -187500.02, -187500.02, 35990.69, -187500.02, -187500.02, -187500.02, 0.00, 0.00, 0.00
96, -187500.02, 34250.71, -187500.02, -187500.02, 38139.59, -187500.02, -187500.02, -187500.02, 0.00, 0.00, 0.00
97, -187500.02, 32941.51, -187500.02, -187500.02, 37000.54, -187500.02, -187500.02, -187500.02, 0.00, 0.00, 0.00
98, -187500.02, 30669.05, -187500.02, -187500.02, 34718.61, -187500.02, -187500.02, -187500.02, 0.00, 0.00, 0.00
99, -187500.02, 31589.23, -187500.02, -187500.02, 35472.24, -187500.02, -187500.02, -187500.02, 0.00, 0.00, 0.00
100, -187500.02, 34013.52, -187500.02, -187500.02, 37880.44, -187500.02, -187500.02, -187500.02, 0.00, 0.00, 0.00
101, -187500.02, 33348.69, -187500.02, -187500.02, 37387.92, -187500.02, -187500.02, -187500.02, 0.00, 0.00, 0.00
102, -187500.02, 30877.17, -187500.02, -187500.02, 34949.99, -187500.02, -187500.02, -187500.02, 0.00, 0.00, 0.00
103, -187500.02, 31185.18, -187500.02, -187500.02, 35096.24, -187500.02, -187500.02, -187500.02, 0.00, 0.00, 0.00
104, -187500.02, 33716.58, -187500.02, -187500.02, 37567.11, -187500.02, -187500.02, -187500.02, 0.00, 0.00, 0.00
105, -187500.02, 33725.14, -187500.02, -187500.02, 37729.59, -187500.02, -187500.02, -187500.02, 0.00, 0.00, 0.00
106, -187500.02, 31200.51, -187500.02, -187500.02, 35280.30, -187500.02, -187500.02, -187500.02, 0.00, 0.00, 0.00
107, -187500.02, 30669.03, -187500.02, -187500.02, 34618.11, -187500.02, -187500.02, -187500.02, 0.00, 0.00, 0.00
108, -187500.02, 32349.70, -187500.02, -187500.02, 36241.09, -187500.02, -187500.02, -187500.02, 0.00, 0.00, 0.00
109, -187500.02, 32624.29, -187500.02, -187500.02, 36601.50, -187500.02, -187500.02, -187500.02, 0.00, 0.00, 0.00
110, -187500.02, 31084.23, -187500.02, -187500.02, 35102.00, -187500.02, -187500.02, -187500.02, 0.00, 0.00, 0.00
111, -187500.02, 30721.00, -187500.02, -187500.02, 34669.14, -187500.02, -187500.02, -187500.02, 0.00, 0.00, 0.00
112, -187500.02, 32203.41, -187500.02, -187500.02, 36104.44, -187500.02, -187500.02, -187500.02, 0.00, 0.00, 0.00
113, -187500.02, 32816.11, -187500.02, -187500.02, 36780.09, -187500.02, -187500.02, -187500.02, 0.00, 0.00, 0.00
114, -187500.02, 31419.35, -187500.02, -187500.02, 35430.09, -187500.02, -187500.02, -187500.02, 0.00, 0.00, 0.00
115, -187500.02, 30699.74, -187500.02, -187500.02, 34651.86, -187500.02, -187500.02, -187500.02, 0.00, 0.00, 0.00
116, -187500.02, 32025.40, -187500.02, -187500.02, 35921.84, -187500.02, -187500.02, -187500.02, 0.00, 0.00, 0.00
117, -187500.02, 33010.24, -187500.02, -187500.02, 36947.36, -187500.02, -187500.02, -187500.02, 0.00, 0.00, 0.00
118, -187500.02, 31824.99, -187500.02, -187500.02, 35813.19, -187500.02, -187500.02, -187500.02, 0.00, 0.00, 0.00
119, -187500.02, 30729.58, -187500.02, -187500.02, 34670.66, -187500.02, -187500.02, -187500.02, 0.00, 0.00, 0.00
120, -187500.02, 31754.59, -187500.02, -187500.02, 35630.31, -187500.02, -187500.02, -187500.02, 0.00, 0.00, 0.00
121, -187500.02, 32999.06, -187500.02, -187500.02, 36907.96, -187500.02, -187500.02, -187500.02, 0.00, 0.00, 0.00
122, -187500.02, 32126.52, -187500.02, -187500.02, 36107.01, -187500.02, -187500.02, -187500.02, 0.00, 0.00, 0.00
123, -187500.02, 30817.53, -187500.02, -187500.02, 34776.30, -187500.02, -187500.02, -187500.02, 0.00, 0.00, 0.00
124, -187500.02, 31543.67, -187500.02, -187500.02, 35432.27, -187500.02, -187500.02, -187500.02, 0.00, 0.00, 0.00
125, -187500.02, 32979.80, -187500.02, -187500.02, 36880.87, -187500.02, -187500.02, -187500.02, 0.00, 0.00, 0.00
126, -187500.02, 32475.38, -187500.02, -187500.02, 36450.20, -187500.02, -187500.02, -187500.02, 0.00, 0.00, 0.00
127, -187500.02, 31039.26, -187500.02, -187500.02, 35007.59, -187500.02, -187500.02, -187500.02, 0.00, 0.00, 0.00
128, -187500.02, 31378.58, -187500.02, -187500.02, 35271.63, -187500.02, -187500.02, -187500.02, 0.00, 0.00, 0.00
129, -187500.02, 32937.62, -187500.02, -187500.02, 36823.40, -187500.02, -187500.02, -187500.02, 0.00, 0.00, 0.00
130, -187500.02, 32843.45, -187500.02, -187500.02, 36803.58, -187500.02, -187500.02, -187500.02, 0.00, 0.00, 0.00
131, -187500.02, 31322.04, -187500.02, -187500.02, 35303.75, -187500.02, -187500.02, -187500.02, 0.00, 0.00, 0.00
132, -187500.02, 31239.76, -187500.02, -187500.02, 35156.48, -187500.02, -187500.02, -187500.02, 0.00, 0.00, 0.00
133, -187500.02, 32776.29, -187500.02, -187500.02, 36663.79, -187500.02, -187500.02, -187500.02, 0.00, 0.00, 0.00
134, -187500.02, 33128.84, -187500.02, -187500.02, 37087.31, -187500.02, -187500.02, -187500.02, 0.00, 0.00, 0.00
135, -187500.02, 31669.38, -187500.02, -187500.02, 35645.40, -187500.02, -187500.02, -187500.02, 0.00, 0.00, 0.00
136, -187500.02, 31178.67, -187500.02, -187500.02, 35072.90, -187500.02, -187500.02, -187500.02, 0.00, 0.00, 0.00
137, -187500.02, 32578.47, -187500.02, -187500.02, 36417.00, -187500.02, -187500.02, -187500.02, 0.00, 0.00, 0.00
138, -187500.02, 33287.20, -187500.02, -187500.02, 37183.45, -187500.02, -187500.02, -187500.02, 0.00, 0.00, 0.00
139, -187500.02, 31963.24, -187500.02, -187500.02, 35909.24, -187500.02, -187500.02, -187500.02, 0.00, 0.00, 0.00
140, -187500.02, 31124.18, -187500.02, -187500.02, 35013.07, -187500.02, -187500.02, -187500.02, 0.00, 0.00, 0.00
141, -187500.02, 32312.89, -187500.02, -187500.02, 36131.13, -187500.02, -187500.02, -187500.02, 0.00, 0.00, 0.00
142, -187500.02, 33348.67, -187500.02, -187500.02, 37198.71, -187500.02, -187500.02, -187500.02, 0.00, 0.00, 0.00
143, -187500.02, 32283.05, -187500.02, -187500.02, 36194.34, -187500.02, -187500.02, -187500.02, 0.00, 0.00, 0.00
144, -187500.02, 31141.30, -187500.02, -187500.02, 35015.75, -187500.02, -187500.02, -187500.02, 0.00, 0.00, 0.00
145, -187500.02, 32057.23, -187500.02, -187500.02, 35861.43, -187500.02, -187500.02, -187500.02, 0.00, 0.00, 0.00
146, -187500.02, 33334.41, -187500.02, -187500.02, 37168.13, -187500.02, -187500.02, -187500.02, 0.00, 0.00, 0.00
147, -187500.02, 32573.06, -187500.02, -187500.02, 36483.57, -187500.02, -187500.02, -187500.02, 0.00, 0.00, 0.00
148, -187500.02, 31220.56, -187500.02, -187500.02, 35103.95, -187500.02, -187500.02, -187500.02, 0.00, 0.00, 0.00
149, -187500.02, 31780.25, -187500.02, -187500.02, 35588.54, -187500.02, -187500.02, -187500.02, 0.00, 0.00, 0.00
150, -187500.02, 33198.66, -187500.02, -187500.02, 37011.45, -187500.02, -187500.02, -187500.02, 0.00, 0.00, 0.00
151, -187500.02, 32856.53, -187500.02, -187500.02, 36736.16, -187500.02, -187500.02, -187500.02, 0.00, 0.00, 0.00
152, -187500.02, 31395.88, -187500.02, -187500.02, 35272.01, -187500.02, -187500.02, -187500.02, 0.00, 0.00, 0.00
153, -187500.02, 31570.81, -187500.02, -187500.02, 35376.89, -187500.02, -187500.02, -187500.02, 0.00, 0.00, 0.00
154, -187500.02, 33062.36, -187500.02, -187500.02, 36853.27, -187500.02, -187500.02, -187500.02, 0.00, 0.00, 0.00
155, -187500.02, 33127.25, -187500.02, -187500.02, 36985.81, -187500.02, -187500.02, -187500.02, 0.00, 0.00, 0.00
156, -187500.02, 31648.21, -187500.02, -187500.02, 35538.63, -187500.02, -187500.02, -187500.02, 0.00, 0.00, 0.00
157, -187500.02, 31427.96, -187500.02, -187500.02, 35256.86, -187500.02, -187500.02, -187500.02, 0.00, 0.00, 0.00
158, -187500.02, 32920.61, -187500.02, -187500.02, 36705.21, -187500.02, -187500.02, -187500.02, 0.00, 0.00, 0.00
159, -187500.02, 33399.09, -187500.02, -187500.02, 37232.11, -187500.02, -187500.02, -187500.02, 0.00, 0.00, 0.00
160, -187500.02, 31983.96, -187500.02, -187500.02, 35856.11, -187500.02, -187500.02, -187500.02, 0.00, 0.00, 0.00
161, -187500.02, 31369.00, -187500.02, -187500.02, 35191.05, -187500.02, -187500.02, -187500.02, 0.00, 0.00, 0.00
162, -187500.02, 32705.54, -187500.02, -187500.02, 36487.95, -187500.02, -187500.02, -187500.02, 0.00, 0.00, 0.00
163, -187500.02, 33520.73, -187500.02, -187500.02, 37363.82, -187500.02, -187500.02, -187500.02, 0.00, 0.00, 0.00
164, -187500.02, 32307.26, -187500.02, -187500.02, 36211.16, -187500.02, -187500.02, -187500.02, 0.00, 0.00, 0.00
165, -187500.02, 31355.43, -187500.02, -187500.02, 35202.61, -187500.02, -187500.02, -187500.02, 0.00, 0.00, 0.00
166, -187500.02, 32424.22, -187500.02, -187500.02, 36197.78, -187500.02, -187500.02, -187500.02, 0.00, 0.00, 0.00
167, -187500.02, 33565.70, -187500.02, -187500.02, 37374.66, -187500.02, -187500.02, -187500.02, 0.00, 0.00, 0.00
168, -187500.02, 32584.60, -187500.02, -187500.02, 36461.48, -187500.02, -187500.02, -187500.02, 0.00, 0.00, 0.00
169, -187500.02, 31351.54, -187500.02, -187500.02, 35191.73, -187500.02, -187500.02, -187500.02, 0.00, 0.00, 0.00
170, -187500.02, 32139.33, -187500.02, -187500.02, 35908.16, -187500.02, -187500.02, -187500.02, 0.00, 0.00, 0.00
171, -187500.02, 33496.46, -187500.02, -187500.02, 37277.25, -187500.02, -187500.02, -187500.02, 0.00, 0.00, 0.00
172, -187500.02, 32884.67, -187500.02, -187500.02, 36732.77, -187500.02, -187500.02, -187500.02, 0.00, 0.00, 0.00
173, -187500.02, 31465.22, -187500.02, -187500.02, 35320.34, -187500.02, -187500.02, -187500.02, 0.00, 0.00, 0.00
174, -187500.02, 31884.96, -187500.02, -187500.02, 35675.59, -187500.02, -187500.02, -187500.02, 0.00, 0.00, 0.00
175, -187500.02, 33380.92, -187500.02, -187500.02, 37155.44, -187500.02, -187500.02, -187500.02, 0.00, 0.00, 0.00
176, -187500.02, 33158.36, -187500.02, -187500.02, 37004.86, -187500.02, -187500.02, -187500.02, 0.00, 0.00, 0.00
177, -187500.02, 31655.21, -187500.02, -187500.02, 35514.13, -187500.02, -187500.02, -187500.02, 0.00, 0.00, 0.00
178, -187500.02, 31662.68, -187500.02, -187500.02, 35440.99, -187500.02, -187500.02, -187500.02, 0.00, 0.00, 0.00
179, -187500.02, 33165.50, -187500.02, -187500.02, 36921.59, -187500.02, -187500.02, -187500.02, 0.00, 0.00, 0.00
180, -187500.02, 33371.15, -187500.02, -187500.02, 37203.32, -187500.02, -187500.02, -187500.02, 0.00, 0.00, 0.00
181, -187500.02, 31896.36, -187500.02, -187500.02, 35759.30, -187500.02, -187500.02, -187500.02, 0.00, 0.00, 0.00
182, -187500.02, 31521.61, -187500.02, -187500.02, 35312.43, -187500.02, -187500.02, -187500.02, 0.00, 0.00, 0.00
183, -187500.02, 32966.09, -187500.02, -187500.02, 36709.34, -187500.02, -187500.02, -187500.02, 0.00, 0.00, 0.00
184, -187500.02, 33555.93, -187500.02, -187500.02, 37359.13, -187500.02, -187500.02, -187500.02, 0.00, 0.00, 0.00
185, -187500.02, 32185.42, -187500.02, -187500.02, 36026.18, -187500.02, -187500.02, -187500.02, 0.00, 0.00, 0.00
186, -187500.02, 31424.83, -187500.02, -187500.02, 35210.10, -187500.02, -187500.02, -187500.02, 0.00, 0.00, 0.00
187, -187500.02, 32687.21, -187500.02, -187500.02, 36425.92, -187500.02, -187500.02, -187500.02, 0.00, 0.00, 0.00
188, -187500.02, 33670.87, -187500.02, -187500.02, 37445.16, -187500.02, -187500.02, -187500.02, 0.00, 0.00, 0.00
189, -187500.02, 32511.26, -187500.02, -187500.02, 36336.27, -187500.02, -187500.02, -187500.02, 0.00, 0.00, 0.00
190, -187500.02, 31448.37, -187500.02, -187500.02, 35228.05, -187500.02, -187500.02, -187500.02, 0.00, 0.00, 0.00
191, -187500.02, 32434.91, -187500.02, -187500.02, 36149.34, -187500.02, -187500.02, -187500.02, 0.00, 0.00, 0.00
192, -187500.02, 33696.77, -187500.02, -187500.02, 37434.92, -187500.02, -187500.02, -187500.02, 0.00, 0.00, 0.00
193, -187500.02, 32864.20, -187500.02, -187500.02, 36668.84, -187500.02, -187500.02, -187500.02, 0.00, 0.00, 0.00
194, -187500.02, 31550.98, -187500.02, -187500.02, 35333.91, -187500.02, -187500.02, -187500.02, 0.00, 0.00, 0.00
195, -187500.02, 32192.57, -187500.02, -187500.02, 35914.45, -187500.02, -187500.02, -187500.02, 0.00, 0.00, 0.00
196, -187500.02, 33624.93, -187500.02, -187500.02, 37370.02, -187500.02, -187500.02, -187500.02, 0.00, 0.00, 0.00
197, -187500.02, 33151.57, -187500.02, -187500.02, 36961.13, -187500.02, -187500.02, -187500.02, 0.00, 0.00, 0.00
198, -187500.02, 31672.85, -187500.02, -187500.02, 35453.04, -187500.02, -187500.02, -187500.02, 0.00, 0.00, 0.00
199, -187500.02, 31956.47, -187500.02, -187500.02, 35625.50, -187500.02, -187500.02, -187500.02, 0.00, 0.00, 0.00
200, -187500.02, 33469.48, -187500.02, -187500.02, 37114.18, -187500.02, -187500.02, -187500.02, 0.00, 0.00, 0.00
201, -187500.02, 33408.46, -187500.02, -187500.02, 37129.55, -187500.02, -187500.02, -187500.02, 0.00, 0.00, 0.00
202, -187500.02, 31884.70, -187500.02, -187500.02, 35630.51, -187500.02, -187500.02, -187500.02, 0.00, 0.00, 0.00
203, -187500.02, 31746.16, -187500.02, -187500.02, 35435.09, -187500.02, -187500.02, -187500.02, 0.00, 0.00, 0.00
204, -187500.02, 33238.83, -187500.02, -187500.02, 36907.49, -187500.02, -187500.02, -187500.02, 0.00, 0.00, 0.00
205, -187500.02, 33576.57, -187500.02, -187500.02, 37315.52, -187500.02, -187500.02, -187500.02, 0.00, 0.00, 0.00
206, -187500.02, 32120.46, -187500.02, -187500.02, 35896.12, -187500.02, -187500.02, -187500.02, 0.00, 0.00, 0.00
207, -187500.02, 31608.76, -187500.02, -187500.02, 35315.11, -187500.02, -187500.02, -187500.02, 0.00, 0.00, 0.00
208, -187500.02, 32997.10, -187500.02, -187500.02, 36652.12, -187500.02, -187500.02, -187500.02, 0.00, 0.00, 0.00
209, -187500.02, 33741.77, -187500.02, -187500.02, 37449.61, -187500.02, -187500.02, -187500.02, 0.00, 0.00, 0.00
210, -187500.02, 32448.12, -187500.02, -187500.02, 36205.62, -187500.02, -187500.02, -187500.02, 0.00, 0.00, 0.00
211, -187500.02, 31568.44, -187500.02, -187500.02, 35284.08, -187500.02, -187500.02, -187500.02, 0.00, 0.00, 0.00
212, -187500.02, 32738.00, -187500.02, -187500.02, 36394.85, -187500.02, -187500.02, -187500.02, 0.00, 0.00, 0.00
213, -187500.02, 33818.39, -187500.02, -187500.02, 37509.87, -187500.02, -187500.02, -187500.02, 0.00, 0.00, 0.00
214, -187500.02, 32758.11, -187500.02, -187500.02, 36516.80, -187500.02, -187500.02, -187500.02, 0.00, 0.00, 0.00
215, -187500.02, 31604.16, -187500.02, -187500.02, 35333.79, -187500.02, -187500.02, -187500.02, 0.00, 0.00, 0.00
216, -187500.02, 32518.12, -187500.02, -187500.02, 36183.76, -187500.02, -187500.02, -187500.02, 0.00, 0.00, 0.00
217, -187500.02, 33838.30, -187500.02, -187500.02, 37532.15, -187500.02, -187500.02, -187500.02, 0.00, 0.00, 0.00
218, -187500.02, 33114.53, -187500.02, -187500.02, 36888.34, -187500.02, -187500.02, -187500.02, 0.00, 0.00, 0.00
219, -187500.02, 31751.19, -187500.02, -187500.02, 35504.76, -187500.02, -187500.02, -187500.02, 0.00, 0.00, 0.00
220, -187500.02, 32272.03, -187500.02, -187500.02, 35948.38, -187500.02, -187500.02, -187500.02, 0.00, 0.00, 0.00
221, -187500.02, 33722.16, -187500.02, -187500.02, 37393.93, -187500.02, -187500.02, -187500.02, 0.00, 0.00, 0.00
222, -187500.02, 33400.84, -187500.02, -187500.02, 37139.19, -187500.02, -187500.02, -187500.02, 0.00, 0.00, 0.00
223, -187500.02, 31892.92, -187500.02, -187500.02, 35634.69, -187500.02, -187500.02, -187500.02, 0.00, 0.00, 0.00
224, -187500.02, 32024.08, -187500.02, -187500.02, 35703.02, -187500.02, -187500.02, -187500.02, 0.00, 0.00, 0.00
225, -187500.02, 33544.91, -187500.02, -187500.02, 37206.31, -187500.02, -187500.02, -187500.02, 0.00, 0.00, 0.00
226, -187500.02, 33650.19, -187500.02, -187500.02, 37378.13, -187500.02, -187500.02, -187500.02, 0.00, 0.00, 0.00
227, -187500.02, 32135.39, -187500.02, -187500.02, 35877.92, -187500.02, -187500.02, -187500.02, 0.00, 0.00, 0.00
228, -187500.02, 31852.64, -187500.02, -187500.02, 35522.24, -187500.02, -187500.02, -187500.02, 0.00, 0.00, 0.00
229, -187500.02, 33331.90, -187500.02, -187500.02, 36962.59, -187500.02, -187500.02, -187500.02, 0.00, 0.00, 0.00
230, -187500.02, 33831.42, -187500.02, -187500.02, 37510.90, -187500.02, -187500.02, -187500.02, 0.00, 0.00, 0.00
231, -187500.02, 32401.80, -187500.02, -187500.02, 36107.88, -187500.02, -187500.02, -187500.02, 0.00, 0.00, 0.00
232, -187500.02, 31747.84, -187500.02, -187500.02, 35398.37, -187500.02, -187500.02, -187500.02, 0.00, 0.00, 0.00
233, -187500.02, 33068.36, -187500.02, -187500.02, 36661.02, -187500.02, -187500.02, -187500.02, 0.00, 0.00, 0.00
234, -187500.02, 33954.11, -187500.02, -187500.02, 37574.58, -187500.02, -187500.02, -187500.02, 0.00, 0.00, 0.00
235, -187500.02, 32739.96, -187500.02, -187500.02, 36398.68, -187500.02, -187500.02, -187500.02, 0.00, 0.00, 0.00
236, -187500.02, 31717.57, -187500.02, -187500.02, 35331.20, -187500.02, -187500.02, -187500.02, 0.00, 0.00, 0.00
237, -187500.02, 32785.40, -187500.02, -187500.02, 36342.82, -187500.02, -187500.02, -187500.02, 0.00, 0.00, 0.00
238, -187500.02, 33982.99, -187500.02, -187500.02, 37570.35, -187500.02, -187500.02, -187500.02, 0.00, 0.00, 0.00
239, -187500.02, 33037.29, -187500.02, -187500.02, 36696.40, -187500.02, -187500.02, -187500.02, 0.00, 0.00, 0.00
240, -187500.02, 31777.14, -187500.02, -187500.02, 35416.58, -187500.02, -187500.02, -187500.02, 0.00, 0.00, 0.00
241, -187500.02, 32565.91, -187500.02, -187500.02, 36122.96, -187500.02, -187500.02, -187500.02, 0.00, 0.00, 0.00
242, -187500.02, 33997.25, -187500.02, -187500.02, 37554.02, -187500.02, -187500.02, -187500.02, 0.00, 0.00, 0.00
243, -187500.02, 33401.35, -187500.02, -187500.02, 37022.73, -187500.02, -187500.02, -187500.02, 0.00, 0.00, 0.00
244, -187500.02, 31950.54, -187500.02, -187500.02, 35562.59, -187500.02, -187500.02, -187500.02, 0.00, 0.00, 0.00
245, -187500.02, 32314.94, -187500.02, -187500.02, 35859.93, -187500.02, -187500.02, -187500.02, 0.00, 0.00, 0.00
246, -187500.02, 33880.86, -187500.02, -187500.02, 37426.03, -187500.02, -187500.02, -187500.02, 0.00, 0.00, 0.00
247, -187500.02, 33698.90, -187500.02, -187500.02, 37320.39, -187500.02, -187500.02, -187500.02, 0.00, 0.00, 0.00
248, -187500.02, 32158.53, -187500.02, -187500.02, 35799.85, -187500.02, -187500.02, -187500.02, 0.00, 0.00, 0.00
249, -187500.02, 32144.62, -187500.02, -187500.02, 35721.62, -187500.02, -187500.02, -187500.02, 0.00, 0.00, 0.00
250, -187500.02, 33674.24, -187500.02, -187500.02, 37213.55, -187500.02, -187500.02, -187500.02, 0.00, 0.00, 0.00
251, -187500.02, 33902.57, -187500.02, -187500.02, 37502.61, -187500.02, -187500.02, -187500.02, 0.00, 0.00, 0.00
252, -187500.02, 32378.96, -187500.02, -187500.02, 36023.39, -187500.02, -187500.02, -187500.02, 0.00, 0.00, 0.00
253, -187500.02, 31962.08, -187500.02, -187500.02, 35547.57, -187500.02, -187500.02, -187500.02, 0.00, 0.00, 0.00
254, -187500.02, 33415.90, -187500.02, -187500.02, 36949.29, -187500.02, -187500.02, -187500.02, 0.00, 0.00, 0.00
255, -187500.02, 34065.84, -187500.02, -187500.02, 37641.07, -187500.02, -187500.02, -187500.02, 0.00, 0.00, 0.00
0, -187500.02, 32690.14, -187500.02, -187500.02, 36304.17, -187500.02, -187500.02, -187500.02, 0.00, 0.00, 0.00
1, -187500.02, 31882.59, -187500.02, -187500.02, 35453.13, -187500.02, -187500.02, -187500.02, 0.00, 0.00, 0.00
2, -187500.02, 33125.82, -187500.02, -187500.02, 36648.99, -187500.02, -187500.02, -187500.02, 0.00, 0.00, 0.00
3, -187500.02, 34113.37, -187500.02, -187500.02, 37674.82, -187500.02, -187500.02, -187500.02, 0.00, 0.00, 0.00
4, -187500.02, 32987.24, -187500.02, -187500.02, 36609.96, -187500.02, -187500.02, -187500.02, 0.00, 0.00, 0.00
5, -187500.02, 31889.84, -187500.02, -187500.02, 35495.91, -187500.02, -187500.02, -187500.02, 0.00, 0.00, 0.00
6, -187500.02, 32847.18, -187500.02, -187500.02, 36388.50, -187500.02, -187500.02, -187500.02, 0.00, 0.00, 0.00
7, -187500.02, 34122.06, -187500.02, -187500.02, 37684.28, -187500.02, -187500.02, -187500.02, 0.00, 0.00, 0.00
8, -187500.02, 33297.97, -187500.02, -187500.02, 36916.07, -187500.02, -187500.02, -187500.02, 0.00, 0.00, 0.00
9, -187500.02, 31941.18, -187500.02, -187500.02, 35522.15, -187500.02, -187500.02, -187500.02, 0.00, 0.00, 0.00
10, -187500.02, 32582.65, -187500.02, -187500.02, 36081.32, -187500.02, -187500.02, -187500.02, 0.00, 0.00, 0.00
11, -187500.02, 34022.04, -187500.02, -187500.02, 37532.02, -187500.02, -187500.02, -187500.02, 0.00, 0.00, 0.00
12, -187500.02, 33580.59, -187500.02, -187500.02, 37153.54, -187500.02, -187500.02, -187500.02, 0.00, 0.00, 0.00
13, -187500.02, 32129.58, -187500.02, -187500.02, 35694.75, -187500.02, -187500.02, -187500.02, 0.00, 0.00, 0.00
14, -187500.02, 32398.29, -187500.02, -187500.02, 35900.95, -187500.02, -187500.02, -187500.02, 0.00, 0.00, 0.00
15, -187500.02, 33908.78, -187500.02, -187500.02, 37392.37, -187500.02, -187500.02, -187500.02, 0.00, 0.00, 0.00
16, -187500.02, 33874.65, -187500.02, -187500.02, 37426.59, -187500.02, -187500.02, -187500.02, 0.00, 0.00, 0.00
17, -187500.02, 32370.26, -187500.02, -187500.02, 35954.21, -187500.02, -187500.02, -187500.02, 0.00, 0.00, 0.00
18, -187500.02, 32221.09, -187500.02, -187500.02, 35751.28, -187500.02, -187500.02, -187500.02, 0.00, 0.00, 0.00
19, -187500.02, 33690.54, -187500.02, -187500.02, 37203.65, -187500.02, -187500.02, -187500.02, 0.00, 0.00, 0.00
20, -187500.02, 34069.06, -187500.02, -187500.02, 37648.20, -187500.02, -187500.02, -187500.02, 0.00, 0.00, 0.00
21, -187500.02, 32634.57, -187500.02, -187500.02, 36249.63, -187500.02, -187500.02, -187500.02, 0.00, 0.00, 0.00
22, -187500.02, 32099.14, -187500.02, -187500.02, 35645.20, -187500.02, -187500.02, -187500.02, 0.00, 0.00, 0.00
23, -187500.02, 33436.22, -187500.02, -187500.02, 36933.64, -187500.02, -187500.02, -187500.02, 0.00, 0.00, 0.00
24, -187500.02, 34190.32, -187500.02, -187500.02, 37752.96, -187500.02, -187500.02, -187500.02, 0.00, 0.00, 0.00
25, -187500.02, 32918.42, -187500.02, -187500.02, 36524.61, -187500.02, -187500.02, -187500.02, 0.00, 0.00, 0.00
26, -187500.02, 32016.82, -187500.02, -187500.02, 35563.95, -187500.02, -187500.02, -187500.02, 0.00, 0.00, 0.00
27, -187500.02, 33135.68, -187500.02, -187500.02, 36636.70, -187500.02, -187500.02, -187500.02, 0.00, 0.00, 0.00
28, -187500.02, 34203.51, -187500.02, -187500.02, 37759.67, -187500.02, -187500.02, -187500.02, 0.00, 0.00, 0.00
29, -187500.02, 33198.15, -187500.02, -187500.02, 36805.03, -187500.02, -187500.02, -187500.02, 0.00, 0.00, 0.00
30, -187500.02, 32038.01, -187500.02, -187500.02, 35610.08, -187500.02, -187500.02, -187500.02, 0.00, 0.00, 0.00
31, -187500.02, 32853.33, -187500.02, -187500.02, 36368.88, -187500.02, -187500.02, -187500.02, 0.00, 0.00, 0.00
32, -187500.02, 34136.61, -187500.02, -187500.02, 37675.05, -187500.02, -187500.02, -187500.02, 0.00, 0.00, 0.00
33, -187500.02, 33430.07, -187500.02, -187500.02, 37029.73, -187500.02, -187500.02, -187500.02, 0.00, 0.00, 0.00
