%OpenBCI Raw EEG Data
%
%Sample Rate = 250.0 Hz
%First Column = SampleIndex
%Other Columns = EEG data in microvolts followed by Accel Data (in G) interleaved with Aux Data
0, 104613.05, -187500.02, -187500.02, -187500.02, -187500.02, -187500.02, -187500.02, 187500.00, -0.00, -0.00, -0.00
1, 104587.30, -187500.02, -187500.02, -187500.02, -187500.02, -187500.02, -187500.02, 187500.00, -0.00, -0.00, -0.00
2, 104575.94, -187500.02, -187500.02, -187500.02, -187500.02, -187500.02, -187500.02, 187500.00, -0.00, -0.00, -0.00
3, 104593.29, -187500.02, -187500.02, -187500.02, -187500.02, -187500.02, -187500.02, 187500.00, -0.00, -0.00, -0.00
4, 104601.98, -187500.02, -187500.02, -187500.02, -187500.02, -187500.02, -187500.02, 187500.00, -0.00, -0.00, -0.00
5, 104610.77, -187500.02, -187500.02, -187500.02, -187500.02, -187500.02, -187500.02, 187500.00, -0.00, -0.00, -0.00
6, 104579.85, -187500.02, -187500.02, -187500.02, -187500.02, -187500.02, -187500.02, 187500.00, -0.00, -0.00, -0.00
7, 104605.11, -187500.02, -187500.02, -187500.02, -187500.02, -187500.02, -187500.02, 187500.00, -0.00, -0.00, -0.00
8, 104590.31, -187500.02, -187500.02, -187500.02, -187500.02, -187500.02, -187500.02, 187500.00, -0.00, -0.00, -0.00
9, 104593.66, -187500.02, -187500.02, -187500.02, -187500.02, -187500.02, -187500.02, 187500.00, -0.00, -0.00, -0.00
10, 104583.59, -187500.02, -187500.02, -187500.02, -187500.02, -187500.02, -187500.02, 187500.00, -0.00, -0.00, -0.00
11, 104559.47, -187500.02, -187500.02, -187500.02, -187500.02, -187500.02, -187500.02, 187500.00, -0.00, -0.00, -0.00
12, 104578.40, -187500.02, -187500.02, -187500.02, -187500.02, -187500.02, -187500.02, 187500.00, -0.00, -0.00, -0.00
13, 104583.09, -187500.02, -187500.02, -187500.02, -187500.02, -187500.02, -187500.02, 187500.00, -0.00, -0.00, -0.00
14, 104573.98, -187500.02, -187500.02, -187500.02, -187500.02, -187500.02, -187500.02, 187500.00, -0.00, -0.00, -0.00
15, 104558.10, -187500.02, -187500.02, -187500.02, -187500.02, -187500.02, -187500.02, 187500.00, -0.00, -0.00, -0.00
16, 104576.27, -187500.02, -187500.02, -187500.02, -187500.02, -187500.02, -187500.02, 187500.00, -0.00, -0.00, -0.00
17, 104593.51, -187500.02, -187500.02, -187500.02, -187500.02, -187500.02, -187500.02, 187500.00, -0.00, -0.00, -0.00
18, 104583.23, -187500.02, -187500.02, -187500.02, -187500.02, -187500.02, -187500.02, 187500.00, -0.00, -0.00, -0.00
19, 104570.11, -187500.02, -187500.02, -187500.02, -187500.02, -187500.02, -187500.02, 187500.00, -0.00, -0.00, -0.00
20, 104569.70, -187500.02, -187500.02, -187500.02, -187500.02, -187500.02, -187500.02, 187500.00, -0.00, -0.00, -0.00
21, 104601.34, -187500.02, -187500.02, -187500.02, -187500.02, -187500.02, -187500.02, 187500.00, -0.00, -0.00, -0.00
22, 104573.80, -187500.02, -187500.02, -187500.02, -187500.02, -187500.02, -187500.02, 187500.00, -0.00, -0.00, -0.00
23, 104570.06, -187500.02, -187500.02, -187500.02, -187500.02, -187500.02, -187500.02, 187500.00, -0.00, -0.00, -0.00
24, 104580.92, -187500.02, -187500.02, -187500.02, -187500.02, -187500.02, -187500.02, 187500.00, -0.00, -0.00, -0.00
25, 104590.60, -187500.02, -187500.02, -187500.02, -187500.02, -187500.02, -187500.02, 187500.00, -0.00, -0.00, -0.00
26, 104571.59, -187500.02, -187500.02, -187500.02, -187500.02, -187500.02, -187500.02, 187500.00, -0.00, -0.00, -0.00
27, 104541.48, -187500.02, -187500.02, -187500.02, -187500.02, -187500.02, -187500.02, 187500.00, -0.00, -0.00, -0.00
28, 104555.24, -187500.02, -187500.02, -187500.02, -187500.02, -187500.02, -187500.02, 187500.00, -0.00, -0.00, -0.00
29, 104591.99, -187500.02, -187500.02, -187500.02, -187500.02, -187500.02, -187500.02, 187500.00, -0.00, -0.00, -0.00
30, 104578.20, -187500.02, -187500.02, -187500.02, -187500.02, -187500.02, -187500.02, 187500.00, -0.00, -0.00, -0.00
31, 104544.23, -187500.02, -187500.02, -187500.02, -187500.02, -187500.02, -187500.02, 187500.00, -0.00, -0.00, -0.00
32, 104538.68, -187500.02, -187500.02, -187500.02, -187500.02, -187500.02, -187500.02, 187500.00, -0.00, -0.00, -0.00
33, 104563.05, -187500.02, -187500.02, -187500.02, -187500.02, -187500.02, -187500.02, 187500.00, -0.00, -0.00, -0.00
34, 104569.41, -187500.02, -187500.02, -187500.02, -187500.02, -187500.02, -187500.02, 187500.00, -0.00, -0.00, -0.00
35, 104529.25, -187500.02, -187500.02, -187500.02, -187500.02, -187500.02, -187500.02, 187500.00, -0.00, -0.00, -0.00
36, 104535.69, -187500.02, -187500.02, -187500.02, -187500.02, -187500.02, -187500.02, 187500.00, -0.00, -0.00, -0.00
37, 104548.67, -187500.02, -187500.02, -187500.02, -187500.02, -187500.02, -187500.02, 187500.00, -0.00, -0.00, -0.00
38, 104568.16, -187500.02, -187500.02, -187500.02, -187500.02, -187500.02, -187500.02, 187500.00, -0.00, -0.00, -0.00
39, 104542.13, -187500.02, -187500.02, -187500.02, -187500.02, -187500.02, -187500.02, 187500.00, -0.00, -0.00, -0.00
40, 104528.00, -187500.02, -187500.02, -187500.02, -187500.02, -187500.02, -187500.02, 187500.00, -0.00, -0.00, -0.00
41, 104531.02, -187500.02, -187500.02, -187500.02, -187500.02, -187500.02, -187500.02, 187500.00, -0.00, -0.00, -0.00
42, 104539.59, -187500.02, -187500.02, -187500.02, -187500.02, -187500.02, -187500.02, 187500.00, -0.00, -0.00, -0.00
43, 104525.09, -187500.02, -187500.02, -187500.02, -187500.02, -187500.02, -187500.02, 187500.00, -0.00, -0.00, -0.00
44, 104522.16, -187500.02, -187500.02, -187500.02, -187500.02, -187500.02, -187500.02, 187500.00, -0.00, -0.00, -0.00
45, 104525.34, -187500.02, -187500.02, -187500.02, -187500.02, -187500.02, -187500.02, 187500.00, -0.00, -0.00, -0.00
46, 104552.36, -187500.02, -187500.02, -187500.02, -187500.02, -187500.02, -187500.02, 187500.00, -0.00, -0.00, -0.00
47, 104525.52, -187500.02, -187500.02, -187500.02, -187500.02, -187500.02, -187500.02, 187500.00, -0.00, -0.00, -0.00
48, 104541.14, -187500.02, -187500.02, -187500.02, -187500.02, -187500.02, -187500.02, 187500.00, -0.00, -0.00, -0.00
49, 104529.78, -187500.02, -187500.02, -187500.02, -187500.02, -187500.02, -187500.02, 187500.00, -0.00, -0.00, -0.00
50, 104549.52, -187500.02, -187500.02, -187500.02, -187500.02, -187500.02, -187500.02, 187500.00, -0.00, -0.00, -0.00
51, 104533.30, -187500.02, -187500.02, -187500.02, -187500.02, -187500.02, -187500.02, 187500.00, -0.00, -0.00, -0.00
52, 104508.95, -187500.02, -187500.02, -187500.02, -187500.02, -187500.02, -187500.02, 187500.00, -0.00, -0.00, -0.00
53, 104502.96, -187500.02, -187500.02, -187500.02, -187500.02, -187500.02, -187500.02, 187500.00, -0.00, -0.00, -0.00
54, 104525.20, -187500.02, -187500.02, -187500.02, -187500.02, -187500.02, -187500.02, 187500.00, -0.00, -0.00, -0.00
55, 104522.70, -187500.02, -187500.02, -187500.02, -187500.02, -187500.02, -187500.02, 187500.00, -0.00, -0.00, -0.00
56, 104508.05, -187500.02, -187500.02, -187500.02, -187500.02, -187500.02, -187500.02, 187500.00, -0.00, -0.00, -0.00
57, 104505.09, -187500.02, -187500.02, -187500.02, -187500.02, -187500.02, -187500.02, 187500.00, -0.00, -0.00, -0.00
58, 104574.60, -187500.02, -187500.02, -187500.02, -187500.02, -187500.02, -187500.02, 187500.00, -0.00, -0.00, -0.00
59, 104594.74, -187500.02, -187500.02, -187500.02, -187500.02, -187500.02, -187500.02, 187500.00, -0.00, -0.00, -0.00
60, 104574.45, -187500.02, -187500.02, -187500.02, -187500.02, -187500.02, -187500.02, 187500.00, -0.00, -0.00, -0.00
61, 104556.30, -187500.02, -187500.02, -187500.02, -187500.02, -187500.02, -187500.02, 187500.00, -0.00, -0.00, -0.00
62, 104563.83, -187500.02, -187500.02, -187500.02, -187500.02, -187500.02, -187500.02, 187500.00, -0.00, -0.00, -0.00
63, 104588.91, -187500.02, -187500.02, -187500.02, -187500.02, -187500.02, -187500.02, 187500.00, -0.00, -0.00, -0.00
64, 104583.98, -187500.02, -187500.02, -187500.02, -187500.02, -187500.02, -187500.02, 187500.00, -0.00, -0.00, -0.00
65, 104548.72, -187500.02, -187500.02, -187500.02, -187500.02, -187500.02, -187500.02, 187500.00, -0.00, -0.00, -0.00
66, 104540.63, -187500.02, -187500.02, -187500.02, -187500.02, -187500.02, -187500.02, 187500.00, -0.00, -0.00, -0.00
67, 104547.09, -187500.02, -187500.02, -187500.02, -187500.02, -187500.02, -187500.02, 187500.00, -0.00, -0.00, -0.00
68, 104518.84, -187500.02, -187500.02, -187500.02, -187500.02, -187500.02, -187500.02, 187500.00, -0.00, -0.00, -0.00
69, 104484.70, -187500.02, -187500.02, -187500.02, -187500.02, -187500.02, -187500.02, 187500.00, -0.00, -0.00, -0.00
70, 104502.07, -187500.02, -187500.02, -187500.02, -187500.02, -187500.02, -187500.02, 187500.00, -0.00, -0.00, -0.00
71, 104523.13, -187500.02, -187500.02, -187500.02, -187500.02, -187500.02, -187500.02, 187500.00, -0.00, -0.00, -0.00
72, 104525.43, -187500.02, -187500.02, -187500.02, -187500.02, -187500.02, -187500.02, 187500.00, -0.00, -0.00, -0.00
73, 104495.59, -187500.02, -187500.02, -187500.02, -187500.02, -187500.02, -187500.02, 187500.00, -0.00, -0.00, -0.00
74, 104480.09, -187500.02, -187500.02, -187500.02, -187500.02, -187500.02, -187500.02, 187500.00, -0.00, -0.00, -0.00
75, 104469.70, -187500.02, -187500.02, -187500.02, -187500.02, -187500.02, -187500.02, 187500.00, -0.00, -0.00, -0.00
76, 104453.03, -187500.02, -187500.02, -187500.02, -187500.02, -187500.02, -187500.02, 187500.00, -0.00, -0.00, -0.00
77, 104423.16, -187500.02, -187500.02, -187500.02, -187500.02, -187500.02, -187500.02, 187500.00, -0.00, -0.00, -0.00
78, 104403.36, -187500.02, -187500.02, -187500.02, -187500.02, -187500.02, -187500.02, 187500.00, -0.00, -0.00, -0.00
79, 104422.81, -187500.02, -187500.02, -187500.02, -187500.02, -187500.02, -187500.02, 187500.00, -0.00, -0.00, -0.00
80, 104393.51, -187500.02, -187500.02, -187500.02, -187500.02, -187500.02, -187500.02, 187500.00, -0.00, -0.00, -0.00
81, 104333.18, -187500.02, -187500.02, -187500.02, -187500.02, -187500.02, -187500.02, 187500.00, -0.00, -0.00, -0.00
82, 104313.13, -187500.02, -187500.02, -187500.02, -187500.02, -187500.02, -187500.02, 187500.00, -0.00, -0.00, -0.00
83, 104336.06, -187500.02, -187500.02, -187500.02, -187500.02, -187500.02, -187500.02, 187500.00, -0.00, -0.00, -0.00
84, 104331.08, -187500.02, -187500.02, -187500.02, -187500.02, -187500.02, -187500.02, 187500.00, -0.00, -0.00, -0.00
85, 104289.62, -187500.02, -187500.02, -187500.02, -187500.02, -187500.02, -187500.02, 187500.00, -0.00, -0.00, -0.00
86, 104299.80, -187500.02, -187500.02, -187500.02, -187500.02, -187500.02, -187500.02, 187500.00, -0.00, -0.00, -0.00
87, 104329.29, -187500.02, -187500.02, -187500.02, -187500.02, -187500.02, -187500.02, 187500.00, -0.00, -0.00, -0.00
88, 104358.15, -187500.02, -187500.02, -187500.02, -187500.02, -187500.02, -187500.02, 187500.00, -0.00, -0.00, -0.00
89, 104310.70, -187500.02, -187500.02, -187500.02, -187500.02, -187500.02, -187500.02, 187500.00, -0.00, -0.00, -0.00
90, 104299.47, -187500.02, -187500.02, -187500.02, -187500.02, -187500.02, -187500.02, 187500.00, -0.00, -0.00, -0.00
91, 104320.26, -187500.02, -187500.02, -187500.02, -187500.02, -187500.02, -187500.02, 187500.00, -0.00, -0.00, -0.00
92, 104328.24, -187500.02, -187500.02, -187500.02, -187500.02, -187500.02, -187500.02, 187500.00, -0.00, -0.00, -0.00
93, 104311.34, -187500.02, -187500.02, -187500.02, -187500.02, -187500.02, -187500.02, 187500.00, -0.00, -0.00, -0.00
94, 104293.84, -187500.02, -187500.02, -187500.02, -187500.02, -187500.02, -187500.02, 187500.00, -0.00, -0.00, -0.00
95, 104305.24, -187500.02, -187500.02, -187500.02, -187500.02, -187500.02, -187500.02, 187500.00, -0.00, -0.00, -0.00
96, 104337.67, -187500.02, -187500.02, -187500.02, -187500.02, -187500.02, -187500.02, 187500.00, -0.00, -0.00, -0.00
97, 104327.19, -187500.02, -187500.02, -187500.02, -187500.02, -187500.02, -187500.02, 187500.00, -0.00, -0.00, -0.00
98, 104278.59, -187500.02, -187500.02, -187500.02, -187500.02, -187500.02, -187500.02, 187500.00, -0.00, -0.00, -0.00
99, 104311.88, -187500.02, -187500.02, -187500.02, -187500.02, -187500.02, -187500.02, 187500.00, -0.00, -0.00, -0.00
100, 104332.80, -187500.02, -187500.02, -187500.02, -187500.02, -187500.02, -187500.02, 187500.00, -0.00, -0.00, -0.00
101, 104334.72, -187500.02, -187500.02, -187500.02, -187500.02, -187500.02, -187500.02, 187500.00, -0.00, -0.00, -0.00
102, 104294.02, -187500.02, -187500.02, -187500.02, -187500.02, -187500.02, -187500.02, 187500.00, -0.00, -0.00, -0.00
103, 104304.26, -187500.02, -187500.02, -187500.02, -187500.02, -187500.02, -187500.02, 187500.00, -0.00, -0.00, -0.00
104, 104335.33, -187500.02, -187500.02, -187500.02, -187500.02, -187500.02, -187500.02, 187500.00, -0.00, -0.00, -0.00
105, 104359.73, -187500.02, -187500.02, -187500.02, -187500.02, -187500.02, -187500.02, 187500.00, -0.00, -0.00, -0.00
106, 104316.21, -187500.02, -187500.02, -187500.02, -187500.02, -187500.02, -187500.02, 187500.00, -0.00, -0.00, -0.00
107, 104309.24, -187500.02, -187500.02, -187500.02, -187500.02, -187500.02, -187500.02, 187500.00, -0.00, -0.00, -0.00
108, 104314.49, -187500.02, -187500.02, -187500.02, -187500.02, -187500.02, -187500.02, 187500.00, -0.00, -0.00, -0.00
109, 104317.58, -187500.02, -187500.02, -187500.02, -187500.02, -187500.02, -187500.02, 187500.00, -0.00, -0.00, -0.00
110, 104314.76, -187500.02, -187500.02, -187500.02, -187500.02, -187500.02, -187500.02, 187500.00, -0.00, -0.00, -0.00
111, 104320.75, -187500.02, -187500.02, -187500.02, -187500.02, -187500.02, -187500.02, 187500.00, -0.00, -0.00, -0.00
112, 104331.19, -187500.02, -187500.02, -187500.02, -187500.02, -187500.02, -187500.02, 187500.00, -0.00, -0.00, -0.00
113, 104342.09, -187500.02, -187500.02, -187500.02, -187500.02, -187500.02, -187500.02, 187500.00, -0.00, -0.00, -0.00
114, 104302.13, -187500.02, -187500.02, -187500.02, -187500.02, -187500.02, -187500.02, 187500.00, -0.00, -0.00, -0.00
115, 104285.99, -187500.02, -187500.02, -187500.02, -187500.02, -187500.02, -187500.02, 187500.00, -0.00, -0.00, -0.00
116, 104307.61, -187500.02, -187500.02, -187500.02, -187500.02, -187500.02, -187500.02, 187500.00, -0.00, -0.00, -0.00
117, 104313.30, -187500.02, -187500.02, -187500.02, -187500.02, -187500.02, -187500.02, 187500.00, -0.00, -0.00, -0.00
118, 104301.77, -187500.02, -187500.02, -187500.02, -187500.02, -187500.02, -187500.02, 187500.00, -0.00, -0.00, -0.00
119, 104260.76, -187500.02, -187500.02, -187500.02, -187500.02, -187500.02, -187500.02, 187500.00, -0.00, -0.00, -0.00
120, 104273.32, -187500.02, -187500.02, -187500.02, -187500.02, -187500.02, -187500.02, 187500.00, -0.00, -0.00, -0.00
121, 104328.71, -187500.02, -187500.02, -187500.02, -187500.02, -187500.02, -187500.02, 187500.00, -0.00, -0.00, -0.00
122, 104326.67, -187500.02, -187500.02, -187500.02, -187500.02, -187500.02, -187500.02, 187500.00, -0.00, -0.00, -0.00
123, 104337.36, -187500.02, -187500.02, -187500.02, -187500.02, -187500.02, -187500.02, 187500.00, -0.00, -0.00, -0.00
124, 104340.22, -187500.02, -187500.02, -187500.02, -187500.02, -187500.02, -187500.02, 187500.00, -0.00, -0.00, -0.00
125, 104380.84, -187500.02, -187500.02, -187500.02, -187500.02, -187500.02, -187500.02, 187500.00, -0.00, -0.00, -0.00
126, 104384.90, -187500.02, -187500.02, -187500.02, -187500.02, -187500.02, -187500.02, 187500.00, -0.00, -0.00, -0.00
127, 104355.28, -187500.02, -187500.02, -187500.02, -187500.02, -187500.02, -187500.02, 187500.00, -0.00, -0.00, -0.00
128, 104373.08, -187500.02, -187500.02, -187500.02, -187500.02, -187500.02, -187500.02, 187500.00, -0.00, -0.00, -0.00
129, 104383.49, -187500.02, -187500.02, -187500.02, -187500.02, -187500.02, -187500.02, 187500.00, -0.00, -0.00, -0.00
130, 104393.26, -187500.02, -187500.02, -187500.02, -187500.02, -187500.02, -187500.02, 187500.00, -0.00, -0.00, -0.00
131, 104389.02, -187500.02, -187500.02, -187500.02, -187500.02, -187500.02, -187500.02, 187500.00, -0.00, -0.00, -0.00
132, 104398.91, -187500.02, -187500.02, -187500.02, -187500.02, -187500.02, -187500.02, 187500.00, -0.00, -0.00, -0.00
133, 104419.84, -187500.02, -187500.02, -187500.02, -187500.02, -187500.02, -187500.02, 187500.00, -0.00, -0.00, -0.00
134, 104421.22, -187500.02, -187500.02, -187500.02, -187500.02, -187500.02, -187500.02, 187500.00, -0.00, -0.00, -0.00
135, 104382.02, -187500.02, -187500.02, -187500.02, -187500.02, -187500.02, -187500.02, 187500.00, -0.00, -0.00, -0.00
136, 104376.16, -187500.02, -187500.02, -187500.02, -187500.02, -187500.02, -187500.02, 187500.00, -0.00, -0.00, -0.00
137, 104403.81, -187500.02, -187500.02, -187500.02, -187500.02, -187500.02, -187500.02, 187500.00, -0.00, -0.00, -0.00
138, 104413.00, -187500.02, -187500.02, -187500.02, -187500.02, -187500.02, -187500.02, 187500.00, -0.00, -0.00, -0.00
139, 104383.07, -187500.02, -187500.02, -187500.02, -187500.02, -187500.02, -187500.02, 187500.00, -0.00, -0.00, -0.00
140, 104353.20, -187500.02, -187500.02, -187500.02, -187500.02, -187500.02, -187500.02, 187500.00, -0.00, -0.00, -0.00
141, 104371.02, -187500.02, -187500.02, -187500.02, -187500.02, -187500.02, -187500.02, 187500.00, -0.00, -0.00, -0.00
142, 104389.55, -187500.02, -187500.02, -187500.02, -187500.02, -187500.02, -187500.02, 187500.00, -0.00, -0.00, -0.00
143, 104372.70, -187500.02, -187500.02, -187500.02, -187500.02, -187500.02, -187500.02, 187500.00, -0.00, -0.00, -0.00
144, 104368.85, -187500.02, -187500.02, -187500.02, -187500.02, -187500.02, -187500.02, 187500.00, -0.00, -0.00, -0.00
145, 104350.88, -187500.02, -187500.02, -187500.02, -187500.02, -187500.02, -187500.02, 187500.00, -0.00, -0.00, -0.00
146, 104367.76, -187500.02, -187500.02, -187500.02, -187500.02, -187500.02, -187500.02, 187500.00, -0.00, -0.00, -0.00
147, 104376.92, -187500.02, -187500.02, -187500.02, -187500.02, -187500.02, -187500.02, 187500.00, -0.00, -0.00, -0.00
148, 104345.41, -187500.02, -187500.02, -187500.02, -187500.02, -187500.02, -187500.02, 187500.00, -0.00, -0.00, -0.00
149, 104325.94, -187500.02, -187500.02, -187500.02, -187500.02, -187500.02, -187500.02, 187500.00, -0.00, -0.00, -0.00
150, 104368.98, -187500.02, -187500.02, -187500.02, -187500.02, -187500.02, -187500.02, 187500.00, -0.00, -0.00, -0.00
151, 104366.05, -187500.02, -187500.02, -187500.02, -187500.02, -187500.02, -187500.02, 187500.00, -0.00, -0.00, -0.00
152, 104337.65, -187500.02, -187500.02, -187500.02, -187500.02, -187500.02, -187500.02, 187500.00, -0.00, -0.00, -0.00
153, 104344.60, -187500.02, -187500.02, -187500.02, -187500.02, -187500.02, -187500.02, 187500.00, -0.00, -0.00, -0.00
154, 104348.45, -187500.02, -187500.02, -187500.02, -187500.02, -187500.02, -187500.02, 187500.00, -0.00, -0.00, -0.00
155, 104353.90, -187500.02, -187500.02, -187500.02, -187500.02, -187500.02, -187500.02, 187500.00, -0.00, -0.00, -0.00
156, 104336.02, -187500.02, -187500.02, -187500.02, -187500.02, -187500.02, -187500.02, 187500.00, -0.00, -0.00, -0.00
157, 104316.10, -187500.02, -187500.02, -187500.02, -187500.02, -187500.02, -187500.02, 187500.00, -0.00, -0.00, -0.00
158, 104350.08, -187500.02, -187500.02, -187500.02, -187500.02, -187500.02, -187500.02, 187500.00, -0.00, -0.00, -0.00
159, 104371.42, -187500.02, -187500.02, -187500.02, -187500.02, -187500.02, -187500.02, 187500.00, -0.00, -0.00, -0.00
160, 104338.50, -187500.02, -187500.02, -187500.02, -187500.02, -187500.02, -187500.02, 187500.00, -0.00, -0.00, -0.00
161, 104302.83, -187500.02, -187500.02, -187500.02, -187500.02, -187500.02, -187500.02, 187500.00, -0.00, -0.00, -0.00
162, 104347.46, -187500.02, -187500.02, -187500.02, -187500.02, -187500.02, -187500.02, 187500.00, -0.00, -0.00, -0.00
163, 104359.46, -187500.02, -187500.02, -187500.02, -187500.02, -187500.02, -187500.02, 187500.00, -0.00, -0.00, -0.00
164, 104323.77, -187500.02, -187500.02, -187500.02, -187500.02, -187500.02, -187500.02, 187500.00, -0.00, -0.00, -0.00
165, 104297.05, -187500.02, -187500.02, -187500.02, -187500.02, -187500.02, -187500.02, 187500.00, -0.00, -0.00, -0.00
166, 104306.06, -187500.02, -187500.02, -187500.02, -187500.02, -187500.02, -187500.02, 187500.00, -0.00, -0.00, -0.00
167, 104340.53, -187500.02, -187500.02, -187500.02, -187500.02, -187500.02, -187500.02, 187500.00, -0.00, -0.00, -0.00
168, 104344.16, -187500.02, -187500.02, -187500.02, -187500.02, -187500.02, -187500.02, 187500.00, -0.00, -0.00, -0.00
169, 104301.75, -187500.02, -187500.02, -187500.02, -187500.02, -187500.02, -187500.02, 187500.00, -0.00, -0.00, -0.00
170, 104306.22, -187500.02, -187500.02, -187500.02, -187500.02, -187500.02, -187500.02, 187500.00, -0.00, -0.00, -0.00
171, 104335.81, -187500.02, -187500.02, -187500.02, -187500.02, -187500.02, -187500.02, 187500.00, -0.00, -0.00, -0.00
172, 104321.38, -187500.02, -187500.02, -187500.02, -187500.02, -187500.02, -187500.02, 187500.00, -0.00, -0.00, -0.00
173, 104284.48, -187500.02, -187500.02, -187500.02, -187500.02, -187500.02, -187500.02, 187500.00, -0.00, -0.00, -0.00
174, 104293.82, -187500.02, -187500.02, -187500.02, -187500.02, -187500.02, -187500.02, 187500.00, -0.00, -0.00, -0.00
175, 104327.05, -187500.02, -187500.02, -187500.02, -187500.02, -187500.02, -187500.02, 187500.00, -0.00, -0.00, -0.00
176, 104319.97, -187500.02, -187500.02, -187500.02, -187500.02, -187500.02, -187500.02, 187500.00, -0.00, -0.00, -0.00
177, 104292.37, -187500.02, -187500.02, -187500.02, -187500.02, -187500.02, -187500.02, 187500.00, -0.00, -0.00, -0.00
178, 104281.95, -187500.02, -187500.02, -187500.02, -187500.02, -187500.02, -187500.02, 187500.00, -0.00, -0.00, -0.00
179, 104303.72, -187500.02, -187500.02, -187500.02, -187500.02, -187500.02, -187500.02, 187500.00, -0.00, -0.00, -0.00
180, 104313.82, -187500.02, -187500.02, -187500.02, -187500.02, -187500.02, -187500.02, 187500.00, -0.00, -0.00, -0.00
181, 104293.37, -187500.02, -187500.02, -187500.02, -187500.02, -187500.02, -187500.02, 187500.00, -0.00, -0.00, -0.00
182, 104289.03, -187500.02, -187500.02, -187500.02, -187500.02, -187500.02, -187500.02, 187500.00, -0.00, -0.00, -0.00
183, 104328.20, -187500.02, -187500.02, -187500.02, -187500.02, -187500.02, -187500.02, 187500.00, -0.00, -0.00, -0.00
184, 104325.00, -187500.02, -187500.02, -187500.02, -187500.02, -187500.02, -187500.02, 187500.00, -0.00, -0.00, -0.00
185, 104292.14, -187500.02, -187500.02, -187500.02, -187500.02, -187500.02, -187500.02, 187500.00, -0.00, -0.00, -0.00
186, 104257.16, -187500.02, -187500.02, -187500.02, -187500.02, -187500.02, -187500.02, 187500.00, -0.00, -0.00, -0.00
187, 104260.70, -187500.02, -187500.02, -187500.02, -187500.02, -187500.02, -187500.02, 187500.00, -0.00, -0.00, -0.00
188, 104264.73, -187500.02, -187500.02, -187500.02, -187500.02, -187500.02, -187500.02, 187500.00, -0.00, -0.00, -0.00
189, 104217.38, -187500.02, -187500.02, -187500.02, -187500.02, -187500.02, -187500.02, 187500.00, -0.00, -0.00, -0.00
190, 104197.50, -187500.02, -187500.02, -187500.02, -187500.02, -187500.02, -187500.02, 187500.00, -0.00, -0.00, -0.00
191, 104225.45, -187500.02, -187500.02, -187500.02, -187500.02, -187500.02, -187500.02, 187500.00, -0.00, -0.00, -0.00
192, 104240.77, -187500.02, -187500.02, -187500.02, -187500.02, -187500.02, -187500.02, 187500.00, -0.00, -0.00, -0.00
193, 104225.40, -187500.02, -187500.02, -187500.02, -187500.02, -187500.02, -187500.02, 187500.00, -0.00, -0.00, -0.00
194, 104202.27, -187500.02, -187500.02, -187500.02, -187500.02, -187500.02, -187500.02, 187500.00, -0.00, -0.00, -0.00
195, 104206.13, -187500.02, -187500.02, -187500.02, -187500.02, -187500.02, -187500.02, 187500.00, -0.00, -0.00, -0.00
196, 104239.19, -187500.02, -187500.02, -187500.02, -187500.02, -187500.02, -187500.02, 187500.00, -0.00, -0.00, -0.00
197, 104226.20, -187500.02, -187500.02, -187500.02, -187500.02, -187500.02, -187500.02, 187500.00, -0.00, -0.00, -0.00
198, 104196.19, -187500.02, -187500.02, -187500.02, -187500.02, -187500.02, -187500.02, 187500.00, -0.00, -0.00, -0.00
199, 104194.06, -187500.02, -187500.02, -187500.02, -187500.02, -187500.02, -187500.02, 187500.00, -0.00, -0.00, -0.00
200, 104228.80, -187500.02, -187500.02, -187500.02, -187500.02, -187500.02, -187500.02, 187500.00, -0.00, -0.00, -0.00
201, 104217.38, -187500.02, -187500.02, -187500.02, -187500.02, -187500.02, -187500.02, 187500.00, -0.00, -0.00, -0.00
202, 104185.12, -187500.02, -187500.02, -187500.02, -187500.02, -187500.02, -187500.02, 187500.00, -0.00, -0.00, -0.00
203, 104183.58, -187500.02, -187500.02, -187500.02, -187500.02, -187500.02, -187500.02, 187500.00, -0.00, -0.00, -0.00
204, 104209.62, -187500.02, -187500.02, -187500.02, -187500.02, -187500.02, -187500.02, 187500.00, -0.00, -0.00, -0.00
205, 104229.02, -187500.02, -187500.02, -187500.02, -187500.02, -187500.02, -187500.02, 187500.00, -0.00, -0.00, -0.00
206, 104211.52, -187500.02, -187500.02, -187500.02, -187500.02, -187500.02, -187500.02, 187500.00, -0.00, -0.00, -0.00
207, 104195.52, -187500.02, -187500.02, -187500.02, -187500.02, -187500.02, -187500.02, 187500.00, -0.00, -0.00, -0.00
208, 104205.33, -187500.02, -187500.02, -187500.02, -187500.02, -187500.02, -187500.02, 187500.00, -0.00, -0.00, -0.00
209, 104244.46, -187500.02, -187500.02, -187500.02, -187500.02, -187500.02, -187500.02, 187500.00, -0.00, -0.00, -0.00
210, 104223.37, -187500.02, -187500.02, -187500.02, -187500.02, -187500.02, -187500.02, 187500.00, -0.00, -0.00, -0.00
211, 104196.12, -187500.02, -187500.02, -187500.02, -187500.02, -187500.02, -187500.02, 187500.00, -0.00, -0.00, -0.00
212, 104212.77, -187500.02, -187500.02, -187500.02, -187500.02, -187500.02, -187500.02, 187500.00, -0.00, -0.00, -0.00
213, 104227.66, -187500.02, -187500.02, -187500.02, -187500.02, -187500.02, -187500.02, 187500.00, -0.00, -0.00, -0.00
214, 104206.87, -187500.02, -187500.02, -187500.02, -187500.02, -187500.02, -187500.02, 187500.00, -0.00, -0.00, -0.00
215, 104184.47, -187500.02, -187500.02, -187500.02, -187500.02, -187500.02, -187500.02, 187500.00, -0.00, -0.00, -0.00
216, 104221.24, -187500.02, -187500.02, -187500.02, -187500.02, -187500.02, -187500.02, 187500.00, -0.00, -0.00, -0.00
217, 104274.41, -187500.02, -187500.02, -187500.02, -187500.02, -187500.02, -187500.02, 187500.00, -0.00, -0.00, -0.00
218, 104236.77, -187500.02, -187500.02, -187500.02, -187500.02, -187500.02, -187500.02, 187500.00, -0.00, -0.00, -0.00
219, 104197.99, -187500.02, -187500.02, -187500.02, -187500.02, -187500.02, -187500.02, 187500.00, -0.00, -0.00, -0.00
220, 104199.63, -187500.02, -187500.02, -187500.02, -187500.02, -187500.02, -187500.02, 187500.00, -0.00, -0.00, -0.00
221, 104232.08, -187500.02, -187500.02, -187500.02, -187500.02, -187500.02, -187500.02, 187500.00, -0.00, -0.00, -0.00
222, 104231.68, -187500.02, -187500.02, -187500.02, -187500.02, -187500.02, -187500.02, 187500.00, -0.00, -0.00, -0.00
223, 104214.70, -187500.02, -187500.02, -187500.02, -187500.02, -187500.02, -187500.02, 187500.00, -0.00, -0.00, -0.00
224, 104197.41, -187500.02, -187500.02, -187500.02, -187500.02, -187500.02, -187500.02, 187500.00, -0.00, -0.00, -0.00
225, 104228.70, -187500.02, -187500.02, -187500.02, -187500.02, -187500.02, -187500.02, 187500.00, -0.00, -0.00, -0.00
226, 104209.17, -187500.02, -187500.02, -187500.02, -187500.02, -187500.02, -187500.02, 187500.00, -0.00, -0.00, -0.00
227, 104172.29, -187500.02, -187500.02, -187500.02, -187500.02, -187500.02, -187500.02, 187500.00, -0.00, -0.00, -0.00
228, 104170.03, -187500.02, -187500.02, -187500.02, -187500.02, -187500.02, -187500.02, 187500.00, -0.00, -0.00, -0.00
229, 104204.14, -187500.02, -187500.02, -187500.02, -187500.02, -187500.02, -187500.02, 187500.00, -0.00, -0.00, -0.00
230, 104219.56, -187500.02, -187500.02, -187500.02, -187500.02, -187500.02, -187500.02, 187500.00, -0.00, -0.00, -0.00
231, 104201.82, -187500.02, -187500.02, -187500.02, -187500.02, -187500.02, -187500.02, 187500.00, -0.00, -0.00, -0.00
232, 104174.28, -187500.02, -187500.02, -187500.02, -187500.02, -187500.02, -187500.02, 187500.00, -0.00, -0.00, -0.00
233, 104209.26, -187500.02, -187500.02, -187500.02, -187500.02, -187500.02, -187500.02, 187500.00, -0.00, -0.00, -0.00
234, 104222.13, -187500.02, -187500.02, -187500.02, -187500.02, -187500.02, -187500.02, 187500.00, -0.00, -0.00, -0.00
235, 104191.94, -187500.02, -187500.02, -187500.02, -187500.02, -187500.02, -187500.02, 187500.00, -0.00, -0.00, -0.00
236, 104182.55, -187500.02, -187500.02, -187500.02, -187500.02, -187500.02, -187500.02, 187500.00, -0.00, -0.00, -0.00
237, 104208.52, -187500.02, -187500.02, -187500.02, -187500.02, -187500.02, -187500.02, 187500.00, -0.00, -0.00, -0.00
238, 104233.18, -187500.02, -187500.02, -187500.02, -187500.02, -187500.02, -187500.02, 187500.00, -0.00, -0.00, -0.00
239, 104207.36, -187500.02, -187500.02, -187500.02, -187500.02, -187500.02, -187500.02, 187500.00, -0.00, -0.00, -0.00
240, 104188.67, -187500.02, -187500.02, -187500.02, -187500.02, -187500.02, -187500.02, 187500.00, -0.00, -0.00, -0.00
241, 104201.77, -187500.02, -187500.02, -187500.02, -187500.02, -187500.02, -187500.02, 187500.00, -0.00, -0.00, -0.00
242, 104207.23, -187500.02, -187500.02, -187500.02, -187500.02, -187500.02, -187500.02, 187500.00, -0.00, -0.00, -0.00
243, 104204.12, -187500.02, -187500.02, -187500.02, -187500.02, -187500.02, -187500.02, 187500.00, -0.00, -0.00, -0.00
244, 104175.98, -187500.02, -187500.02, -187500.02, -187500.02, -187500.02, -187500.02, 187500.00, -0.00, -0.00, -0.00
245, 104187.87, -187500.02, -187500.02, -187500.02, -187500.02, -187500.02, -187500.02, 187500.00, -0.00, -0.00, -0.00
246, 104226.43, -187500.02, -187500.02, -187500.02, -187500.02, -187500.02, -187500.02, 187500.00, -0.00, -0.00, -0.00
247, 104232.44, -187500.02, -187500.02, -187500.02, -187500.02, -187500.02, -187500.02, 187500.00, -0.00, -0.00, -0.00
248, 104203.02, -187500.02, -187500.02, -187500.02, -187500.02, -187500.02, -187500.02, 187500.00, -0.00, -0.00, -0.00
249, 104191.91, -187500.02, -187500.02, -187500.02, -187500.02, -187500.02, -187500.02, 187500.00, -0.00, -0.00, -0.00
250, 104222.18, -187500.02, -187500.02, -187500.02, -187500.02, -187500.02, -187500.02, 187500.00, -0.00, -0.00, -0.00
251, 104223.56, -187500.02, -187500.02, -187500.02, -187500.02, -187500.02, -187500.02, 187500.00, -0.00, -0.00, -0.00
252, 104186.38, -187500.02, -187500.02, -187500.02, -187500.02, -187500.02, -187500.02, 187500.00, -0.00, -0.00, -0.00
253, 104188.23, -187500.02, -187500.02, -187500.02, -187500.02, -187500.02, -187500.02, 187500.00, -0.00, -0.00, -0.00
254, 104221.45, -187500.02, -187500.02, -187500.02, -187500.02, -187500.02, -187500.02, 187500.00, -0.00, -0.00, -0.00
255, 104222.20, -187500.02, -187500.02, -187500.02, -187500.02, -187500.02, -187500.02, 187500.00, -0.00, -0.00, -0.00
0, 104197.46, -187500.02, -187500.02, -187500.02, -187500.02, -187500.02, -187500.02, 187500.00, -0.00, -0.00, -0.00
1, 104193.86, -187500.02, -187500.02, -187500.02, -187500.02, -187500.02, -187500.02, 187500.00, -0.00, -0.00, -0.00
2, 104204.59, -187500.02, -187500.02, -187500.02, -187500.02, -187500.02, -187500.02, 187500.00, -0.00, -0.00, -0.00
3, 104231.97, -187500.02, -187500.02, -187500.02, -187500.02, -187500.02, -187500.02, 187500.00, -0.00, -0.00, -0.00
4, 104212.19, -187500.02, -187500.02, -187500.02, -187500.02, -187500.02, -187500.02, 187500.00, -0.00, -0.00, -0.00
5, 104207.72, -187500.02, -187500.02, -187500.02, -187500.02, -187500.02, -187500.02, 187500.00, -0.00, -0.00, -0.00
6, 104220.86, -187500.02, -187500.02, -187500.02, -187500.02, -187500.02, -187500.02, 187500.00, -0.00, -0.00, -0.00
7, 104236.20, -187500.02, -187500.02, -187500.02, -187500.02, -187500.02, -187500.02, 187500.00, -0.00, -0.00, -0.00
8, 104221.69, -187500.02, -187500.02, -187500.02, -187500.02, -187500.02, -187500.02, 187500.00, -0.00, -0.00, -0.00
9, 104213.71, -187500.02, -187500.02, -187500.02, -187500.02, -187500.02, -187500.02, 187500.00, -0.00, -0.00, -0.00
10, 104214.73, -187500.02, -187500.02, -187500.02, -187500.02, -187500.02, -187500.02, 187500.00, -0.00, -0.00, -0.00
11, 104237.49, -187500.02, -187500.02, -187500.02, -187500.02, -187500.02, -187500.02, 187500.00, -0.00, -0.00, -0.00
12, 104233.84, -187500.02, -187500.02, -187500.02, -187500.02, -187500.02, -187500.02, 187500.00, -0.00, -0.00, -0.00
13, 104193.05, -187500.02, -187500.02, -187500.02, -187500.02, -187500.02, -187500.02, 187500.00, -0.00, -0.00, -0.00
14, 104217.66, -187500.02, -187500.02, -187500.02, -187500.02, -187500.02, -187500.02, 187500.00, -0.00, -0.00, -0.00
15, 104269.05, -187500.02, -187500.02, -187500.02, -187500.02, -187500.02, -187500.02, 187500.00, -0.00, -0.00, -0.00
16, 104248.06, -187500.02, -187500.02, -187500.02, -187500.02, -187500.02, -187500.02, 187500.00, -0.00, -0.00, -0.00
17, 104228.80, -187500.02, -187500.02, -187500.02, -187500.02, -187500.02, -187500.02, 187500.00, -0.00, -0.00, -0.00
18, 104215.14, -187500.02, -187500.02, -187500.02, -187500.02, -187500.02, -187500.02, 187500.00, -0.00, -0.00, -0.00
19, 104250.77, -187500.02, -187500.02, -187500.02, -187500.02, -187500.02, -187500.02, 187500.00, -0.00, -0.00, -0.00
20, 104245.96, -187500.02, -187500.02, -187500.02, -187500.02, -187500.02, -187500.02, 187500.00, -0.00, -0.00, -0.00
21, 104210.40, -187500.02, -187500.02, -187500.02, -187500.02, -187500.02, -187500.02, 187500.00, -0.00, -0.00, -0.00
22, 104201.44, -187500.02, -187500.02, -187500.02, -187500.02, -187500.02, -187500.02, 187500.00, -0.00, -0.00, -0.00
23, 104237.87, -187500.02, -187500.02, -187500.02, -187500.02, -187500.02, -187500.02, 187500.00, -0.00, -0.00, -0.00
24, 104254.03, -187500.02, -187500.02, -187500.02, -187500.02, -187500.02, -187500.02, 187500.00, -0.00, -0.00, -0.00
25, 104208.45, -187500.02, -187500.02, -187500.02, -187500.02, -187500.02, -187500.02, 187500.00, -0.00, -0.00, -0.00
26, 104245.16, -187500.02, -187500.02, -187500.02, -187500.02, -187500.02, -187500.02, 187500.00, -0.00, -0.00, -0.00
27, 104279.52, -187500.02, -187500.02, -187500.02, -187500.02, -187500.02, -187500.02, 187500.00, -0.00, -0.00, -0.00
28, 104313.30, -187500.02, -187500.02, -187500.02, -187500.02, -187500.02, -187500.02, 187500.00, -0.00, -0.00, -0.00
29, 104313.94, -187500.02, -187500.02, -187500.02, -187500.02, -187500.02, -187500.02, 187500.00, -0.00, -0.00, -0.00
30, 104311.01, -187500.02, -187500.02, -187500.02, -187500.02, -187500.02, -187500.02, 187500.00, -0.00, -0.00, -0.00
31, 104321.35, -187500.02, -187500.02, -187500.02, -187500.02, -187500.02, -187500.02, 187500.00, -0.00, -0.00, -0.00
32, 104352.11, -187500.02, -187500.02, -187500.02, -187500.02, -187500.02, -187500.02, 187500.00, -0.00, -0.00, -0.00
33, 104351.41, -187500.02, -187500.02, -187500.02, -187500.02, -187500.02, -187500.02, 187500.00, -0.00, -0.00, -0.00
34, 104308.70, -187500.02, -187500.02, -187500.02, -187500.02, -187500.02, -187500.02, 187500.00, -0.00, -0.00, -0.00
35, 104312.55, -187500.02, -187500.02, -187500.02, -187500.02, -187500.02, -187500.02, 187500.00, -0.00, -0.00, -0.00
36, 104344.53, -187500.02, -187500.02, -187500.02, -187500.02, -187500.02, -187500.02, 187500.00, -0.00, -0.00, -0.00
37, 104351.95, -187500.02, -187500.02, -187500.02, -187500.02, -187500.02, -187500.02, 187500.00, -0.00, -0.00, -0.00
38, 104336.53, -187500.02, -187500.02, -187500.02, -187500.02, -187500.02, -187500.02, 187500.00, -0.00, -0.00, -0.00
39, 104329.76, -187500.02, -187500.02, -187500.02, -187500.02, -187500.02, -187500.02, 187500.00, -0.00, -0.00, -0.00
40, 104406.20, -187500.02, -187500.02, -187500.02, -187500.02, -187500.02, -187500.02, 187500.00, -0.00, -0.00, -0.00
41, 104438.79, -187500.02, -187500.02, -187500.02, -187500.02, -187500.02, -187500.02, 187500.00, -0.00, -0.00, -0.00
42, 104388.70, -187500.02, -187500.02, -187500.02, -187500.02, -187500.02, -187500.02, 187500.00, -0.00, -0.00, -0.00
43, 104374.09, -187500.02, -187500.02, -187500.02, -187500.02, -187500.02, -187500.02, 187500.00, -0.00, -0.00, -0.00
44, 104395.45, -187500.02, -187500.02, -187500.02, -187500.02, -187500.02, -187500.02, 187500.00, -0.00, -0.00, -0.00
45, 104409.66, -187500.02, -187500.02, -187500.02, -187500.02, -187500.02, -187500.02, 187500.00, -0.00, -0.00, -0.00
46, 104406.83, -187500.02, -187500.02, -187500.02, -187500.02, -187500.02, -187500.02, 187500.00, -0.00, -0.00, -0.00
47, 104378.73, -187500.02, -187500.02, -187500.02, -187500.02, -187500.02, -187500.02, 187500.00, -0.00, -0.00, -0.00
48, 104412.51, -187500.02, -187500.02, -187500.02, -187500.02, -187500.02, -187500.02, 187500.00, -0.00, -0.00, -0.00
49, 104415.90, -187500.02, -187500.02, -187500.02, -187500.02, -187500.02, -187500.02, 187500.00, -0.00, -0.00, -0.00
50, 104400.46, -187500.02, -187500.02, -187500.02, -187500.02, -187500.02, -187500.02, 187500.00, -0.00, -0.00, -0.00
51, 104377.13, -187500.02, -187500.02, -187500.02, -187500.02, -187500.02, -187500.02, 187500.00, -0.00, -0.00, -0.00
52, 104383.60, -187500.02, -187500.02, -187500.02, -187500.02, -187500.02, -187500.02, 187500.00, -0.00, -0.00, -0.00
53, 104435.21, -187500.02, -187500.02, -187500.02, -187500.02, -187500.02, -187500.02, 187500.00, -0.00, -0.00, -0.00
54, 104398.27, -187500.02, -187500.02, -187500.02, -187500.02, -187500.02, -187500.02, 187500.00, -0.00, -0.00, -0.00
55, 104370.28, -187500.02, -187500.02, -187500.02, -187500.02, -187500.02, -187500.02, 187500.00, -0.00, -0.00, -0.00
56, 104411.88, -187500.02, -187500.02, -187500.02, -187500.02, -187500.02, -187500.02, 187500.00, -0.00, -0.00, -0.00
57, 104415.90, -187500.02, -187500.02, -187500.02, -187500.02, -187500.02, -187500.02, 187500.00, -0.00, -0.00, -0.00
58, 104401.20, -187500.02, -187500.02, -187500.02, -187500.02, -187500.02, -187500.02, 187500.00, -0.00, -0.00, -0.00
59, 104390.33, -187500.02, -187500.02, -187500.02, -187500.02, -187500.02, -187500.02, 187500.00, -0.00, -0.00, -0.00
60, 104398.87, -187500.02, -187500.02, -187500.02, -187500.02, -187500.02, -187500.02, 187500.00, -0.00, -0.00, -0.00
61, 104426.36, -187500.02, -187500.02, -187500.02, -187500.02, -187500.02, -187500.02, 187500.00, -0.00, -0.00, -0.00
62, 104406.89, -187500.02, -187500.02, -187500.02, -187500.02, -187500.02, -187500.02, 187500.00, -0.00, -0.00, -0.00
63, 104375.36, -187500.02, -187500.02, -187500.02, -187500.02, -187500.02, -187500.02, 187500.00, -0.00, -0.00, -0.00
64, 104391.05, -187500.02, -187500.02, -187500.02, -187500.02, -187500.02, -187500.02, 187500.00, -0.00, -0.00, -0.00
65, 104422.49, -187500.02, -187500.02, -187500.02, -187500.02, -187500.02, -187500.02, 187500.00, -0.00, -0.00, -0.00
66, 104425.47, -187500.02, -187500.02, -187500.02, -187500.02, -187500.02, -187500.02, 187500.00, -0.00, -0.00, -0.00
67, 104375.67, -187500.02, -187500.02, -187500.02, -187500.02, -187500.02, -187500.02, 187500.00, -0.00, -0.00, -0.00
68, 104372.90, -187500.02, -187500.02, -187500.02, -187500.02, -187500.02, -187500.02, 187500.00, -0.00, -0.00, -0.00
69, 104414.38, -187500.02, -187500.02, -187500.02, -187500.02, -187500.02, -187500.02, 187500.00, -0.00, -0.00, -0.00
70, 104434.63, -187500.02, -187500.02, -187500.02, -187500.02, -187500.02, -187500.02, 187500.00, -0.00, -0.00, -0.00
71, 104393.53, -187500.02, -187500.02, -187500.02, -187500.02, -187500.02, -187500.02, 187500.00, -0.00, -0.00, -0.00
72, 104376.88, -187500.02, -187500.02, -187500.02, -187500.02, -187500.02, -187500.02, 187500.00, -0.00, -0.00, -0.00
73, 104406.70, -187500.02, -187500.02, -187500.02, -187500.02, -187500.02, -187500.02, 187500.00, -0.00, -0.00, -0.00
74, 104431.02, -187500.02, -187500.02, -187500.02, -187500.02, -187500.02, -187500.02, 187500.00, -0.00, -0.00, -0.00
75, 104404.28, -187500.02, -187500.02, -187500.02, -187500.02, -187500.02, -187500.02, 187500.00, -0.00, -0.00, -0.00
76, 104394.63, -187500.02, -187500.02, -187500.02, -187500.02, -187500.02, -187500.02, 187500.00, -0.00, -0.00, -0.00
77, 104431.99, -187500.02, -187500.02, -187500.02, -187500.02, -187500.02, -187500.02, 187500.00, -0.00, -0.00, -0.00
78, 104451.35, -187500.02, -187500.02, -187500.02, -187500.02, -187500.02, -187500.02, 187500.00, -0.00, -0.00, -0.00
79, 104428.09, -187500.02, -187500.02, -187500.02, -187500.02, -187500.02, -187500.02, 187500.00, -0.00, -0.00, -0.00
80, 104405.33, -187500.02, -187500.02, -187500.02, -187500.02, -187500.02, -187500.02, 187500.00, -0.00, -0.00, -0.00
81, 104416.48, -187500.02, -187500.02, -187500.02, -187500.02, -187500.02, -187500.02, 187500.00, -0.00, -0.00, -0.00
82, 104464.18, -187500.02, -187500.02, -187500.02, -187500.02, -187500.02, -187500.02, 187500.00, -0.00, -0.00, -0.00
83, 104434.19, -187500.02, -187500.02, -187500.02, -187500.02, -187500.02, -187500.02, 187500.00, -0.00, -0.00, -0.00
84, 104409.55, -187500.02, -187500.02, -187500.02, -187500.02, -187500.02, -187500.02, 187500.00, -0.00, -0.00, -0.00
85, 104407.37, -187500.02, -187500.02, -187500.02, -187500.02, -187500.02, -187500.02, 187500.00, -0.00, -0.00, -0.00
86, 104457.39, -187500.02, -187500.02, -187500.02, -187500.02, -187500.02, -187500.02, 187500.00, -0.00, -0.00, -0.00
87, 104459.11, -187500.02, -187500.02, -187500.02, -187500.02, -187500.02, -187500.02, 187500.00, -0.00, -0.00, -0.00
88, 104425.36, -187500.02, -187500.02, -187500.02, -187500.02, -187500.02, -187500.02, 187500.00, -0.00, -0.00, -0.00
89, 104427.23, -187500.02, -187500.02, -187500.02, -187500.02, -187500.02, -187500.02, 187500.00, -0.00, -0.00, -0.00
90, 104456.36, -187500.02, -187500.02, -187500.02, -187500.02, -187500.02, -187500.02, 187500.00, -0.00, -0.00, -0.00
91, 104462.88, -187500.02, -187500.02, -187500.02, -187500.02, -187500.02, -187500.02, 187500.00, -0.00, -0.00, -0.00
92, 104422.07, -187500.02, -187500.02, -187500.02, -187500.02, -187500.02, -187500.02, 187500.00, -0.00, -0.00, -0.00
93, 104436.02, -187500.02, -187500.02, -187500.02, -187500.02, -187500.02, -187500.02, 187500.00, -0.00, -0.00, -0.00
94, 104457.74, -187500.02, -187500.02, -187500.02, -187500.02, -187500.02, -187500.02, 187500.00, -0.00, -0.00, -0.00
95, 104521.24, -187500.02, -187500.02, -187500.02, -187500.02, -187500.02, -187500.02, 187500.00, -0.00, -0.00, -0.00
96, 104478.87, -187500.02, -187500.02, -187500.02, -187500.02, -187500.02, -187500.02, 187500.00, -0.00, -0.00, -0.00
97, 104439.38, -187500.02, -187500.02, -187500.02, -187500.02, -187500.02, -187500.02, 187500.00, -0.00, -0.00, -0.00
98, 104444.02, -187500.02, -187500.02, -187500.02, -187500.02, -187500.02, -187500.02, 187500.00, -0.00, -0.00, -0.00
99, 104471.52, -187500.02, -187500.02, -187500.02, -187500.02, -187500.02, -187500.02, 187500.00, -0.00, -0.00, -0.00
100, 104466.62, -187500.02, -187500.02, -187500.02, -187500.02, -187500.02, -187500.02, 187500.00, -0.00, -0.00, -0.00
101, 104432.09, -187500.02, -187500.02, -187500.02, -187500.02, -187500.02, -187500.02, 187500.00, -0.00, -0.00, -0.00
102, 104457.88, -187500.02, -187500.02, -187500.02, -187500.02, -187500.02, -187500.02, 187500.00, -0.00, -0.00, -0.00
103, 104467.02, -187500.02, -187500.02, -187500.02, -187500.02, -187500.02, -187500.02, 187500.00, -0.00, -0.00, -0.00
104, 104453.14, -187500.02, -187500.02, -187500.02, -187500.02, -187500.02, -187500.02, 187500.00, -0.00, -0.00, -0.00
105, 104435.39, -187500.02, -187500.02, -187500.02, -187500.02, -187500.02, -187500.02, 187500.00, -0.00, -0.00, -0.00
106, 104440.34, -187500.02, -187500.02, -187500.02, -187500.02, -187500.02, -187500.02, 187500.00, -0.00, -0.00, -0.00
107, 104479.60, -187500.02, -187500.02, -187500.02, -187500.02, -187500.02, -187500.02, 187500.00, -0.00, -0.00, -0.00
108, 104467.65, -187500.02, -187500.02, -187500.02, -187500.02, -187500.02, -187500.02, 187500.00, -0.00, -0.00, -0.00
109, 104433.07, -187500.02, -187500.02, -187500.02, -187500.02, -187500.02, -187500.02, 187500.00, -0.00, -0.00, -0.00
110, 104447.93, -187500.02, -187500.02, -187500.02, -187500.02, -187500.02, -187500.02, 187500.00, -0.00, -0.00, -0.00
111, 104476.12, -187500.02, -187500.02, -187500.02, -187500.02, -187500.02, -187500.02, 187500.00, -0.00, -0.00, -0.00
112, 104481.23, -187500.02, -187500.02, -187500.02, -187500.02, -187500.02, -187500.02, 187500.00, -0.00, -0.00, -0.00
113, 104438.55, -187500.02, -187500.02, -187500.02, -187500.02, -187500.02, -187500.02, 187500.00, -0.00, -0.00, -0.00
114, 104436.04, -187500.02, -187500.02, -187500.02, -187500.02, -187500.02, -187500.02, 187500.00, -0.00, -0.00, -0.00
115, 104468.95, -187500.02, -187500.02, -187500.02, -187500.02, -187500.02, -187500.02, 187500.00, -0.00, -0.00, -0.00
116, 104472.77, -187500.02, -187500.02, -187500.02, -187500.02, -187500.02, -187500.02, 187500.00, -0.00, -0.00, -0.00
117, 104446.62, -187500.02, -187500.02, -187500.02, -187500.02, -187500.02, -187500.02, 187500.00, -0.00, -0.00, -0.00
118, 104444.42, -187500.02, -187500.02, -187500.02, -187500.02, -187500.02, -187500.02, 187500.00, -0.00, -0.00, -0.00
119, 104479.88, -187500.02, -187500.02, -187500.02, -187500.02, -187500.02, -187500.02, 187500.00, -0.00, -0.00, -0.00
120, 104483.43, -187500.02, -187500.02, -187500.02, -187500.02, -187500.02, -187500.02, 187500.00, -0.00, -0.00, -0.00
121, 104451.93, -187500.02, -187500.02, -187500.02, -187500.02, -187500.02, -187500.02, 187500.00, -0.00, -0.00, -0.00
122, 104414.25, -187500.02, -187500.02, -187500.02, -187500.02, -187500.02, -187500.02, 187500.00, -0.00, -0.00, -0.00
123, 104460.36, -187500.02, -187500.02, -187500.02, -187500.02, -187500.02, -187500.02, 187500.00, -0.00, -0.00, -0.00
124, 104487.98, -187500.02, -187500.02, -187500.02, -187500.02, -187500.02, -187500.02, 187500.00, -0.00, -0.00, -0.00
125, 104447.89, -187500.02, -187500.02, -187500.02, -187500.02, -187500.02, -187500.02, 187500.00, -0.00, -0.00, -0.00
126, 104430.05, -187500.02, -187500.02, -187500.02, -187500.02, -187500.02, -187500.02, 187500.00, -0.00, -0.00, -0.00
127, 104442.61, -187500.02, -187500.02, -187500.02, -187500.02, -187500.02, -187500.02, 187500.00, -0.00, -0.00, -0.00
128, 104462.84, -187500.02, -187500.02, -187500.02, -187500.02, -187500.02, -187500.02, 187500.00, -0.00, -0.00, -0.00
129, 104477.48, -187500.02, -187500.02, -187500.02, -187500.02, -187500.02, -187500.02, 187500.00, -0.00, -0.00, -0.00
130, 104484.86, -187500.02, -187500.02, -187500.02, -187500.02, -187500.02, -187500.02, 187500.00, -0.00, -0.00, -0.00
131, 104477.77, -187500.02, -187500.02, -187500.02, -187500.02, -187500.02, -187500.02, 187500.00, -0.00, -0.00, -0.00
132, 104479.09, -187500.02, -187500.02, -187500.02, -187500.02, -187500.02, -187500.02, 187500.00, -0.00, -0.00, -0.00
133, 104498.11, -187500.02, -187500.02, -187500.02, -187500.02, -187500.02, -187500.02, 187500.00, -0.00, -0.00, -0.00
134, 104446.79, -187500.02, -187500.02, -187500.02, -187500.02, -187500.02, -187500.02, 187500.00, -0.00, -0.00, -0.00
135, 104437.13, -187500.02, -187500.02, -187500.02, -187500.02, -187500.02, -187500.02, 187500.00, -0.00, -0.00, -0.00
136, 104474.91, -187500.02, -187500.02, -187500.02, -187500.02, -187500.02, -187500.02, 187500.00, -0.00, -0.00, -0.00
137, 104479.74, -187500.02, -187500.02, -187500.02, -187500.02, -187500.02, -187500.02, 187500.00, -0.00, -0.00, -0.00
138, 104440.45, -187500.02, -187500.02, -187500.02, -187500.02, -187500.02, -187500.02, 187500.00, -0.00, -0.00, -0.00
139, 104428.93, -187500.02, -187500.02, -187500.02, -187500.02, -187500.02, -187500.02, 187500.00, -0.00, -0.00, -0.00
140, 104445.95, -187500.02, -187500.02, -187500.02, -187500.02, -187500.02, -187500.02, 187500.00, -0.00, -0.00, -0.00
141, 104476.48, -187500.02, -187500.02, -187500.02, -187500.02, -187500.02, -187500.02, 187500.00, -0.00, -0.00, -0.00
142, 104438.97, -187500.02, -187500.02, -187500.02, -187500.02, -187500.02, -187500.02, 187500.00, -0.00, -0.00, -0.00
143, 104431.77, -187500.02, -187500.02, -187500.02, -187500.02, -187500.02, -187500.02, 187500.00, -0.00, -0.00, -0.00
144, 104466.91, -187500.02, -187500.02, -187500.02, -187500.02, -187500.02, -187500.02, 187500.00, -0.00, -0.00, -0.00
145, 104449.01, -187500.02, -187500.02, -187500.02, -187500.02, -187500.02, -187500.02, 187500.00, -0.00, -0.00, -0.00
146, 104453.30, -187500.02, -187500.02, -187500.02, -187500.02, -187500.02, -187500.02, 187500.00, -0.00, -0.00, -0.00
147, 104450.66, -187500.02, -187500.02, -187500.02, -187500.02, -187500.02, -187500.02, 187500.00, -0.00, -0.00, -0.00
148, 104477.77, -187500.02, -187500.02, -187500.02, -187500.02, -187500.02, -187500.02, 187500.00, -0.00, -0.00, -0.00
149, 104484.43, -187500.02, -187500.02, -187500.02, -187500.02, -187500.02, -187500.02, 187500.00, -0.00, -0.00, -0.00
150, 104472.07, -187500.02, -187500.02, -187500.02, -187500.02, -187500.02, -187500.02, 187500.00, -0.00, -0.00, -0.00
151, 104440.04, -187500.02, -187500.02, -187500.02, -187500.02, -187500.02, -187500.02, 187500.00, -0.00, -0.00, -0.00
152, 104438.43, -187500.02, -187500.02, -187500.02, -187500.02, -187500.02, -187500.02, 187500.00, -0.00, -0.00, -0.00
153, 104467.67, -187500.02, -187500.02, -187500.02, -187500.02, -187500.02, -187500.02, 187500.00, -0.00, -0.00, -0.00
154, 104469.66, -187500.02, -187500.02, -187500.02, -187500.02, -187500.02, -187500.02, 187500.00, -0.00, -0.00, -0.00
155, 104438.95, -187500.02, -187500.02, -187500.02, -187500.02, -187500.02, -187500.02, 187500.00, -0.00, -0.00, -0.00
156, 104439.22, -187500.02, -187500.02, -187500.02, -187500.02, -187500.02, -187500.02, 187500.00, -0.00, -0.00, -0.00
157, 104468.30, -187500.02, -187500.02, -187500.02, -187500.02, -187500.02, -187500.02, 187500.00, -0.00, -0.00, -0.00
158, 104479.16, -187500.02, -187500.02, -187500.02, -187500.02, -187500.02, -187500.02, 187500.00, -0.00, -0.00, -0.00
159, 104436.35, -187500.02, -187500.02, -187500.02, -187500.02, -187500.02, -187500.02, 187500.00, -0.00, -0.00, -0.00
160, 104438.45, -187500.02, -187500.02, -187500.02, -187500.02, -187500.02, -187500.02, 187500.00, -0.00, -0.00, -0.00
161, 104459.76, -187500.02, -187500.02, -187500.02, -187500.02, -187500.02, -187500.02, 187500.00, -0.00, -0.00, -0.00
162, 104474.62, -187500.02, -187500.02, -187500.02, -187500.02, -187500.02, -187500.02, 187500.00, -0.00, -0.00, -0.00
163, 104452.00, -187500.02, -187500.02, -187500.02, -187500.02, -187500.02, -187500.02, 187500.00, -0.00, -0.00, -0.00
164, 104447.82, -187500.02, -187500.02, -187500.02, -187500.02, -187500.02, -187500.02, 187500.00, -0.00, -0.00, -0.00
165, 104474.71, -187500.02, -187500.02, -187500.02, -187500.02, -187500.02, -187500.02, 187500.00, -0.00, -0.00, -0.00
166, 104486.78, -187500.02, -187500.02, -187500.02, -187500.02, -187500.02, -187500.02, 187500.00, -0.00, -0.00, -0.00
167, 104442.57, -187500.02, -187500.02, -187500.02, -187500.02, -187500.02, -187500.02, 187500.00, -0.00, -0.00, -0.00
168, 104430.12, -187500.02, -187500.02, -187500.02, -187500.02, -187500.02, -187500.02, 187500.00, -0.00, -0.00, -0.00
169, 104456.11, -187500.02, -187500.02, -187500.02, -187500.02, -187500.02, -187500.02, 187500.00, -0.00, -0.00, -0.00
170, 104492.03, -187500.02, -187500.02, -187500.02, -187500.02, -187500.02, -187500.02, 187500.00, -0.00, -0.00, -0.00
171, 104472.61, -187500.02, -187500.02, -187500.02, -187500.02, -187500.02, -187500.02, 187500.00, -0.00, -0.00, -0.00
172, 104439.88, -187500.02, -187500.02, -187500.02, -187500.02, -187500.02, -187500.02, 187500.00, -0.00, -0.00, -0.00
173, 104453.25, -187500.02, -187500.02, -187500.02, -187500.02, -187500.02, -187500.02, 187500.00, -0.00, -0.00, -0.00
174, 104473.01, -187500.02, -187500.02, -187500.02, -187500.02, -187500.02, -187500.02, 187500.00, -0.00, -0.00, -0.00
175, 104464.47, -187500.02, -187500.02, -187500.02, -187500.02, -187500.02, -187500.02, 187500.00, -0.00, -0.00, -0.00
176, 104454.19, -187500.02, -187500.02, -187500.02, -187500.02, -187500.02, -187500.02, 187500.00, -0.00, -0.00, -0.00
177, 104461.48, -187500.02, -187500.02, -187500.02, -187500.02, -187500.02, -187500.02, 187500.00, -0.00, -0.00, -0.00
178, 104495.79, -187500.02, -187500.02, -187500.02, -187500.02, -187500.02, -187500.02, 187500.00, -0.00, -0.00, -0.00
179, 104484.90, -187500.02, -187500.02, -187500.02, -187500.02, -187500.02, -187500.02, 187500.00, -0.00, -0.00, -0.00
180, 104461.21, -187500.02, -187500.02, -187500.02, -187500.02, -187500.02, -187500.02, 187500.00, -0.00, -0.00, -0.00
181, 104474.04, -187500.02, -187500.02, -187500.02, -187500.02, -187500.02, -187500.02, 187500.00, -0.00, -0.00, -0.00
182, 104512.20, -187500.02, -187500.02, -187500.02, -187500.02, -187500.02, -187500.02, 187500.00, -0.00, -0.00, -0.00
183, 104503.43, -187500.02, -187500.02, -187500.02, -187500.02, -187500.02, -187500.02, 187500.00, -0.00, -0.00, -0.00
184, 104458.21, -187500.02, -187500.02, -187500.02, -187500.02, -187500.02, -187500.02, 187500.00, -0.00, -0.00, -0.00
185, 104458.93, -187500.02, -187500.02, -187500.02, -187500.02, -187500.02, -187500.02, 187500.00, -0.00, -0.00, -0.00
186, 104520.95, -187500.02, -187500.02, -187500.02, -187500.02, -187500.02, -187500.02, 187500.00, -0.00, -0.00, -0.00
187, 104545.52, -187500.02, -187500.02, -187500.02, -187500.02, -187500.02, -187500.02, 187500.00, -0.00, -0.00, -0.00
188, 104487.12, -187500.02, -187500.02, -187500.02, -187500.02, -187500.02, -187500.02, 187500.00, -0.00, -0.00, -0.00
189, 104471.13, -187500.02, -187500.02, -187500.02, -187500.02, -187500.02, -187500.02, 187500.00, -0.00, -0.00, -0.00
190, 104482.94, -187500.02, -187500.02, -187500.02, -187500.02, -187500.02, -187500.02, 187500.00, -0.00, -0.00, -0.00
191, 104520.91, -187500.02, -187500.02, -187500.02, -187500.02, -187500.02, -187500.02, 187500.00, -0.00, -0.00, -0.00
192, 104494.52, -187500.02, -187500.02, -187500.02, -187500.02, -187500.02, -187500.02, 187500.00, -0.00, -0.00, -0.00
193, 104449.05, -187500.02, -187500.02, -187500.02, -187500.02, -187500.02, -187500.02, 187500.00, -0.00, -0.00, -0.00
194, 104480.05, -187500.02, -187500.02, -187500.02, -187500.02, -187500.02, -187500.02, 187500.00, -0.00, -0.00, -0.00
195, 104512.82, -187500.02, -187500.02, -187500.02, -187500.02, -187500.02, -187500.02, 187500.00, -0.00, -0.00, -0.00
196, 104475.70, -187500.02, -187500.02, -187500.02, -187500.02, -187500.02, -187500.02, 187500.00, -0.00, -0.00, -0.00
197, 104468.12, -187500.02, -187500.02, -187500.02, -187500.02, -187500.02, -187500.02, 187500.00, -0.00, -0.00, -0.00
198, 104480.25, -187500.02, -187500.02, -187500.02, -187500.02, -187500.02, -187500.02, 187500.00, -0.00, -0.00, -0.00
199, 104498.24, -187500.02, -187500.02, -187500.02, -187500.02, -187500.02, -187500.02, 187500.00, -0.00, -0.00, -0.00
200, 104473.99, -187500.02, -187500.02, -187500.02, -187500.02, -187500.02, -187500.02, 187500.00, -0.00, -0.00, -0.00
201, 104446.44, -187500.02, -187500.02, -187500.02, -187500.02, -187500.02, -187500.02, 187500.00, -0.00, -0.00, -0.00
202, 104465.27, -187500.02, -187500.02, -187500.02, -187500.02, -187500.02, -187500.02, 187500.00, -0.00, -0.00, -0.00
203, 104492.77, -187500.02, -187500.02, -187500.02, -187500.02, -187500.02, -187500.02, 187500.00, -0.00, -0.00, -0.00
204, 104473.46, -187500.02, -187500.02, -187500.02, -187500.02, -187500.02, -187500.02, 187500.00, -0.00, -0.00, -0.00
205, 104439.91, -187500.02, -187500.02, -187500.02, -187500.02, -187500.02, -187500.02, 187500.00, -0.00, -0.00, -0.00
206, 104458.37, -187500.02, -187500.02, -187500.02, -187500.02, -187500.02, -187500.02, 187500.00, -0.00, -0.00, -0.00
207, 104489.10, -187500.02, -187500.02, -187500.02, -187500.02, -187500.02, -187500.02, 187500.00, -0.00, -0.00, -0.00
208, 104497.11, -187500.02, -187500.02, -187500.02, -187500.02, -187500.02, -187500.02, 187500.00, -0.00, -0.00, -0.00
209, 104445.59, -187500.02, -187500.02, -187500.02, -187500.02, -187500.02, -187500.02, 187500.00, -0.00, -0.00, -0.00
210, 104442.52, -187500.02, -187500.02, -187500.02, -187500.02, -187500.02, -187500.02, 187500.00, -0.00, -0.00, -0.00
211, 104463.78, -187500.02, -187500.02, -187500.02, -187500.02, -187500.02, -187500.02, 187500.00, -0.00, -0.00, -0.00
212, 104474.20, -187500.02, -187500.02, -187500.02, -187500.02, -187500.02, -187500.02, 187500.00, -0.00, -0.00, -0.00
213, 104451.24, -187500.02, -187500.02, -187500.02, -187500.02, -187500.02, -187500.02, 187500.00, -0.00, -0.00, -0.00
214, 104443.80, -187500.02, -187500.02, -187500.02, -187500.02, -187500.02, -187500.02, 187500.00, -0.00, -0.00, -0.00
215, 104483.85, -187500.02, -187500.02, -187500.02, -187500.02, -187500.02, -187500.02, 187500.00, -0.00, -0.00, -0.00
216, 104478.58, -187500.02, -187500.02, -187500.02, -187500.02, -187500.02, -187500.02, 187500.00, -0.00, -0.00, -0.00
217, 104452.78, -187500.02, -187500.02, -187500.02, -187500.02, -187500.02, -187500.02, 187500.00, -0.00, -0.00, -0.00
218, 104432.69, -187500.02, -187500.02, -187500.02, -187500.02, -187500.02, -187500.02, 187500.00, -0.00, -0.00, -0.00
219, 104456.54, -187500.02, -187500.02, -187500.02, -187500.02, -187500.02, -187500.02, 187500.00, -0.00, -0.00, -0.00
220, 104501.87, -187500.02, -187500.02, -187500.02, -187500.02, -187500.02, -187500.02, 187500.00, -0.00, -0.00, -0.00
221, 104445.23, -187500.02, -187500.02, -187500.02, -187500.02, -187500.02, -187500.02, 187500.00, -0.00, -0.00, -0.00
222, 104437.02, -187500.02, -187500.02, -187500.02, -187500.02, -187500.02, -187500.02, 187500.00, -0.00, -0.00, -0.00
223, 104460.98, -187500.02, -187500.02, -187500.02, -187500.02, -187500.02, -187500.02, 187500.00, -0.00, -0.00, -0.00
224, 104492.37, -187500.02, -187500.02, -187500.02, -187500.02, -187500.02, -187500.02, 187500.00, -0.00, -0.00, -0.00
225, 104470.09, -187500.02, -187500.02, -187500.02, -187500.02, -187500.02, -187500.02, 187500.00, -0.00, -0.00, -0.00
226, 104420.71, -187500.02, -187500.02, -187500.02, -187500.02, -187500.02, -187500.02, 187500.00, -0.00, -0.00, -0.00
227, 104437.09, -187500.02, -187500.02, -187500.02, -187500.02, -187500.02, -187500.02, 187500.00, -0.00, -0.00, -0.00
228, 104469.16, -187500.02, -187500.02, -187500.02, -187500.02, -187500.02, -187500.02, 187500.00, -0.00, -0.00, -0.00
229, 104476.03, -187500.02, -187500.02, -187500.02, -187500.02, -187500.02, -187500.02, 187500.00, -0.00, -0.00, -0.00
230, 104471.47, -187500.02, -187500.02, -187500.02, -187500.02, -187500.02, -187500.02, 187500.00, -0.00, -0.00, -0.00
231, 104452.00, -187500.02, -187500.02, -187500.02, -187500.02, -187500.02, -187500.02, 187500.00, -0.00, -0.00, -0.00
232, 104468.09, -187500.02, -187500.02, -187500.02, -187500.02, -187500.02, -187500.02, 187500.00, -0.00, -0.00, -0.00
233, 104468.72, -187500.02, -187500.02, -187500.02, -187500.02, -187500.02, -187500.02, 187500.00, -0.00, -0.00, -0.00
234, 104455.27, -187500.02, -187500.02, -187500.02, -187500.02, -187500.02, -187500.02, 187500.00, -0.00, -0.00, -0.00
235, 104454.93, -187500.02, -187500.02, -187500.02, -187500.02, -187500.02, -187500.02, 187500.00, -0.00, -0.00, -0.00
236, 104468.83, -187500.02, -187500.02, -187500.02, -187500.02, -187500.02, -187500.02, 187500.00, -0.00, -0.00, -0.00
237, 104477.80, -187500.02, -187500.02, -187500.02, -187500.02, -187500.02, -187500.02, 187500.00, -0.00, -0.00, -0.00
238, 104441.96, -187500.02, -187500.02, -187500.02, -187500.02, -187500.02, -187500.02, 187500.00, -0.00, -0.00, -0.00
239, 104425.71, -187500.02, -187500.02, -187500.02, -187500.02, -187500.02, -187500.02, 187500.00, -0.00, -0.00, -0.00
240, 104458.91, -187500.02, -187500.02, -187500.02, -187500.02, -187500.02, -187500.02, 187500.00, -0.00, -0.00, -0.00
241, 104472.63, -187500.02, -187500.02, -187500.02, -187500.02, -187500.02, -187500.02, 187500.00, -0.00, -0.00, -0.00
242, 104438.61, -187500.02, -187500.02, -187500.02, -187500.02, -187500.02, -187500.02, 187500.00, -0.00, -0.00, -0.00
243, 104444.13, -187500.02, -187500.02, -187500.02, -187500.02, -187500.02, -187500.02, 187500.00, -0.00, -0.00, -0.00
244, 104489.51, -187500.02, -187500.02, -187500.02, -187500.02, -187500.02, -187500.02, 187500.00, -0.00, -0.00, -0.00
245, 104540.11, -187500.02, -187500.02, -187500.02, -187500.02, -187500.02, -187500.02, 187500.00, -0.00, -0.00, -0.00
246, 104506.80, -187500.02, -187500.02, -187500.02, -187500.02, -187500.02, -187500.02, 187500.00, -0.00, -0.00, -0.00
247, 104492.08, -187500.02, -187500.02, -187500.02, -187500.02, -187500.02, -187500.02, 187500.00, -0.00, -0.00, -0.00
248, 104507.77, -187500.02, -187500.02, -187500.02, -187500.02, -187500.02, -187500.02, 187500.00, -0.00, -0.00, -0.00
249, 104526.01, -187500.02, -187500.02, -187500.02, -187500.02, -187500.02, -187500.02, 187500.00, -0.00, -0.00, -0.00
250, 104492.26, -187500.02, -187500.02, -187500.02, -187500.02, -187500.02, -187500.02, 187500.00, -0.00, -0.00, -0.00
251, 104448.60, -187500.02, -187500.02, -187500.02, -187500.02, -187500.02, -187500.02, 187500.00, -0.00, -0.00, -0.00
252, 104435.46, -187500.02, -187500.02, -187500.02, -187500.02, -187500.02, -187500.02, 187500.00, -0.00, -0.00, -0.00
253, 104456.13, -187500.02, -187500.02, -187500.02, -187500.02, -187500.02, -187500.02, 187500.00, -0.00, -0.00, -0.00
254, 104453.01, -187500.02, -187500.02, -187500.02, -187500.02, -187500.02, -187500.02, 187500.00, -0.00, -0.00, -0.00
255, 104427.26, -187500.02, -187500.02, -187500.02, -187500.02, -187500.02, -187500.02, 187500.00, -0.00, -0.00, -0.00
0, 104417.73, -187500.02, -187500.02, -187500.02, -187500.02, -187500.02, -187500.02, 187500.00, -0.00, -0.00, -0.00
1, 104448.29, -187500.02, -187500.02, -187500.02, -187500.02, -187500.02, -187500.02, 187500.00, -0.00, -0.00, -0.00
2, 104445.20, -187500.02, -187500.02, -187500.02, -187500.02, -187500.02, -187500.02, 187500.00, -0.00, -0.00, -0.00
3, 104421.22, -187500.02, -187500.02, -187500.02, -187500.02, -187500.02, -187500.02, 187500.00, -0.00, -0.00, -0.00
4, 104415.12, -187500.02, -187500.02, -187500.02, -187500.02, -187500.02, -187500.02, 187500.00, -0.00, -0.00, -0.00
5, 104455.80, -187500.02, -187500.02, -187500.02, -187500.02, -187500.02, -187500.02, 187500.00, -0.00, -0.00, -0.00
6, 104452.76, -187500.02, -187500.02, -187500.02, -187500.02, -187500.02, -187500.02, 187500.00, -0.00, -0.00, -0.00
7, 104430.43, -187500.02, -187500.02, -187500.02, -187500.02, -187500.02, -187500.02, 187500.00, -0.00, -0.00, -0.00
8, 104433.13, -187500.02, -187500.02, -187500.02, -187500.02, -187500.02, -187500.02, 187500.00, -0.00, -0.00, -0.00
9, 104442.03, -187500.02, -187500.02, -187500.02, -187500.02, -187500.02, -187500.02, 187500.00, -0.00, -0.00, -0.00
10, 104443.20, -187500.02, -187500.02, -187500.02, -187500.02, -187500.02, -187500.02, 187500.00, -0.00, -0.00, -0.00
11, 104407.90, -187500.02, -187500.02, -187500.02, -187500.02, -187500.02, -187500.02, 187500.00, -0.00, -0.00, -0.00
12, 104416.48, -187500.02, -187500.02, -187500.02, -187500.02, -187500.02, -187500.02, 187500.00, -0.00, -0.00, -0.00
13, 104418.49, -187500.02, -187500.02, -187500.02, -187500.02, -187500.02, -187500.02, 187500.00, -0.00, -0.00, -0.00
14, 104437.90, -187500.02, -187500.02, -187500.02, -187500.02, -187500.02, -187500.02, 187500.00, -0.00, -0.00, -0.00
15, 104424.27, -187500.02, -187500.02, -187500.02, -187500.02, -187500.02, -187500.02, 187500.00, -0.00, -0.00, -0.00
16, 104411.50, -187500.02, -187500.02, -187500.02, -187500.02, -187500.02, -187500.02, 187500.00, -0.00, -0.00, -0.00
17, 104442.03, -187500.02, -187500.02, -187500.02, -187500.02, -187500.02, -187500.02, 187500.00, -0.00, -0.00, -0.00
18, 104442.84, -187500.02, -187500.02, -187500.02, -187500.02, -187500.02, -187500.02, 187500.00, -0.00, -0.00, -0.00
19, 104433.29, -187500.02, -187500.02, -187500.02, -187500.02, -187500.02, -187500.02, 187500.00, -0.00, -0.00, -0.00
20, 104403.09, -187500.02, -187500.02, -187500.02, -187500.02, -187500.02, -187500.02, 187500.00, -0.00, -0.00, -0.00
21, 104432.06, -187500.02, -187500.02, -187500.02, -187500.02, -187500.02, -187500.02, 187500.00, -0.00, -0.00, -0.00
22, 104442.23, -187500.02, -187500.02, -187500.02, -187500.02, -187500.02, -187500.02, 187500.00, -0.00, -0.00, -0.00
23, 104409.63, -187500.02, -187500.02, -187500.02, -187500.02, -187500.02, -187500.02, 187500.00, -0.00, -0.00, -0.00
24, 104386.02, -187500.02, -187500.02, -187500.02, -187500.02, -187500.02, -187500.02, 187500.00, -0.00, -0.00, -0.00
25, 104403.05, -187500.02, -187500.02, -187500.02, -187500.02, -187500.02, -187500.02, 187500.00, -0.00, -0.00, -0.00
26, 104440.18, -187500.02, -187500.02, -187500.02, -187500.02, -187500.02, -187500.02, 187500.00, -0.00, -0.00, -0.00
27, 104422.45, -187500.02, -187500.02, -187500.02, -187500.02, -187500.02, -187500.02, 187500.00, -0.00, -0.00, -0.00
28, 104400.05, -187500.02, -187500.02, -187500.02, -187500.02, -187500.02, -187500.02, 187500.00, -0.00, -0.00, -0.00
29, 104407.61, -187500.02, -187500.02, -187500.02, -187500.02, -187500.02, -187500.02, 187500.00, -0.00, -0.00, -0.00
30, 104431.59, -187500.02, -187500.02, -187500.02, -187500.02, -187500.02, -187500.02, 187500.00, -0.00, -0.00, -0.00
31, 104423.46, -187500.02, -187500.02, -187500.02, -187500.02, -187500.02, -187500.02, 187500.00, -0.00, -0.00, -0.00
32, 104395.83, -187500.02, -187500.02, -187500.02, -187500.02, -187500.02, -187500.02, 187500.00, -0.00, -0.00, -0.00
33, 104373.37, -187500.02, -187500.02, -187500.02, -187500.02, -187500.02, -187500.02, 187500.00, -0.00, -0.00, -0.00
34, 104425.02, -187500.02, -187500.02, -187500.02, -187500.02, -187500.02, -187500.02, 187500.00, -0.00, -0.00, -0.00
35, 104435.82, -187500.02, -187500.02, -187500.02, -187500.02, -187500.02, -187500.02, 187500.00, -0.00, -0.00, -0.00
36, 104411.81, -187500.02, -187500.02, -187500.02, -187500.02, -187500.02, -187500.02, 187500.00, -0.00, -0.00, -0.00
37, 104394.45, -187500.02, -187500.02, -187500.02, -187500.02, -187500.02, -187500.02, 187500.00, -0.00, -0.00, -0.00
38, 104411.39, -187500.02, -187500.02, -187500.02, -187500.02, -187500.02, -187500.02, 187500.00, -0.00, -0.00, -0.00
39, 104440.89, -187500.02, -187500.02, -187500.02, -187500.02, -187500.02, -187500.02, 187500.00, -0.00, -0.00, -0.00
40, 104430.32, -187500.02, -187500.02, -187500.02, -187500.02, -187500.02, -187500.02, 187500.00, -0.00, -0.00, -0.00
41, 104402.71, -187500.02, -187500.02, -187500.02, -187500.02, -187500.02, -187500.02, 187500.00, -0.00, -0.00, -0.00
42, 104408.33, -187500.02, -187500.02, -187500.02, -187500.02, -187500.02, -187500.02, 187500.00, -0.00, -0.00, -0.00
43, 104430.56, -187500.02, -187500.02, -187500.02, -187500.02, -187500.02, -187500.02, 187500.00, -0.00, -0.00, -0.00
44, 104429.54, -187500.02, -187500.02, -187500.02, -187500.02, -187500.02, -187500.02, 187500.00, -0.00, -0.00, -0.00
45, 104404.95, -187500.02, -187500.02, -187500.02, -187500.02, -187500.02, -187500.02, 187500.00, -0.00, -0.00, -0.00
46, 104408.80, -187500.02, -187500.02, -187500.02, -187500.02, -187500.02, -187500.02, 187500.00, -0.00, -0.00, -0.00
47, 104436.45, -187500.02, -187500.02, -187500.02, -187500.02, -187500.02, -187500.02, 187500.00, -0.00, -0.00, -0.00
48, 104440.31, -187500.02, -187500.02, -187500.02, -187500.02, -187500.02, -187500.02, 187500.00, -0.00, -0.00, -0.00
49, 104399.48, -187500.02, -187500.02, -187500.02, -187500.02, -187500.02, -187500.02, 187500.00, -0.00, -0.00, -0.00
50, 104403.84, -187500.02, -187500.02, -187500.02, -187500.02, -187500.02, -187500.02, 187500.00, -0.00, -0.00, -0.00
51, 104452.34, -187500.02, -187500.02, -187500.02, -187500.02, -187500.02, -187500.02, 187500.00, -0.00, -0.00, -0.00
52, 104436.94, -187500.02, -187500.02, -187500.02, -187500.02, -187500.02, -187500.02, 187500.00, -0.00, -0.00, -0.00
53, 104412.88, -187500.02, -187500.02, -187500.02, -187500.02, -187500.02, -187500.02, 187500.00, -0.00, -0.00, -0.00
54, 104391.12, -187500.02, -187500.02, -187500.02, -187500.02, -187500.02, -187500.02, 187500.00, -0.00, -0.00, -0.00
55, 104420.91, -187500.02, -187500.02, -187500.02, -187500.02, -187500.02, -187500.02, 187500.00, -0.00, -0.00, -0.00
56, 104445.25, -187500.02, -187500.02, -187500.02, -187500.02, -187500.02, -187500.02, 187500.00, -0.00, -0.00, -0.00
57, 104437.65, -187500.02, -187500.02, -187500.02, -187500.02, -187500.02, -187500.02, 187500.00, -0.00, -0.00, -0.00
58, 104443.40, -187500.02, -187500.02, -187500.02, -187500.02, -187500.02, -187500.02, 187500.00, -0.00, -0.00, -0.00
59, 104434.48, -187500.02, -187500.02, -187500.02, -187500.02, -187500.02, -187500.02, 187500.00, -0.00, -0.00, -0.00
60, 104444.85, -187500.02, -187500.02, -187500.02, -187500.02, -187500.02, -187500.02, 187500.00, -0.00, -0.00, -0.00
61, 104417.38, -187500.02, -187500.02, -187500.02, -187500.02, -187500.02, -187500.02, 187500.00, -0.00, -0.00, -0.00
62, 104395.80, -187500.02, -187500.02, -187500.02, -187500.02, -187500.02, -187500.02, 187500.00, -0.00, -0.00, -0.00
63, 104415.03, -187500.02, -187500.02, -187500.02, -187500.02, -187500.02, -187500.02, 187500.00, -0.00, -0.00, -0.00
64, 104432.84, -187500.02, -187500.02, -187500.02, -187500.02, -187500.02, -187500.02, 187500.00, -0.00, -0.00, -0.00
65, 104414.49, -187500.02, -187500.02, -187500.02, -187500.02, -187500.02, -187500.02, 187500.00, -0.00, -0.00, -0.00
66, 104392.99, -187500.02, -187500.02, -187500.02, -187500.02, -187500.02, -187500.02, 187500.00, -0.00, -0.00, -0.00
67, 104412.37, -187500.02, -187500.02, -187500.02, -187500.02, -187500.02, -187500.02, 187500.00, -0.00, -0.00, -0.00
68, 104421.80, -187500.02, -187500.02, -187500.02, -187500.02, -187500.02, -187500.02, 187500.00, -0.00, -0.00, -0.00
69, 104407.59, -187500.02, -187500.02, -187500.02, -187500.02, -187500.02, -187500.02, 187500.00, -0.00, -0.00, -0.00
70, 104382.93, -187500.02, -187500.02, -187500.02, -187500.02, -187500.02, -187500.02, 187500.00, -0.00, -0.00, -0.00
71, 104389.59, -187500.02, -187500.02, -187500.02, -187500.02, -187500.02, -187500.02, 187500.00, -0.00, -0.00, -0.00
72, 104421.71, -187500.02, -187500.02, -187500.02, -187500.02, -187500.02, -187500.02, 187500.00, -0.00, -0.00, -0.00
73, 104420.40, -187500.02, -187500.02, -187500.02, -187500.02, -187500.02, -187500.02, 187500.00, -0.00, -0.00, -0.00
74, 104391.67, -187500.02, -187500.02, -187500.02, -187500.02, -187500.02, -187500.02, 187500.00, -0.00, -0.00, -0.00
75, 104389.93, -187500.02, -187500.02, -187500.02, -187500.02, -187500.02, -187500.02, 187500.00, -0.00, -0.00, -0.00
76, 104410.25, -187500.02, -187500.02, -187500.02, -187500.02, -187500.02, -187500.02, 187500.00, -0.00, -0.00, -0.00
77, 104412.84, -187500.02, -187500.02, -187500.02, -187500.02, -187500.02, -187500.02, 187500.00, -0.00, -0.00, -0.00
78, 104402.18, -187500.02, -187500.02, -187500.02, -187500.02, -187500.02, -187500.02, 187500.00, -0.00, -0.00, -0.00
79, 104387.70, -187500.02, -187500.02, -187500.02, -187500.02, -187500.02, -187500.02, 187500.00, -0.00, -0.00, -0.00
80, 104414.63, -187500.02, -187500.02, -187500.02, -187500.02, -187500.02, -187500.02, 187500.00, -0.00, -0.00, -0.00
81, 104427.08, -187500.02, -187500.02, -187500.02, -187500.02, -187500.02, -187500.02, 187500.00, -0.00, -0.00, -0.00
82, 104390.94, -187500.02, -187500.02, -187500.02, -187500.02, -187500.02, -187500.02, 187500.00, -0.00, -0.00, -0.00
83, 104361.14, -187500.02, -187500.02, -187500.02, -187500.02, -187500.02, -187500.02, 187500.00, -0.00, -0.00, -0.00
84, 104393.15, -187500.02, -187500.02, -187500.02, -187500.02, -187500.02, -187500.02, 187500.00, -0.00, -0.00, -0.00
85, 104425.73, -187500.02, -187500.02, -187500.02, -187500.02, -187500.02, -187500.02, 187500.00, -0.00, -0.00, -0.00
86, 104413.04, -187500.02, -187500.02, -187500.02, -187500.02, -187500.02, -187500.02, 187500.00, -0.00, -0.00, -0.00
87, 104373.39, -187500.02, -187500.02, -187500.02, -187500.02, -187500.02, -187500.02, 187500.00, -0.00, -0.00, -0.00
88, 104393.08, -187500.02, -187500.02, -187500.02, -187500.02, -187500.02, -187500.02, 187500.00, -0.00, -0.00, -0.00
89, 104410.45, -187500.02, -187500.02, -187500.02, -187500.02, -187500.02, -187500.02, 187500.00, -0.00, -0.00, -0.00
90, 104392.50, -187500.02, -187500.02, -187500.02, -187500.02, -187500.02, -187500.02, 187500.00, -0.00, -0.00, -0.00
91, 104372.88, -187500.02, -187500.02, -187500.02, -187500.02, -187500.02, -187500.02, 187500.00, -0.00, -0.00, -0.00
92, 104379.24, -187500.02, -187500.02, -187500.02, -187500.02, -187500.02, -187500.02, 187500.00, -0.00, -0.00, -0.00
93, 104409.82, -187500.02, -187500.02, -187500.02, -187500.02, -187500.02, -187500.02, 187500.00, -0.00, -0.00, -0.00
94, 104392.19, -187500.02, -187500.02, -187500.02, -187500.02, -187500.02, -187500.02, 187500.00, -0.00, -0.00, -0.00
95, 104369.43, -187500.02, -187500.02, -187500.02, -187500.02, -187500.02, -187500.02, 187500.00, -0.00, -0.00, -0.00
96, 104383.63, -187500.02, -187500.02, -187500.02, -187500.02, -187500.02, -187500.02, 187500.00, -0.00, -0.00, -0.00
97, 104401.30, -187500.02, -187500.02, -187500.02, -187500.02, -187500.02, -187500.02, 187500.00, -0.00, -0.00, -0.00
98, 104397.98, -187500.02, -187500.02, -187500.02, -187500.02, -187500.02, -187500.02, 187500.00, -0.00, -0.00, -0.00
99, 104368.18, -187500.02, -187500.02, -187500.02, -187500.02, -187500.02, -187500.02, 187500.00, -0.00, -0.00, -0.00
100, 104388.68, -187500.02, -187500.02, -187500.02, -187500.02, -187500.02, -187500.02, 187500.00, -0.00, -0.00, -0.00
101, 104413.13, -187500.02, -187500.02, -187500.02, -187500.02, -187500.02, -187500.02, 187500.00, -0.00, -0.00, -0.00
102, 104422.12, -187500.02, -187500.02, -187500.02, -187500.02, -187500.02, -187500.02, 187500.00, -0.00, -0.00, -0.00
103, 104394.35, -187500.02, -187500.02, -187500.02, -187500.02, -187500.02, -187500.02, 187500.00, -0.00, -0.00, -0.00
104, 104376.90, -187500.02, -187500.02, -187500.02, -187500.02, -187500.02, -187500.02, 187500.00, -0.00, -0.00, -0.00
105, 104394.24, -187500.02, -187500.02, -187500.02, -187500.02, -187500.02, -187500.02, 187500.00, -0.00, -0.00, -0.00
106, 104430.54, -187500.02, -187500.02, -187500.02, -187500.02, -187500.02, -187500.02, 187500.00, -0.00, -0.00, -0.00
107, 104384.79, -187500.02, -187500.02, -187500.02, -187500.02, -187500.02, -187500.02, 187500.00, -0.00, -0.00, -0.00
108, 104386.98, -187500.02, -187500.02, -187500.02, -187500.02, -187500.02, -187500.02, 187500.00, -0.00, -0.00, -0.00
109, 104422.18, -187500.02, -187500.02, -187500.02, -187500.02, -187500.02, -187500.02, 187500.00, -0.00, -0.00, -0.00
110, 104422.83, -187500.02, -187500.02, -187500.02, -187500.02, -187500.02, -187500.02, 187500.00, -0.00, -0.00, -0.00
111, 104419.92, -187500.02, -187500.02, -187500.02, -187500.02, -187500.02, -187500.02, 187500.00, -0.00, -0.00, -0.00
112, 104381.59, -187500.02, -187500.02, -187500.02, -187500.02, -187500.02, -187500.02, 187500.00, -0.00, -0.00, -0.00
113, 104391.85, -187500.02, -187500.02, -187500.02, -187500.02, -187500.02, -187500.02, 187500.00, -0.00, -0.00, -0.00
114, 104413.63, -187500.02, -187500.02, -187500.02, -187500.02, -187500.02, -187500.02, 187500.00, -0.00, -0.00, -0.00
115, 104400.50, -187500.02, -187500.02, -187500.02, -187500.02, -187500.02, -187500.02, 187500.00, -0.00, -0.00, -0.00
116, 104374.15, -187500.02, -187500.02, -187500.02, -187500.02, -187500.02, -187500.02, 187500.00, -0.00, -0.00, -0.00
117, 104382.46, -187500.02, -187500.02, -187500.02, -187500.02, -187500.02, -187500.02, 187500.00, -0.00, -0.00, -0.00
118, 104413.16, -187500.02, -187500.02, -187500.02, -187500.02, -187500.02, -187500.02, 187500.00, -0.00, -0.00, -0.00
119, 104393.88, -187500.02, -187500.02, -187500.02, -187500.02, -187500.02, -187500.02, 187500.00, -0.00, -0.00, -0.00
120, 104376.63, -187500.02, -187500.02, -187500.02, -187500.02, -187500.02, -187500.02, 187500.00, -0.00, -0.00, -0.00
121, 104405.35, -187500.02, -187500.02, -187500.02, -187500.02, -187500.02, -187500.02, 187500.00, -0.00, -0.00, -0.00
122, 104405.09, -187500.02, -187500.02, -187500.02, -187500.02, -187500.02, -187500.02, 187500.00, -0.00, -0.00, -0.00
123, 104404.13, -187500.02, -187500.02, -187500.02, -187500.02, -187500.02, -187500.02, 187500.00, -0.00, -0.00, -0.00
124, 104395.18, -187500.02, -187500.02, -187500.02, -187500.02, -187500.02, -187500.02, 187500.00, -0.00, -0.00, -0.00
125, 104374.51, -187500.02, -187500.02, -187500.02, -187500.02, -187500.02, -187500.02, 187500.00, -0.00, -0.00, -0.00
126, 104393.08, -187500.02, -187500.02, -187500.02, -187500.02, -187500.02, -187500.02, 187500.00, -0.00, -0.00, -0.00
127, 104409.87, -187500.02, -187500.02, -187500.02, -187500.02, -187500.02, -187500.02, 187500.00, -0.00, -0.00, -0.00
128, 104385.84, -187500.02, -187500.02, -187500.02, -187500.02, -187500.02, -187500.02, 187500.00, -0.00, -0.00, -0.00
129, 104356.89, -187500.02, -187500.02, -187500.02, -187500.02, -187500.02, -187500.02, 187500.00, -0.00, -0.00, -0.00
130, 104383.78, -187500.02, -187500.02, -187500.02, -187500.02, -187500.02, -187500.02, 187500.00, -0.00, -0.00, -0.00
131, 104418.98, -187500.02, -187500.02, -187500.02, -187500.02, -187500.02, -187500.02, 187500.00, -0.00, -0.00, -0.00
132, 104395.54, -187500.02, -187500.02, -187500.02, -187500.02, -187500.02, -187500.02, 187500.00, -0.00, -0.00, -0.00
133, 104373.23, -187500.02, -187500.02, -187500.02, -187500.02, -187500.02, -187500.02, 187500.00, -0.00, -0.00, -0.00
134, 104379.78, -187500.02, -187500.02, -187500.02, -187500.02, -187500.02, -187500.02, 187500.00, -0.00, -0.00, -0.00
135, 104407.03, -187500.02, -187500.02, -187500.02, -187500.02, -187500.02, -187500.02, 187500.00, -0.00, -0.00, -0.00
136, 104403.27, -187500.02, -187500.02, -187500.02, -187500.02, -187500.02, -187500.02, 187500.00, -0.00, -0.00, -0.00
137, 104361.09, -187500.02, -187500.02, -187500.02, -187500.02, -187500.02, -187500.02, 187500.00, -0.00, -0.00, -0.00
138, 104363.94, -187500.02, -187500.02, -187500.02, -187500.02, -187500.02, -187500.02, 187500.00, -0.00, -0.00, -0.00
139, 104388.99, -187500.02, -187500.02, -187500.02, -187500.02, -187500.02, -187500.02, 187500.00, -0.00, -0.00, -0.00
140, 104385.08, -187500.02, -187500.02, -187500.02, -187500.02, -187500.02, -187500.02, 187500.00, -0.00, -0.00, -0.00
141, 104347.06, -187500.02, -187500.02, -187500.02, -187500.02, -187500.02, -187500.02, 187500.00, -0.00, -0.00, -0.00
142, 104354.48, -187500.02, -187500.02, -187500.02, -187500.02, -187500.02, -187500.02, 187500.00, -0.00, -0.00, -0.00
143, 104388.43, -187500.02, -187500.02, -187500.02, -187500.02, -187500.02, -187500.02, 187500.00, -0.00, -0.00, -0.00
144, 104392.30, -187500.02, -187500.02, -187500.02, -187500.02, -187500.02, -187500.02, 187500.00, -0.00, -0.00, -0.00
145, 104339.75, -187500.02, -187500.02, -187500.02, -187500.02, -187500.02, -187500.02, 187500.00, -0.00, -0.00, -0.00
146, 104368.41, -187500.02, -187500.02, -187500.02, -187500.02, -187500.02, -187500.02, 187500.00, -0.00, -0.00, -0.00
147, 104369.21, -187500.02, -187500.02, -187500.02, -187500.02, -187500.02, -187500.02, 187500.00, -0.00, -0.00, -0.00
148, 104360.94, -187500.02, -187500.02, -187500.02, -187500.02, -187500.02, -187500.02, 187500.00, -0.00, -0.00, -0.00
149, 104354.55, -187500.02, -187500.02, -187500.02, -187500.02, -187500.02, -187500.02, 187500.00, -0.00, -0.00, -0.00
150, 104340.15, -187500.02, -187500.02, -187500.02, -187500.02, -187500.02, -187500.02, 187500.00, -0.00, -0.00, -0.00
151, 104383.94, -187500.02, -187500.02, -187500.02, -187500.02, -187500.02, -187500.02, 187500.00, -0.00, -0.00, -0.00
152, 104392.41, -187500.02, -187500.02, -187500.02, -187500.02, -187500.02, -187500.02, 187500.00, -0.00, -0.00, -0.00
153, 104353.20, -187500.02, -187500.02, -187500.02, -187500.02, -187500.02, -187500.02, 187500.00, -0.00, -0.00, -0.00
154, 104351.73, -187500.02, -187500.02, -187500.02, -187500.02, -187500.02, -187500.02, 187500.00, -0.00, -0.00, -0.00
155, 104384.27, -187500.02, -187500.02, -187500.02, -187500.02, -187500.02, -187500.02, 187500.00, -0.00, -0.00, -0.00
156, 104434.61, -187500.02, -187500.02, -187500.02, -187500.02, -187500.02, -187500.02, 187500.00, -0.00, -0.00, -0.00
157, 104387.78, -187500.02, -187500.02, -187500.02, -187500.02, -187500.02, -187500.02, 187500.00, -0.00, -0.00, -0.00
158, 104338.05, -187500.02, -187500.02, -187500.02, -187500.02, -187500.02, -187500.02, 187500.00, -0.00, -0.00, -0.00
159, 104385.86, -187500.02, -187500.02, -187500.02, -187500.02, -187500.02, -187500.02, 187500.00, -0.00, -0.00, -0.00
160, 104388.63, -187500.02, -187500.02, -187500.02, -187500.02, -187500.02, -187500.02, 187500.00, -0.00, -0.00, -0.00
161, 104362.33, -187500.02, -187500.02, -187500.02, -187500.02, -187500.02, -187500.02, 187500.00, -0.00, -0.00, -0.00
162, 104337.70, -187500.02, -187500.02, -187500.02, -187500.02, -187500.02, -187500.02, 187500.00, -0.00, -0.00, -0.00
163, 104353.90, -187500.02, -187500.02, -187500.02, -187500.02, -187500.02, -187500.02, 187500.00, -0.00, -0.00, -0.00
164, 104373.79, -187500.02, -187500.02, -187500.02, -187500.02, -187500.02, -187500.02, 187500.00, -0.00, -0.00, -0.00
165, 104394.42, -187500.02, -187500.02, -187500.02, -187500.02, -187500.02, -187500.02, 187500.00, -0.00, -0.00, -0.00
166, 104374.02, -187500.02, -187500.02, -187500.02, -187500.02, -187500.02, -187500.02, 187500.00, -0.00, -0.00, -0.00
167, 104366.33, -187500.02, -187500.02, -187500.02, -187500.02, -187500.02, -187500.02, 187500.00, -0.00, -0.00, -0.00
168, 104392.61, -187500.02, -187500.02, -187500.02, -187500.02, -187500.02, -187500.02, 187500.00, -0.00, -0.00, -0.00
169, 104371.89, -187500.02, -187500.02, -187500.02, -187500.02, -187500.02, -187500.02, 187500.00, -0.00, -0.00, -0.00
170, 104354.93, -187500.02, -187500.02, -187500.02, -187500.02, -187500.02, -187500.02, 187500.00, -0.00, -0.00, -0.00
171, 104350.30, -187500.02, -187500.02, -187500.02, -187500.02, -187500.02, -187500.02, 187500.00, -0.00, -0.00, -0.00
172, 104364.96, -187500.02, -187500.02, -187500.02, -187500.02, -187500.02, -187500.02, 187500.00, -0.00, -0.00, -0.00
173, 104366.33, -187500.02, -187500.02, -187500.02, -187500.02, -187500.02, -187500.02, 187500.00, -0.00, -0.00, -0.00
174, 104345.96, -187500.02, -187500.02, -187500.02, -187500.02, -187500.02, -187500.02, 187500.00, -0.00, -0.00, -0.00
175, 104328.28, -187500.02, -187500.02, -187500.02, -187500.02, -187500.02, -187500.02, 187500.00, -0.00, -0.00, -0.00
176, 104372.65, -187500.02, -187500.02, -187500.02, -187500.02, -187500.02, -187500.02, 187500.00, -0.00, -0.00, -0.00
177, 104377.37, -187500.02, -187500.02, -187500.02, -187500.02, -187500.02, -187500.02, 187500.00, -0.00, -0.00, -0.00
178, 104339.48, -187500.02, -187500.02, -187500.02, -187500.02, -187500.02, -187500.02, 187500.00, -0.00, -0.00, -0.00
179, 104320.88, -187500.02, -187500.02, -187500.02, -187500.02, -187500.02, -187500.02, 187500.00, -0.00, -0.00, -0.00
180, 104361.03, -187500.02, -187500.02, -187500.02, -187500.02, -187500.02, -187500.02, 187500.00, -0.00, -0.00, -0.00
181, 104367.40, -187500.02, -187500.02, -187500.02, -187500.02, -187500.02, -187500.02, 187500.00, -0.00, -0.00, -0.00
182, 104350.66, -187500.02, -187500.02, -187500.02, -187500.02, -187500.02, -187500.02, 187500.00, -0.00, -0.00, -0.00
183, 104329.73, -187500.02, -187500.02, -187500.02, -187500.02, -187500.02, -187500.02, 187500.00, -0.00, -0.00, -0.00
184, 104342.81, -187500.02, -187500.02, -187500.02, -187500.02, -187500.02, -187500.02, 187500.00, -0.00, -0.00, -0.00
185, 104375.13, -187500.02, -187500.02, -187500.02, -187500.02, -187500.02, -187500.02, 187500.00, -0.00, -0.00, -0.00
186, 104364.70, -187500.02, -187500.02, -187500.02, -187500.02, -187500.02, -187500.02, 187500.00, -0.00, -0.00, -0.00
187, 104322.25, -187500.02, -187500.02, -187500.02, -187500.02, -187500.02, -187500.02, 187500.00, -0.00, -0.00, -0.00
188, 104343.93, -187500.02, -187500.02, -187500.02, -187500.02, -187500.02, -187500.02, 187500.00, -0.00, -0.00, -0.00
189, 104367.31, -187500.02, -187500.02, -187500.02, -187500.02, -187500.02, -187500.02, 187500.00, -0.00, -0.00, -0.00
190, 104356.47, -187500.02, -187500.02, -187500.02, -187500.02, -187500.02, -187500.02, 187500.00, -0.00, -0.00, -0.00
191, 104318.00, -187500.02, -187500.02, -187500.02, -187500.02, -187500.02, -187500.02, 187500.00, -0.00, -0.00, -0.00
192, 104334.81, -187500.02, -187500.02, -187500.02, -187500.02, -187500.02, -187500.02, 187500.00, -0.00, -0.00, -0.00
193, 104389.75, -187500.02, -187500.02, -187500.02, -187500.02, -187500.02, -187500.02, 187500.00, -0.00, -0.00, -0.00
194, 104360.91, -187500.02, -187500.02, -187500.02, -187500.02, -187500.02, -187500.02, 187500.00, -0.00, -0.00, -0.00
195, 104335.75, -187500.02, -187500.02, -187500.02, -187500.02, -187500.02, -187500.02, 187500.00, -0.00, -0.00, -0.00
196, 104323.12, -187500.02, -187500.02, -187500.02, -187500.02, -187500.02, -187500.02, 187500.00, -0.00, -0.00, -0.00
197, 104362.26, -187500.02, -187500.02, -187500.02, -187500.02, -187500.02, -187500.02, 187500.00, -0.00, -0.00, -0.00
198, 104379.05, -187500.02, -187500.02, -187500.02, -187500.02, -187500.02, -187500.02, 187500.00, -0.00, -0.00, -0.00
199, 104348.58, -187500.02, -187500.02, -187500.02, -187500.02, -187500.02, -187500.02, 187500.00, -0.00, -0.00, -0.00
200, 104339.68, -187500.02, -187500.02, -187500.02, -187500.02, -187500.02, -187500.02, 187500.00, -0.00, -0.00, -0.00
201, 104348.18, -187500.02, -187500.02, -187500.02, -187500.02, -187500.02, -187500.02, 187500.00, -0.00, -0.00, -0.00
202, 104370.35, -187500.02, -187500.02, -187500.02, -187500.02, -187500.02, -187500.02, 187500.00, -0.00, -0.00, -0.00
203, 104330.81, -187500.02, -187500.02, -187500.02, -187500.02, -187500.02, -187500.02, 187500.00, -0.00, -0.00, -0.00
204, 104309.75, -187500.02, -187500.02, -187500.02, -187500.02, -187500.02, -187500.02, 187500.00, -0.00, -0.00, -0.00
205, 104353.48, -187500.02, -187500.02, -187500.02, -187500.02, -187500.02, -187500.02, 187500.00, -0.00, -0.00, -0.00
206, 104365.39, -187500.02, -187500.02, -187500.02, -187500.02, -187500.02, -187500.02, 187500.00, -0.00, -0.00, -0.00
207, 104349.79, -187500.02, -187500.02, -187500.02, -187500.02, -187500.02, -187500.02, 187500.00, -0.00, -0.00, -0.00
208, 104340.91, -187500.02, -187500.02, -187500.02, -187500.02, -187500.02, -187500.02, 187500.00, -0.00, -0.00, -0.00
209, 104385.75, -187500.02, -187500.02, -187500.02, -187500.02, -187500.02, -187500.02, 187500.00, -0.00, -0.00, -0.00
210, 104424.59, -187500.02, -187500.02, -187500.02, -187500.02, -187500.02, -187500.02, 187500.00, -0.00, -0.00, -0.00
211, 104425.42, -187500.02, -187500.02, -187500.02, -187500.02, -187500.02, -187500.02, 187500.00, -0.00, -0.00, -0.00
212, 104396.14, -187500.02, -187500.02, -187500.02, -187500.02, -187500.02, -187500.02, 187500.00, -0.00, -0.00, -0.00
213, 104404.59, -187500.02, -187500.02, -187500.02, -187500.02, -187500.02, -187500.02, 187500.00, -0.00, -0.00, -0.00
214, 104417.65, -187500.02, -187500.02, -187500.02, -187500.02, -187500.02, -187500.02, 187500.00, -0.00, -0.00, -0.00
215, 104433.13, -187500.02, -187500.02, -187500.02, -187500.02, -187500.02, -187500.02, 187500.00, -0.00, -0.00, -0.00
216, 104351.93, -187500.02, -187500.02, -187500.02, -187500.02, -187500.02, -187500.02, 187500.00, -0.00, -0.00, -0.00
217, 104347.69, -187500.02, -187500.02, -187500.02, -187500.02, -187500.02, -187500.02, 187500.00, -0.00, -0.00, -0.00
218, 104383.90, -187500.02, -187500.02, -187500.02, -187500.02, -187500.02, -187500.02, 187500.00, -0.00, -0.00, -0.00
219, 104390.09, -187500.02, -187500.02, -187500.02, -187500.02, -187500.02, -187500.02, 187500.00, -0.00, -0.00, -0.00
220, 104362.23, -187500.02, -187500.02, -187500.02, -187500.02, -187500.02, -187500.02, 187500.00, -0.00, -0.00, -0.00
221, 104335.08, -187500.02, -187500.02, -187500.02, -187500.02, -187500.02, -187500.02, 187500.00, -0.00, -0.00, -0.00
222, 104363.82, -187500.02, -187500.02, -187500.02, -187500.02, -187500.02, -187500.02, 187500.00, -0.00, -0.00, -0.00
223, 104363.17, -187500.02, -187500.02, -187500.02, -187500.02, -187500.02, -187500.02, 187500.00, -0.00, -0.00, -0.00
224, 104333.58, -187500.02, -187500.02, -187500.02, -187500.02, -187500.02, -187500.02, 187500.00, -0.00, -0.00, -0.00
225, 104315.19, -187500.02, -187500.02, -187500.02, -187500.02, -187500.02, -187500.02, 187500.00, -0.00, -0.00, -0.00
226, 104353.45, -187500.02, -187500.02, -187500.02, -187500.02, -187500.02, -187500.02, 187500.00, -0.00, -0.00, -0.00
227, 104346.81, -187500.02, -187500.02, -187500.02, -187500.02, -187500.02, -187500.02, 187500.00, -0.00, -0.00, -0.00
228, 104338.68, -187500.02, -187500.02, -187500.02, -187500.02, -187500.02, -187500.02, 187500.00, -0.00, -0.00, -0.00
229, 104349.74, -187500.02, -187500.02, -187500.02, -187500.02, -187500.02, -187500.02, 187500.00, -0.00, -0.00, -0.00
230, 104370.73, -187500.02, -187500.02, -187500.02, -187500.02, -187500.02, -187500.02, 187500.00, -0.00, -0.00, -0.00
231, 104390.73, -187500.02, -187500.02, -187500.02, -187500.02, -187500.02, -187500.02, 187500.00, -0.00, -0.00, -0.00
232, 104352.22, -187500.02, -187500.02, -187500.02, -187500.02, -187500.02, -187500.02, 187500.00, -0.00, -0.00, -0.00
233, 104316.93, -187500.02, -187500.02, -187500.02, -187500.02, -187500.02, -187500.02, 187500.00, -0.00, -0.00, -0.00
234, 104331.39, -187500.02, -187500.02, -187500.02, -187500.02, -187500.02, -187500.02, 187500.00, -0.00, -0.00, -0.00
235, 104377.14, -187500.02, -187500.02, -187500.02, -187500.02, -187500.02, -187500.02, 187500.00, -0.00, -0.00, -0.00
236, 104349.72, -187500.02, -187500.02, -187500.02, -187500.02, -187500.02, -187500.02, 187500.00, -0.00, -0.00, -0.00
237, 104301.53, -187500.02, -187500.02, -187500.02, -187500.02, -187500.02, -187500.02, 187500.00, -0.00, -0.00, -0.00
238, 104329.60, -187500.02, -187500.02, -187500.02, -187500.02, -187500.02, -187500.02, 187500.00, -0.00, -0.00, -0.00
239, 104373.61, -187500.02, -187500.02, -187500.02, -187500.02, -187500.02, -187500.02, 187500.00, -0.00, -0.00, -0.00
240, 104406.09, -187500.02, -187500.02, -187500.02, -187500.02, -187500.02, -187500.02, 187500.00, -0.00, -0.00, -0.00
241, 104367.42, -187500.02, -187500.02, -187500.02, -187500.02, -187500.02, -187500.02, 187500.00, -0.00, -0.00, -0.00
242, 104346.91, -187500.02, -187500.02, -187500.02, -187500.02, -187500.02, -187500.02, 187500.00, -0.00, -0.00, -0.00
243, 104383.23, -187500.02, -187500.02, -187500.02, -187500.02, -187500.02, -187500.02, 187500.00, -0.00, -0.00, -0.00
244, 104381.59, -187500.02, -187500.02, -187500.02, -187500.02, -187500.02, -187500.02, 187500.00, -0.00, -0.00, -0.00
245, 104345.18, -187500.02, -187500.02, -187500.02, -187500.02, -187500.02, -187500.02, 187500.00, -0.00, -0.00, -0.00
246, 104328.91, -187500.02, -187500.02, -187500.02, -187500.02, -187500.02, -187500.02, 187500.00, -0.00, -0.00, -0.00
247, 104357.68, -187500.02, -187500.02, -187500.02, -187500.02, -187500.02, -187500.02, 187500.00, -0.00, -0.00, -0.00
248, 104371.31, -187500.02, -187500.02, -187500.02, -187500.02, -187500.02, -187500.02, 187500.00, -0.00, -0.00, -0.00
249, 104326.02, -187500.02, -187500.02, -187500.02, -187500.02, -187500.02, -187500.02, 187500.00, -0.00, -0.00, -0.00
250, 104318.83, -187500.02, -187500.02, -187500.02, -187500.02, -187500.02, -187500.02, 187500.00, -0.00, -0.00, -0.00
251, 104354.73, -187500.02, -187500.02, -187500.02, -187500.02, -187500.02, -187500.02, 187500.00, -0.00, -0.00, -0.00
252, 104353.97, -187500.02, -187500.02, -187500.02, -187500.02, -187500.02, -187500.02, 187500.00, -0.00, -0.00, -0.00
253, 104336.29, -187500.02, -187500.02, -187500.02, -187500.02, -187500.02, -187500.02, 187500.00, -0.00, -0.00, -0.00
254, 104309.80, -187500.02, -187500.02, -187500.02, -187500.02, -187500.02, -187500.02, 187500.00, -0.00, -0.00, -0.00
255, 104326.45, -187500.02, -187500.02, -187500.02, -187500.02, -187500.02, -187500.02, 187500.00, -0.00, -0.00, -0.00
0, 104370.33, -187500.02, -187500.02, -187500.02, -187500.02, -187500.02, -187500.02, 187500.00, -0.00, -0.00, -0.00
1, 104353.41, -187500.02, -187500.02, -187500.02, -187500.02, -187500.02, -187500.02, 187500.00, -0.00, -0.00, -0.00
2, 104314.11, -187500.02, -187500.02, -187500.02, -187500.02, -187500.02, -187500.02, 187500.00, -0.00, -0.00, -0.00
3, 104334.05, -187500.02, -187500.02, -187500.02, -187500.02, -187500.02, -187500.02, 187500.00, -0.00, -0.00, -0.00
4, 104363.22, -187500.02, -187500.02, -187500.02, -187500.02, -187500.02, -187500.02, 187500.00, -0.00, -0.00, -0.00
5, 104350.79, -187500.02, -187500.02, -187500.02, -187500.02, -187500.02, -187500.02, 187500.00, -0.00, -0.00, -0.00
6, 104332.38, -187500.02, -187500.02, -187500.02, -187500.02, -187500.02, -187500.02, 187500.00, -0.00, -0.00, -0.00
7, 104323.48, -187500.02, -187500.02, -187500.02, -187500.02, -187500.02, -187500.02, 187500.00, -0.00, -0.00, -0.00
8, 104364.41, -187500.02, -187500.02, -187500.02, -187500.02, -187500.02, -187500.02, 187500.00, -0.00, -0.00, -0.00
9, 104344.53, -187500.02, -187500.02, -187500.02, -187500.02, -187500.02, -187500.02, 187500.00, -0.00, -0.00, -0.00
10, 104313.66, -187500.02, -187500.02, -187500.02, -187500.02, -187500.02, -187500.02, 187500.00, -0.00, -0.00, -0.00
11, 104319.39, -187500.02, -187500.02, -187500.02, -187500.02, -187500.02, -187500.02, 187500.00, -0.00, -0.00, -0.00
12, 104349.61, -187500.02, -187500.02, -187500.02, -187500.02, -187500.02, -187500.02, 187500.00, -0.00, -0.00, -0.00
13, 104347.51, -187500.02, -187500.02, -187500.02, -187500.02, -187500.02, -187500.02, 187500.00, -0.00, -0.00, -0.00
14, 104325.55, -187500.02, -187500.02, -187500.02, -187500.02, -187500.02, -187500.02, 187500.00, -0.00, -0.00, -0.00
15, 104307.56, -187500.02, -187500.02, -187500.02, -187500.02, -187500.02, -187500.02, 187500.00, -0.00, -0.00, -0.00
16, 104343.69, -187500.02, -187500.02, -187500.02, -187500.02, -187500.02, -187500.02, 187500.00, -0.00, -0.00, -0.00
17, 104358.13, -187500.02, -187500.02, -187500.02, -187500.02, -187500.02, -187500.02, 187500.00, -0.00, -0.00, -0.00
18, 104331.99, -187500.02, -187500.02, -187500.02, -187500.02, -187500.02, -187500.02, 187500.00, -0.00, -0.00, -0.00
19, 104304.03, -187500.02, -187500.02, -187500.02, -187500.02, -187500.02, -187500.02, 187500.00, -0.00, -0.00, -0.00
20, 104333.83, -187500.02, -187500.02, -187500.02, -187500.02, -187500.02, -187500.02, 187500.00, -0.00, -0.00, -0.00
21, 104379.54, -187500.02, -187500.02, -187500.02, -187500.02, -187500.02, -187500.02, 187500.00, -0.00, -0.00, -0.00
22, 104335.44, -187500.02, -187500.02, -187500.02, -187500.02, -187500.02, -187500.02, 187500.00, -0.00, -0.00, -0.00
23, 104317.91, -187500.02, -187500.02, -187500.02, -187500.02, -187500.02, -187500.02, 187500.00, -0.00, -0.00, -0.00
24, 104357.99, -187500.02, -187500.02, -187500.02, -187500.02, -187500.02, -187500.02, 187500.00, -0.00, -0.00, -0.00
25, 104382.93, -187500.02, -187500.02, -187500.02, -187500.02, -187500.02, -187500.02, 187500.00, -0.00, -0.00, -0.00
26, 104339.15, -187500.02, -187500.02, -187500.02, -187500.02, -187500.02, -187500.02, 187500.00, -0.00, -0.00, -0.00
27, 104304.14, -187500.02, -187500.02, -187500.02, -187500.02, -187500.02, -187500.02, 187500.00, -0.00, -0.00, -0.00
28, 104307.88, -187500.02, -187500.02, -187500.02, -187500.02, -187500.02, -187500.02, 187500.00, -0.00, -0.00, -0.00
29, 104354.52, -187500.02, -187500.02, -187500.02, -187500.02, -187500.02, -187500.02, 187500.00, -0.00, -0.00, -0.00
30, 104352.91, -187500.02, -187500.02, -187500.02, -187500.02, -187500.02, -187500.02, 187500.00, -0.00, -0.00, -0.00
31, 104321.51, -187500.02, -187500.02, -187500.02, -187500.02, -187500.02, -187500.02, 187500.00, -0.00, -0.00, -0.00
32, 104334.88, -187500.02, -187500.02, -187500.02, -187500.02, -187500.02, -187500.02, 187500.00, -0.00, -0.00, -0.00
33, 104354.55, -187500.02, -187500.02, -187500.02, -187500.02, -187500.02, -187500.02, 187500.00, -0.00, -0.00, -0.00
34, 104328.13, -187500.02, -187500.02, -187500.02, -187500.02, -187500.02, -187500.02, 187500.00, -0.00, -0.00, -0.00
35, 104319.84, -187500.02, -187500.02, -187500.02, -187500.02, -187500.02, -187500.02, 187500.00, -0.00, -0.00, -0.00
36, 104325.45, -187500.02, -187500.02, -187500.02, -187500.02, -187500.02, -187500.02, 187500.00, -0.00, -0.00, -0.00
37, 104346.12, -187500.02, -187500.02, -187500.02, -187500.02, -187500.02, -187500.02, 187500.00, -0.00, -0.00, -0.00
38, 104338.86, -187500.02, -187500.02, -187500.02, -187500.02, -187500.02, -187500.02, 187500.00, -0.00, -0.00, -0.00
39, 104314.42, -187500.02, -187500.02, -187500.02, -187500.02, -187500.02, -187500.02, 187500.00, -0.00, -0.00, -0.00
40, 104321.98, -187500.02, -187500.02, -187500.02, -187500.02, -187500.02, -187500.02, 187500.00, -0.00, -0.00, -0.00
41, 104336.58, -187500.02, -187500.02, -187500.02, -187500.02, -187500.02, -187500.02, 187500.00, -0.00, -0.00, -0.00
42, 104337.58, -187500.02, -187500.02, -187500.02, -187500.02, -187500.02, -187500.02, 187500.00, -0.00, -0.00, -0.00
43, 104323.50, -187500.02, -187500.02, -187500.02, -187500.02, -187500.02, -187500.02, 187500.00, -0.00, -0.00, -0.00
44, 104322.67, -187500.02, -187500.02, -187500.02, -187500.02, -187500.02, -187500.02, 187500.00, -0.00, -0.00, -0.00
45, 104358.50, -187500.02, -187500.02, -187500.02, -187500.02, -187500.02, -187500.02, 187500.00, -0.00, -0.00, -0.00
46, 104354.10, -187500.02, -187500.02, -187500.02, -187500.02, -187500.02, -187500.02, 187500.00, -0.00, -0.00, -0.00
47, 104321.87, -187500.02, -187500.02, -187500.02, -187500.02, -187500.02, -187500.02, 187500.00, -0.00, -0.00, -0.00
48, 104303.09, -187500.02, -187500.02, -187500.02, -187500.02, -187500.02, -187500.02, 187500.00, -0.00, -0.00, -0.00
49, 104314.42, -187500.02, -187500.02, -187500.02, -187500.02, -187500.02, -187500.02, 187500.00, -0.00, -0.00, -0.00
50, 104347.46, -187500.02, -187500.02, -187500.02, -187500.02, -187500.02, -187500.02, 187500.00, -0.00, -0.00, -0.00
51, 104347.46, -187500.02, -187500.02, -187500.02, -187500.02, -187500.02, -187500.02, 187500.00, -0.00, -0.00, -0.00
52, 104304.16, -187500.02, -187500.02, -187500.02, -187500.02, -187500.02, -187500.02, 187500.00, -0.00, -0.00, -0.00
53, 104306.00, -187500.02, -187500.02, -187500.02, -187500.02, -187500.02, -187500.02, 187500.00, -0.00, -0.00, -0.00
54, 104329.53, -187500.02, -187500.02, -187500.02, -187500.02, -187500.02, -187500.02, 187500.00, -0.00, -0.00, -0.00
55, 104334.27, -187500.02, -187500.02, -187500.02, -187500.02, -187500.02, -187500.02, 187500.00, -0.00, -0.00, -0.00
56, 104297.28, -187500.02, -187500.02, -187500.02, -187500.02, -187500.02, -187500.02, 187500.00, -0.00, -0.00, -0.00
57, 104288.74, -187500.02, -187500.02, -187500.02, -187500.02, -187500.02, -187500.02, 187500.00, -0.00, -0.00, -0.00
58, 104341.80, -187500.02, -187500.02, -187500.02, -187500.02, -187500.02, -187500.02, 187500.00, -0.00, -0.00, -0.00
59, 104320.15, -187500.02, -187500.02, -187500.02, -187500.02, -187500.02, -187500.02, 187500.00, -0.00, -0.00, -0.00
60, 104293.75, -187500.02, -187500.02, -187500.02, -187500.02, -187500.02, -187500.02, 187500.00, -0.00, -0.00, -0.00
61, 104273.66, -187500.02, -187500.02, -187500.02, -187500.02, -187500.02, -187500.02, 187500.00, -0.00, -0.00, -0.00
62, 104301.64, -187500.02, -187500.02, -187500.02, -187500.02, -187500.02, -187500.02, 187500.00, -0.00, -0.00, -0.00
63, 104357.70, -187500.02, -187500.02, -187500.02, -187500.02, -187500.02, -187500.02, 187500.00, -0.00, -0.00, -0.00
64, 104310.98, -187500.02, -187500.02, -187500.02, -187500.02, -187500.02, -187500.02, 187500.00, -0.00, -0.00, -0.00
65, 104281.75, -187500.02, -187500.02, -187500.02, -187500.02, -187500.02, -187500.02, 187500.00, -0.00, -0.00, -0.00
66, 104300.79, -187500.02, -187500.02, -187500.02, -187500.02, -187500.02, -187500.02, 187500.00, -0.00, -0.00, -0.00
67, 104314.16, -187500.02, -187500.02, -187500.02, -187500.02, -187500.02, -187500.02, 187500.00, -0.00, -0.00, -0.00
68, 104280.07, -187500.02, -187500.02, -187500.02, -187500.02, -187500.02, -187500.02, 187500.00, -0.00, -0.00, -0.00
69, 104263.98, -187500.02, -187500.02, -187500.02, -187500.02, -187500.02, -187500.02, 187500.00, -0.00, -0.00, -0.00
70, 104288.36, -187500.02, -187500.02, -187500.02, -187500.02, -187500.02, -187500.02, 187500.00, -0.00, -0.00, -0.00
71, 104310.52, -187500.02, -187500.02, -187500.02, -187500.02, -187500.02, -187500.02, 187500.00, -0.00, -0.00, -0.00
72, 104292.14, -187500.02, -187500.02, -187500.02, -187500.02, -187500.02, -187500.02, 187500.00, -0.00, -0.00, -0.00
73, 104255.69, -187500.02, -187500.02, -187500.02, -187500.02, -187500.02, -187500.02, 187500.00, -0.00, -0.00, -0.00
74, 104298.89, -187500.02, -187500.02, -187500.02, -187500.02, -187500.02, -187500.02, 187500.00, -0.00, -0.00, -0.00
75, 104328.02, -187500.02, -187500.02, -187500.02, -187500.02, -187500.02, -187500.02, 187500.00, -0.00, -0.00, -0.00
76, 104298.47, -187500.02, -187500.02, -187500.02, -187500.02, -187500.02, -187500.02, 187500.00, -0.00, -0.00, -0.00
77, 104265.66, -187500.02, -187500.02, -187500.02, -187500.02, -187500.02, -187500.02, 187500.00, -0.00, -0.00, -0.00
78, 104289.64, -187500.02, -187500.02, -187500.02, -187500.02, -187500.02, -187500.02, 187500.00, -0.00, -0.00, -0.00
79, 104310.40, -187500.02, -187500.02, -187500.02, -187500.02, -187500.02, -187500.02, 187500.00, -0.00, -0.00, -0.00
80, 104304.88, -187500.02, -187500.02, -187500.02, -187500.02, -187500.02, -187500.02, 187500.00, -0.00, -0.00, -0.00
81, 104283.70, -187500.02, -187500.02, -187500.02, -187500.02, -187500.02, -187500.02, 187500.00, -0.00, -0.00, -0.00
82, 104280.79, -187500.02, -187500.02, -187500.02, -187500.02, -187500.02, -187500.02, 187500.00, -0.00, -0.00, -0.00
83, 104280.52, -187500.02, -187500.02, -187500.02, -187500.02, -187500.02, -187500.02, 187500.00, -0.00, -0.00, -0.00
84, 104288.32, -187500.02, -187500.02, -187500.02, -187500.02, -187500.02, -187500.02, 187500.00, -0.00, -0.00, -0.00
85, 104284.67, -187500.02, -187500.02, -187500.02, -187500.02, -187500.02, -187500.02, 187500.00, -0.00, -0.00, -0.00
86, 104272.20, -187500.02, -187500.02, -187500.02, -187500.02, -187500.02, -187500.02, 187500.00, -0.00, -0.00, -0.00
87, 104293.70, -187500.02, -187500.02, -187500.02, -187500.02, -187500.02, -187500.02, 187500.00, -0.00, -0.00, -0.00
88, 104299.56, -187500.02, -187500.02, -187500.02, -187500.02, -187500.02, -187500.02, 187500.00, -0.00, -0.00, -0.00
89, 104289.46, -187500.02, -187500.02, -187500.02, -187500.02, -187500.02, -187500.02, 187500.00, -0.00, -0.00, -0.00
90, 104296.79, -187500.02, -187500.02, -187500.02, -187500.02, -187500.02, -187500.02, 187500.00, -0.00, -0.00, -0.00
91, 104302.09, -187500.02, -187500.02, -187500.02, -187500.02, -187500.02, -187500.02, 187500.00, -0.00, -0.00, -0.00
92, 104290.29, -187500.02, -187500.02, -187500.02, -187500.02, -187500.02, -187500.02, 187500.00, -0.00, -0.00, -0.00
93, 104302.83, -187500.02, -187500.02, -187500.02, -187500.02, -187500.02, -187500.02, 187500.00, -0.00, -0.00, -0.00
94, 104297.93, -187500.02, -187500.02, -187500.02, -187500.02, -187500.02, -187500.02, 187500.00, -0.00, -0.00, -0.00
95, 104281.23, -187500.02, -187500.02, -187500.02, -187500.02, -187500.02, -187500.02, 187500.00, -0.00, -0.00, -0.00
96, 104301.10, -187500.02, -187500.02, -187500.02, -187500.02, -187500.02, -187500.02, 187500.00, -0.00, -0.00, -0.00
97, 104294.04, -187500.02, -187500.02, -187500.02, -187500.02, -187500.02, -187500.02, 187500.00, -0.00, -0.00, -0.00
98, 104249.49, -187500.02, -187500.02, -187500.02, -187500.02, -187500.02, -187500.02, 187500.00, -0.00, -0.00, -0.00
99, 104252.55, -187500.02, -187500.02, -187500.02, -187500.02, -187500.02, -187500.02, 187500.00, -0.00, -0.00, -0.00
100, 104300.77, -187500.02, -187500.02, -187500.02, -187500.02, -187500.02, -187500.02, 187500.00, -0.00, -0.00, -0.00
101, 104305.89, -187500.02, -187500.02, -187500.02, -187500.02, -187500.02, -187500.02, 187500.00, -0.00, -0.00, -0.00
102, 104271.60, -187500.02, -187500.02, -187500.02, -187500.02, -187500.02, -187500.02, 187500.00, -0.00, -0.00, -0.00
103, 104262.86, -187500.02, -187500.02, -187500.02, -187500.02, -187500.02, -187500.02, 187500.00, -0.00, -0.00, -0.00
104, 104288.92, -187500.02, -187500.02, -187500.02, -187500.02, -187500.02, -187500.02, 187500.00, -0.00, -0.00, -0.00
105, 104280.67, -187500.02, -187500.02, -187500.02, -187500.02, -187500.02, -187500.02, 187500.00, -0.00, -0.00, -0.00
106, 104306.70, -187500.02, -187500.02, -187500.02, -187500.02, -187500.02, -187500.02, 187500.00, -0.00, -0.00, -0.00
107, 104303.14, -187500.02, -187500.02, -187500.02, -187500.02, -187500.02, -187500.02, 187500.00, -0.00, -0.00, -0.00
108, 104313.58, -187500.02, -187500.02, -187500.02, -187500.02, -187500.02, -187500.02, 187500.00, -0.00, -0.00, -0.00
109, 104283.47, -187500.02, -187500.02, -187500.02, -187500.02, -187500.02, -187500.02, 187500.00, -0.00, -0.00, -0.00
110, 104276.78, -187500.02, -187500.02, -187500.02, -187500.02, -187500.02, -187500.02, 187500.00, -0.00, -0.00, -0.00
111, 104237.11, -187500.02, -187500.02, -187500.02, -187500.02, -187500.02, -187500.02, 187500.00, -0.00, -0.00, -0.00
112, 104255.93, -187500.02, -187500.02, -187500.02, -187500.02, -187500.02, -187500.02, 187500.00, -0.00, -0.00, -0.00
113, 104298.66, -187500.02, -187500.02, -187500.02, -187500.02, -187500.02, -187500.02, 187500.00, -0.00, -0.00, -0.00
114, 104273.56, -187500.02, -187500.02, -187500.02, -187500.02, -187500.02, -187500.02, 187500.00, -0.00, -0.00, -0.00
115, 104259.48, -187500.02, -187500.02, -187500.02, -187500.02, -187500.02, -187500.02, 187500.00, -0.00, -0.00, -0.00
116, 104277.14, -187500.02, -187500.02, -187500.02, -187500.02, -187500.02, -187500.02, 187500.00, -0.00, -0.00, -0.00
117, 104296.86, -187500.02, -187500.02, -187500.02, -187500.02, -187500.02, -187500.02, 187500.00, -0.00, -0.00, -0.00
118, 104260.05, -187500.02, -187500.02, -187500.02, -187500.02, -187500.02, -187500.02, 187500.00, -0.00, -0.00, -0.00
119, 104248.29, -187500.02, -187500.02, -187500.02, -187500.02, -187500.02, -187500.02, 187500.00, -0.00, -0.00, -0.00
120, 104259.38, -187500.02, -187500.02, -187500.02, -187500.02, -187500.02, -187500.02, 187500.00, -0.00, -0.00, -0.00
121, 104264.09, -187500.02, -187500.02, -187500.02, -187500.02, -187500.02, -187500.02, 187500.00, -0.00, -0.00, -0.00
122, 104258.28, -187500.02, -187500.02, -187500.02, -187500.02, -187500.02, -187500.02, 187500.00, -0.00, -0.00, -0.00
123, 104230.00, -187500.02, -187500.02, -187500.02, -187500.02, -187500.02, -187500.02, 187500.00, -0.00, -0.00, -0.00
124, 104238.92, -187500.02, -187500.02, -187500.02, -187500.02, -187500.02, -187500.02, 187500.00, -0.00, -0.00, -0.00
125, 104257.52, -187500.02, -187500.02, -187500.02, -187500.02, -187500.02, -187500.02, 187500.00, -0.00, -0.00, -0.00
126, 104265.56, -187500.02, -187500.02, -187500.02, -187500.02, -187500.02, -187500.02, 187500.00, -0.00, -0.00, -0.00
127, 104266.26, -187500.02, -187500.02, -187500.02, -187500.02, -187500.02, -187500.02, 187500.00, -0.00, -0.00, -0.00
128, 104273.59, -187500.02, -187500.02, -187500.02, -187500.02, -187500.02, -187500.02, 187500.00, -0.00, -0.00, -0.00
129, 104285.13, -187500.02, -187500.02, -187500.02, -187500.02, -187500.02, -187500.02, 187500.00, -0.00, -0.00, -0.00
130, 104249.23, -187500.02, -187500.02, -187500.02, -187500.02, -187500.02, -187500.02, 187500.00, -0.00, -0.00, -0.00
131, 104233.02, -187500.02, -187500.02, -187500.02, -187500.02, -187500.02, -187500.02, 187500.00, -0.00, -0.00, -0.00
132, 104214.70, -187500.02, -187500.02, -187500.02, -187500.02, -187500.02, -187500.02, 187500.00, -0.00, -0.00, -0.00
133, 104272.34, -187500.02, -187500.02, -187500.02, -187500.02, -187500.02, -187500.02, 187500.00, -0.00, -0.00, -0.00
134, 104274.66, -187500.02, -187500.02, -187500.02, -187500.02, -187500.02, -187500.02, 187500.00, -0.00, -0.00, -0.00
135, 104231.12, -187500.02, -187500.02, -187500.02, -187500.02, -187500.02, -187500.02, 187500.00, -0.00, -0.00, -0.00
136, 104221.17, -187500.02, -187500.02, -187500.02, -187500.02, -187500.02, -187500.02, 187500.00, -0.00, -0.00, -0.00
137, 104259.41, -187500.02, -187500.02, -187500.02, -187500.02, -187500.02, -187500.02, 187500.00, -0.00, -0.00, -0.00
138, 104276.77, -187500.02, -187500.02, -187500.02, -187500.02, -187500.02, -187500.02, 187500.00, -0.00, -0.00, -0.00
139, 104251.59, -187500.02, -187500.02, -187500.02, -187500.02, -187500.02, -187500.02, 187500.00, -0.00, -0.00, -0.00
140, 104225.17, -187500.02, -187500.02, -187500.02, -187500.02, -187500.02, -187500.02, 187500.00, -0.00, -0.00, -0.00
141, 104244.15, -187500.02, -187500.02, -187500.02, -187500.02, -187500.02, -187500.02, 187500.00, -0.00, -0.00, -0.00
142, 104259.57, -187500.02, -187500.02, -187500.02, -187500.02, -187500.02, -187500.02, 187500.00, -0.00, -0.00, -0.00
143, 104242.30, -187500.02, -187500.02, -187500.02, -187500.02, -187500.02, -187500.02, 187500.00, -0.00, -0.00, -0.00
144, 104238.59, -187500.02, -187500.02, -187500.02, -187500.02, -187500.02, -187500.02, 187500.00, -0.00, -0.00, -0.00
145, 104240.84, -187500.02, -187500.02, -187500.02, -187500.02, -187500.02, -187500.02, 187500.00, -0.00, -0.00, -0.00
146, 104274.02, -187500.02, -187500.02, -187500.02, -187500.02, -187500.02, -187500.02, 187500.00, -0.00, -0.00, -0.00
147, 104254.97, -187500.02, -187500.02, -187500.02, -187500.02, -187500.02, -187500.02, 187500.00, -0.00, -0.00, -0.00
148, 104239.05, -187500.02, -187500.02, -187500.02, -187500.02, -187500.02, -187500.02, 187500.00, -0.00, -0.00, -0.00
149, 104248.27, -187500.02, -187500.02, -187500.02, -187500.02, -187500.02, -187500.02, 187500.00, -0.00, -0.00, -0.00
150, 104257.54, -187500.02, -187500.02, -187500.02, -187500.02, -187500.02, -187500.02, 187500.00, -0.00, -0.00, -0.00
151, 104242.43, -187500.02, -187500.02, -187500.02, -187500.02, -187500.02, -187500.02, 187500.00, -0.00, -0.00, -0.00
152, 104232.28, -187500.02, -187500.02, -187500.02, -187500.02, -187500.02, -187500.02, 187500.00, -0.00, -0.00, -0.00
153, 104221.35, -187500.02, -187500.02, -187500.02, -187500.02, -187500.02, -187500.02, 187500.00, -0.00, -0.00, -0.00
154, 104255.33, -187500.02, -187500.02, -187500.02, -187500.02, -187500.02, -187500.02, 187500.00, -0.00, -0.00, -0.00
155, 104247.10, -187500.02, -187500.02, -187500.02, -187500.02, -187500.02, -187500.02, 187500.00, -0.00, -0.00, -0.00
156, 104208.16, -187500.02, -187500.02, -187500.02, -187500.02, -187500.02, -187500.02, 187500.00, -0.00, -0.00, -0.00
157, 104219.19, -187500.02, -187500.02, -187500.02, -187500.02, -187500.02, -187500.02, 187500.00, -0.00, -0.00, -0.00
158, 104257.32, -187500.02, -187500.02, -187500.02, -187500.02, -187500.02, -187500.02, 187500.00, -0.00, -0.00, -0.00
159, 104259.48, -187500.02, -187500.02, -187500.02, -187500.02, -187500.02, -187500.02, 187500.00, -0.00, -0.00, -0.00
160, 104247.30, -187500.02, -187500.02, -187500.02, -187500.02, -187500.02, -187500.02, 187500.00, -0.00, -0.00, -0.00
161, 104209.04, -187500.02, -187500.02, -187500.02, -187500.02, -187500.02, -187500.02, 187500.00, -0.00, -0.00, -0.00
162, 104236.82, -187500.02, -187500.02, -187500.02, -187500.02, -187500.02, -187500.02, 187500.00, -0.00, -0.00, -0.00
163, 104257.95, -187500.02, -187500.02, -187500.02, -187500.02, -187500.02, -187500.02, 187500.00, -0.00, -0.00, -0.00
164, 104235.81, -187500.02, -187500.02, -187500.02, -187500.02, -187500.02, -187500.02, 187500.00, -0.00, -0.00, -0.00
165, 104205.75, -187500.02, -187500.02, -187500.02, -187500.02, -187500.02, -187500.02, 187500.00, -0.00, -0.00, -0.00
166, 104242.45, -187500.02, -187500.02, -187500.02, -187500.02, -187500.02, -187500.02, 187500.00, -0.00, -0.00, -0.00
167, 104280.09, -187500.02, -187500.02, -187500.02, -187500.02, -187500.02, -187500.02, 187500.00, -0.00, -0.00, -0.00
168, 104263.27, -187500.02, -187500.02, -187500.02, -187500.02, -187500.02, -187500.02, 187500.00, -0.00, -0.00, -0.00
169, 104244.11, -187500.02, -187500.02, -187500.02, -187500.02, -187500.02, -187500.02, 187500.00, -0.00, -0.00, -0.00
170, 104240.15, -187500.02, -187500.02, -187500.02, -187500.02, -187500.02, -187500.02, 187500.00, -0.00, -0.00, -0.00
171, 104261.07, -187500.02, -187500.02, -187500.02, -187500.02, -187500.02, -187500.02, 187500.00, -0.00, -0.00, -0.00
172, 104248.13, -187500.02, -187500.02, -187500.02, -187500.02, -187500.02, -187500.02, 187500.00, -0.00, -0.00, -0.00
173, 104201.77, -187500.02, -187500.02, -187500.02, -187500.02, -187500.02, -187500.02, 187500.00, -0.00, -0.00, -0.00
174, 104210.42, -187500.02, -187500.02, -187500.02, -187500.02, -187500.02, -187500.02, 187500.00, -0.00, -0.00, -0.00
175, 104254.70, -187500.02, -187500.02, -187500.02, -187500.02, -187500.02, -187500.02, 187500.00, -0.00, -0.00, -0.00
176, 104264.09, -187500.02, -187500.02, -187500.02, -187500.02, -187500.02, -187500.02, 187500.00, -0.00, -0.00, -0.00
177, 104223.95, -187500.02, -187500.02, -187500.02, -187500.02, -187500.02, -187500.02, 187500.00, -0.00, -0.00, -0.00
178, 104252.02, -187500.02, -187500.02, -187500.02, -187500.02, -187500.02, -187500.02, 187500.00, -0.00, -0.00, -0.00
179, 104291.11, -187500.02, -187500.02, -187500.02, -187500.02, -187500.02, -187500.02, 187500.00, -0.00, -0.00, -0.00
180, 104308.13, -187500.02, -187500.02, -187500.02, -187500.02, -187500.02, -187500.02, 187500.00, -0.00, -0.00, -0.00
181, 104279.38, -187500.02, -187500.02, -187500.02, -187500.02, -187500.02, -187500.02, 187500.00, -0.00, -0.00, -0.00
182, 104261.72, -187500.02, -187500.02, -187500.02, -187500.02, -187500.02, -187500.02, 187500.00, -0.00, -0.00, -0.00
183, 104307.52, -187500.02, -187500.02, -187500.02, -187500.02, -187500.02, -187500.02, 187500.00, -0.00, -0.00, -0.00
184, 104338.92, -187500.02, -187500.02, -187500.02, -187500.02, -187500.02, -187500.02, 187500.00, -0.00, -0.00, -0.00
185, 104290.40, -187500.02, -187500.02, -187500.02, -187500.02, -187500.02, -187500.02, 187500.00, -0.00, -0.00, -0.00
186, 104244.06, -187500.02, -187500.02, -187500.02, -187500.02, -187500.02, -187500.02, 187500.00, -0.00, -0.00, -0.00
187, 104279.49, -187500.02, -187500.02, -187500.02, -187500.02, -187500.02, -187500.02, 187500.00, -0.00, -0.00, -0.00
188, 104282.66, -187500.02, -187500.02, -187500.02, -187500.02, -187500.02, -187500.02, 187500.00, -0.00, -0.00, -0.00
189, 104248.09, -187500.02, -187500.02, -187500.02, -187500.02, -187500.02, -187500.02, 187500.00, -0.00, -0.00, -0.00
190, 104191.78, -187500.02, -187500.02, -187500.02, -187500.02, -187500.02, -187500.02, 187500.00, -0.00, -0.00, -0.00
191, 104221.35, -187500.02, -187500.02, -187500.02, -187500.02, -187500.02, -187500.02, 187500.00, -0.00, -0.00, -0.00
192, 104248.11, -187500.02, -187500.02, -187500.02, -187500.02, -187500.02, -187500.02, 187500.00, -0.00, -0.00, -0.00
193, 104223.16, -187500.02, -187500.02, -187500.02, -187500.02, -187500.02, -187500.02, 187500.00, -0.00, -0.00, -0.00
194, 104211.18, -187500.02, -187500.02, -187500.02, -187500.02, -187500.02, -187500.02, 187500.00, -0.00, -0.00, -0.00
195, 104226.09, -187500.02, -187500.02, -187500.02, -187500.02, -187500.02, -187500.02, 187500.00, -0.00, -0.00, -0.00
196, 104233.31, -187500.02, -187500.02, -187500.02, -187500.02, -187500.02, -187500.02, 187500.00, -0.00, -0.00, -0.00
197, 104230.74, -187500.02, -187500.02, -187500.02, -187500.02, -187500.02, -187500.02, 187500.00, -0.00, -0.00, -0.00
198, 104200.16, -187500.02, -187500.02, -187500.02, -187500.02, -187500.02, -187500.02, 187500.00, -0.00, -0.00, -0.00
199, 104200.32, -187500.02, -187500.02, -187500.02, -187500.02, -187500.02, -187500.02, 187500.00, -0.00, -0.00, -0.00
200, 104238.09, -187500.02, -187500.02, -187500.02, -187500.02, -187500.02, -187500.02, 187500.00, -0.00, -0.00, -0.00
201, 104231.41, -187500.02, -187500.02, -187500.02, -187500.02, -187500.02, -187500.02, 187500.00, -0.00, -0.00, -0.00
202, 104216.52, -187500.02, -187500.02, -187500.02, -187500.02, -187500.02, -187500.02, 187500.00, -0.00, -0.00, -0.00
203, 104213.80, -187500.02, -187500.02, -187500.02, -187500.02, -187500.02, -187500.02, 187500.00, -0.00, -0.00, -0.00
204, 104256.89, -187500.02, -187500.02, -187500.02, -187500.02, -187500.02, -187500.02, 187500.00, -0.00, -0.00, -0.00
205, 104248.71, -187500.02, -187500.02, -187500.02, -187500.02, -187500.02, -187500.02, 187500.00, -0.00, -0.00, -0.00
206, 104196.25, -187500.02, -187500.02, -187500.02, -187500.02, -187500.02, -187500.02, 187500.00, -0.00, -0.00, -0.00
207, 104215.88, -187500.02, -187500.02, -187500.02, -187500.02, -187500.02, -187500.02, 187500.00, -0.00, -0.00, -0.00
208, 104231.50, -187500.02, -187500.02, -187500.02, -187500.02, -187500.02, -187500.02, 187500.00, -0.00, -0.00, -0.00
209, 104220.19, -187500.02, -187500.02, -187500.02, -187500.02, -187500.02, -187500.02, 187500.00, -0.00, -0.00, -0.00
210, 104208.97, -187500.02, -187500.02, -187500.02, -187500.02, -187500.02, -187500.02, 187500.00, -0.00, -0.00, -0.00
211, 104196.97, -187500.02, -187500.02, -187500.02, -187500.02, -187500.02, -187500.02, 187500.00, -0.00, -0.00, -0.00
212, 104210.84, -187500.02, -187500.02, -187500.02, -187500.02, -187500.02, -187500.02, 187500.00, -0.00, -0.00, -0.00
213, 104232.51, -187500.02, -187500.02, -187500.02, -187500.02, -187500.02, -187500.02, 187500.00, -0.00, -0.00, -0.00
214, 104221.84, -187500.02, -187500.02, -187500.02, -187500.02, -187500.02, -187500.02, 187500.00, -0.00, -0.00, -0.00
215, 104188.61, -187500.02, -187500.02, -187500.02, -187500.02, -187500.02, -187500.02, 187500.00, -0.00, -0.00, -0.00
216, 104211.48, -187500.02, -187500.02, -187500.02, -187500.02, -187500.02, -187500.02, 187500.00, -0.00, -0.00, -0.00
217, 104233.80, -187500.02, -187500.02, -187500.02, -187500.02, -187500.02, -187500.02, 187500.00, -0.00, -0.00, -0.00
218, 104226.43, -187500.02, -187500.02, -187500.02, -187500.02, -187500.02, -187500.02, 187500.00, -0.00, -0.00, -0.00
219, 104193.34, -187500.02, -187500.02, -187500.02, -187500.02, -187500.02, -187500.02, 187500.00, -0.00, -0.00, -0.00
220, 104196.56, -187500.02, -187500.02, -187500.02, -187500.02, -187500.02, -187500.02, 187500.00, -0.00, -0.00, -0.00
221, 104235.10, -187500.02, -187500.02, -187500.02, -187500.02, -187500.02, -187500.02, 187500.00, -0.00, -0.00, -0.00
222, 104223.45, -187500.02, -187500.02, -187500.02, -187500.02, -187500.02, -187500.02, 187500.00, -0.00, -0.00, -0.00
223, 104182.55, -187500.02, -187500.02, -187500.02, -187500.02, -187500.02, -187500.02, 187500.00, -0.00, -0.00, -0.00
224, 104199.38, -187500.02, -187500.02, -187500.02, -187500.02, -187500.02, -187500.02, 187500.00, -0.00, -0.00, -0.00
225, 104215.88, -187500.02, -187500.02, -187500.02, -187500.02, -187500.02, -187500.02, 187500.00, -0.00, -0.00, -0.00
226, 104218.45, -187500.02, -187500.02, -187500.02, -187500.02, -187500.02, -187500.02, 187500.00, -0.00, -0.00, -0.00
227, 104188.74, -187500.02, -187500.02, -187500.02, -187500.02, -187500.02, -187500.02, 187500.00, -0.00, -0.00, -0.00
228, 104192.30, -187500.02, -187500.02, -187500.02, -187500.02, -187500.02, -187500.02, 187500.00, -0.00, -0.00, -0.00
229, 104204.01, -187500.02, -187500.02, -187500.02, -187500.02, -187500.02, -187500.02, 187500.00, -0.00, -0.00, -0.00
230, 104219.01, -187500.02, -187500.02, -187500.02, -187500.02, -187500.02, -187500.02, 187500.00, -0.00, -0.00, -0.00
231, 104206.66, -187500.02, -187500.02, -187500.02, -187500.02, -187500.02, -187500.02, 187500.00, -0.00, -0.00, -0.00
232, 104191.29, -187500.02, -187500.02, -187500.02, -187500.02, -187500.02, -187500.02, 187500.00, -0.00, -0.00, -0.00
233, 104204.30, -187500.02, -187500.02, -187500.02, -187500.02, -187500.02, -187500.02, 187500.00, -0.00, -0.00, -0.00
234, 104223.52, -187500.02, -187500.02, -187500.02, -187500.02, -187500.02, -187500.02, 187500.00, -0.00, -0.00, -0.00
235, 104194.27, -187500.02, -187500.02, -187500.02, -187500.02, -187500.02, -187500.02, 187500.00, -0.00, -0.00, -0.00
236, 104161.54, -187500.02, -187500.02, -187500.02, -187500.02, -187500.02, -187500.02, 187500.00, -0.00, -0.00, -0.00
237, 104184.43, -187500.02, -187500.02, -187500.02, -187500.02, -187500.02, -187500.02, 187500.00, -0.00, -0.00, -0.00
238, 104194.51, -187500.02, -187500.02, -187500.02, -187500.02, -187500.02, -187500.02, 187500.00, -0.00, -0.00, -0.00
239, 104200.72, -187500.02, -187500.02, -187500.02, -187500.02, -187500.02, -187500.02, 187500.00, -0.00, -0.00, -0.00
240, 104171.62, -187500.02, -187500.02, -187500.02, -187500.02, -187500.02, -187500.02, 187500.00, -0.00, -0.00, -0.00
241, 104181.45, -187500.02, -187500.02, -187500.02, -187500.02, -187500.02, -187500.02, 187500.00, -0.00, -0.00, -0.00
