%OpenBCI Raw EEG Data
%
%Sample Rate = 250.0 Hz
%First Column = SampleIndex
%Other Columns = EEG data in microvolts followed by Accel Data (in G) interleaved with Aux Data
0, -168985.83, -62386.31, -167946.20, -167644.77, -168034.80, -165167.89, -167783.50, -168522.95, -0.50, -0.11, 0.17
1, -169199.70, -62463.45, -167931.89, -167710.75, -168116.25, -165255.38, -167693.67, -168510.63, -0.50, -0.11, 0.17
2, -169146.89, -62555.20, -167890.16, -167677.80, -168212.05, -165360.53, -167620.31, -168438.25, -0.99, -0.23, 0.34
3, -169092.22, -62689.93, -167896.63, -167629.73, -168301.30, -165474.67, -167552.92, -168426.02, -0.99, -0.23, 0.34
4, -169022.64, -62799.66, -167931.58, -167689.05, -168452.00, -165572.23, -167428.28, -168513.27, -0.99, -0.23, 0.34
5, -168942.22, -62883.81, -167911.78, -167662.86, -168921.83, -165669.09, -167443.45, -168530.03, -0.99, -0.23, 0.34
6, -168862.38, -62953.33, -167928.69, -167614.00, -169018.86, -165778.13, -167651.00, -168530.41, -0.99, -0.23, 0.34
7, -168799.97, -63076.26, -167877.47, -167718.14, -168933.61, -165909.14, -167786.81, -168412.78, -0.99, -0.24, 0.33
8, -168759.00, -63214.11, -167854.53, -167706.42, -168862.64, -166062.97, -167751.00, -168372.69, -0.99, -0.24, 0.33
9, -168714.02, -63340.08, -167863.41, -167624.58, -168800.17, -166211.88, -167694.73, -168394.69, -0.99, -0.24, 0.33
10, -168654.97, -63433.96, -167888.58, -167622.34, -168736.13, -166347.58, -167625.36, -168418.42, -0.99, -0.24, 0.33
11, -168601.86, -63553.47, -167861.17, -167721.97, -168668.73, -166488.77, -167561.64, -168364.06, -0.99, -0.24, 0.33
12, -168564.64, -63700.23, -167836.83, -167698.98, -168605.63, -166646.42, -167513.33, -168327.81, -1.00, -0.22, 0.33
13, -168522.36, -63825.27, -167851.84, -167613.94, -168544.69, -166796.64, -167441.06, -168357.30, -1.00, -0.22, 0.33
14, -168453.45, -63907.37, -167910.25, -167586.22, -168467.86, -166918.83, -167344.31, -168507.16, -1.00, -0.22, 0.33
15, -168370.86, -63991.01, -167891.53, -167674.78, -168373.97, -167027.31, -167469.70, -168504.88, -1.00, -0.22, 0.33
16, -168309.72, -64113.61, -167836.89, -167663.36, -168288.45, -167159.22, -167707.44, -168397.91, -1.00, -0.22, 0.33
17, -168263.41, -64238.06, -167835.38, -167587.58, -168222.83, -167307.86, -167758.17, -168368.67, -1.00, -0.22, 0.33
18, -168194.75, -64330.91, -167856.34, -167599.31, -168157.64, -167435.59, -167687.23, -168400.08, -1.00, -0.22, 0.33
19, -167928.63, -64435.36, -167827.42, -167667.72, -168095.91, -167478.13, -167622.03, -168340.39, -1.00, -0.22, 0.33
20, -167768.03, -64566.05, -167799.61, -167635.80, -168034.91, -167504.22, -167575.22, -168305.19, -1.00, -0.22, 0.33
21, -167904.53, -64666.63, -167829.91, -167568.25, -167973.95, -167555.63, -167522.20, -168347.88, -1.00, -0.22, 0.33
22, -168034.59, -64727.05, -167857.89, -167591.81, -167909.11, -167589.00, -167430.55, -168392.19, -1.00, -0.23, 0.32
23, -168159.03, -64785.23, -167837.97, -167634.70, -167837.59, -167616.16, -167338.61, -168435.61, -1.00, -0.23, 0.32
24, -168284.52, -64878.77, -167833.75, -167572.23, -167747.16, -167643.63, -167494.69, -168413.66, -1.00, -0.23, 0.32
25, -168408.08, -64953.96, -167843.09, -167571.06, -167434.31, -167668.56, -167699.03, -168404.88, -1.00, -0.23, 0.32
26, -168553.67, -65015.34, -167824.98, -167606.14, -167057.58, -167684.23, -167674.00, -168391.58, -1.00, -0.23, 0.32
27, -168939.75, -65083.41, -167818.55, -167534.55, -167126.16, -167703.92, -167598.92, -168370.44, -1.00, -0.23, 0.33
28, -169117.97, -65210.18, -167821.61, -167606.94, -167230.05, -167727.02, -167528.69, -168351.70, -1.00, -0.23, 0.33
29, -169071.55, -65343.20, -167788.91, -167621.63, -167341.84, -167757.64, -167468.06, -168303.47, -1.00, -0.23, 0.33
30, -169016.28, -65450.96, -167808.78, -167537.63, -167456.53, -167758.80, -167373.83, -168340.91, -1.00, -0.23, 0.33
31, -168934.86, -65514.14, -167858.06, -167556.50, -167554.91, -167759.20, -167292.31, -168472.63, -1.00, -0.23, 0.33
32, -168849.63, -65610.73, -167822.39, -167620.13, -167631.86, -167757.69, -167441.92, -168441.73, -1.00, -0.23, 0.33
33, -168787.34, -65734.06, -167770.83, -167564.42, -167727.53, -167736.88, -167668.61, -168334.95, -0.99, -0.23, 0.33
34, -168733.45, -65850.67, -167791.08, -167490.36, -167845.33, -167723.63, -167684.28, -168334.56, -0.99, -0.23, 0.33
35, -168665.63, -65929.28, -167805.53, -167530.47, -167959.83, -167736.06, -167605.64, -168356.48, -0.99, -0.23, 0.33
36, -168608.80, -66048.28, -167772.20, -167632.98, -168072.23, -167707.81, -167536.88, -168281.05, -0.99, -0.23, 0.33
37, -168567.48, -66196.52, -167752.11, -167611.14, -168222.38, -167696.69, -167483.83, -168257.69, -0.99, -0.23, 0.33
38, -168527.59, -66332.47, -167733.83, -167538.05, -168703.00, -167690.09, -167433.47, -168228.52, -0.98, -0.23, 0.33
39, -168490.30, -66443.06, -167753.13, -167484.41, -168959.25, -167683.39, -167372.19, -168245.11, -0.98, -0.23, 0.33
40, -168436.64, -66553.01, -167776.48, -167582.06, -168897.06, -167701.67, -167278.17, -168354.09, -0.98, -0.23, 0.33
41, -168384.22, -66683.79, -167756.25, -167611.81, -168816.73, -167690.78, -167427.09, -168295.55, -0.98, -0.23, 0.33
42, -168347.23, -66804.24, -167719.80, -167535.48, -168759.22, -167668.50, -167658.80, -168234.84, -0.98, -0.23, 0.33
43, -168314.69, -66920.09, -167740.98, -167474.19, -168715.41, -167669.84, -167666.00, -168225.80, -0.99, -0.23, 0.33
44, -168275.69, -67038.67, -167737.55, -167563.84, -168669.77, -167669.17, -167615.03, -168228.41, -0.99, -0.23, 0.33
45, -168253.00, -67212.34, -167706.72, -167622.45, -168618.33, -167649.83, -167581.30, -168164.47, -0.99, -0.23, 0.33
46, -168234.83, -67369.02, -167704.28, -167573.64, -168574.33, -167650.48, -167550.81, -168167.41, -0.99, -0.23, 0.33
47, -168207.02, -67493.26, -167723.66, -167494.28, -168534.98, -167660.78, -167511.88, -168210.08, -0.99, -0.23, 0.33
48, -168166.41, -67604.44, -167737.45, -167528.69, -168489.61, -167669.61, -167460.69, -168238.20, -1.00, -0.23, 0.32
49, -168138.89, -67768.90, -167701.16, -167615.09, -168438.92, -167641.23, -167421.63, -168152.81, -1.00, -0.23, 0.32
50, -168121.97, -67928.27, -167699.03, -167577.75, -168396.34, -167643.02, -167392.91, -168149.44, -1.00, -0.23, 0.32
51, -168081.36, -68061.80, -167717.41, -167499.77, -168356.70, -167655.47, -167337.89, -168204.22, -1.00, -0.23, 0.32
52, -167790.00, -68144.68, -167774.88, -167493.17, -168301.97, -167694.00, -167254.00, -168364.69, -1.00, -0.23, 0.32
53, -167632.58, -68229.91, -167751.67, -167569.86, -168216.92, -167678.94, -167396.08, -168328.05, -0.99, -0.23, 0.33
54, -167768.41, -68328.19, -167709.63, -167523.08, -168145.63, -167652.98, -167625.47, -168233.50, -0.99, -0.23, 0.33
55, -167918.39, -68420.54, -167738.14, -167451.06, -168084.36, -167662.47, -167631.50, -168268.47, -0.99, -0.23, 0.33
56, -168052.56, -68472.35, -167744.67, -167498.36, -168023.13, -167665.66, -167559.64, -168278.20, -0.99, -0.23, 0.33
57, -168201.19, -68572.31, -167706.52, -167581.80, -167961.97, -167643.70, -167502.36, -168197.23, -0.99, -0.23, 0.33
58, -168368.22, -68694.17, -167692.11, -167543.13, -167906.88, -167635.78, -167458.50, -168179.14, -0.99, -0.23, 0.33
59, -168706.88, -68803.61, -167693.47, -167464.11, -167855.09, -167638.13, -167411.44, -168202.17, -0.99, -0.23, 0.33
60, -169037.52, -68902.52, -167717.06, -167464.53, -167809.72, -167641.55, -167359.11, -168195.86, -0.99, -0.23, 0.33
61, -169028.78, -69050.44, -167694.27, -167569.69, -167756.97, -167629.52, -167291.72, -168168.22, -0.99, -0.23, 0.33
62, -168994.53, -69201.94, -167697.05, -167543.55, -167697.11, -167635.42, -167240.66, -168236.92, -0.99, -0.23, 0.33
63, -168943.11, -69317.65, -167712.58, -167457.81, -167626.64, -167642.34, -167431.17, -168272.31, -0.99, -0.23, 0.33
64, -168884.45, -69410.63, -167722.91, -167466.48, -167433.63, -167639.58, -167611.75, -168262.41, -0.99, -0.23, 0.33
65, -168834.66, -69526.98, -167703.86, -167540.28, -166996.09, -167644.30, -167580.52, -168220.44, -0.99, -0.23, 0.33
66, -168794.25, -69671.03, -167681.53, -167507.03, -167013.70, -167631.58, -167528.36, -168191.22, -0.99, -0.23, 0.33
67, -168748.59, -69797.41, -167699.17, -167440.47, -167138.25, -167641.20, -167471.52, -168222.16, -0.99, -0.23, 0.33
68, -168686.39, -69889.50, -167724.02, -167460.38, -167255.69, -167651.25, -167397.33, -168262.27, -0.99, -0.23, 0.33
69, -168629.06, -69990.48, -167692.33, -167529.09, -167375.58, -167632.52, -167327.81, -168195.89, -0.99, -0.23, 0.33
70, -168585.39, -70133.85, -167680.20, -167495.61, -167493.23, -167623.45, -167231.97, -168208.16, -0.99, -0.23, 0.33
71, -168517.78, -70238.99, -167737.75, -167422.14, -167588.95, -167659.11, -167218.20, -168368.06, -0.99, -0.23, 0.33
72, -168421.44, -70298.96, -167754.73, -167443.48, -167664.05, -167655.27, -167384.92, -168389.61, -0.99, -0.23, 0.33
73, -168344.03, -70371.29, -167693.70, -167497.28, -167762.38, -167635.03, -167572.03, -168266.66, -0.99, -0.23, 0.32
74, -168300.78, -70512.91, -167645.28, -167468.30, -167881.88, -167600.06, -167568.55, -168160.55, -0.99, -0.23, 0.32
75, -168258.81, -70645.01, -167660.34, -167406.88, -168006.14, -167603.56, -167515.39, -168187.19, -0.99, -0.23, 0.32
76, -168198.38, -70745.37, -167700.14, -167410.84, -168166.67, -167623.58, -167443.53, -168253.05, -0.99, -0.23, 0.32
77, -168141.44, -70835.52, -167655.31, -167496.64, -168664.41, -167592.91, -167374.42, -168159.16, -0.99, -0.23, 0.32
78, -168118.08, -70992.45, -167615.92, -167497.95, -168869.56, -167560.94, -167340.02, -168068.34, -0.99, -0.23, 0.33
79, -168101.70, -71151.44, -167615.72, -167453.98, -168830.00, -167560.61, -167312.77, -168062.38, -0.99, -0.23, 0.33
80, -168072.97, -71288.12, -167644.61, -167391.58, -168783.50, -167579.56, -167250.77, -168140.13, -0.99, -0.23, 0.33
81, -167997.61, -71374.30, -167689.64, -167425.05, -168721.17, -167605.38, -167171.47, -168278.36, -0.99, -0.23, 0.33
82, -167688.72, -71474.77, -167671.81, -167500.86, -168639.70, -167597.42, -167330.73, -168234.17, -0.99, -0.23, 0.33
83, -167572.34, -71581.39, -167626.48, -167453.70, -168569.34, -167568.09, -167561.72, -168138.58, -0.99, -0.23, 0.33
84, -167725.47, -71686.06, -167625.34, -167377.92, -168513.53, -167563.52, -167575.36, -168130.52, -0.99, -0.23, 0.33
85, -167865.59, -71753.27, -167672.64, -167387.27, -168454.83, -167587.88, -167508.69, -168206.22, -0.99, -0.23, 0.33
86, -168010.33, -71843.38, -167634.80, -167492.39, -168390.97, -167563.84, -167446.19, -168140.03, -0.99, -0.23, 0.33
87, -168175.45, -71964.88, -167613.53, -167478.33, -168333.63, -167554.53, -167402.84, -168109.13, -0.99, -0.23, 0.33
88, -168353.98, -72070.23, -167620.73, -167401.39, -168275.86, -167562.94, -167353.58, -168138.00, -0.99, -0.23, 0.33
89, -168750.72, -72151.27, -167647.63, -167375.72, -168219.63, -167566.91, -167293.77, -168146.33, -0.99, -0.23, 0.34
90, -168960.23, -72266.43, -167609.17, -167480.72, -168166.16, -167545.27, -167233.00, -168079.23, -0.99, -0.23, 0.34
91, -168937.92, -72417.62, -167605.83, -167483.11, -168112.16, -167543.86, -167156.42, -168120.36, -0.99, -0.23, 0.34
92, -168892.70, -72541.16, -167620.33, -167408.13, -168051.72, -167564.03, -167283.94, -168167.84, -0.99, -0.23, 0.34
93, -168839.66, -72642.97, -167628.48, -167370.28, -167995.22, -167554.64, -167509.91, -168154.66, -0.99, -0.23, 0.34
94, -168799.11, -72757.54, -167606.30, -167452.25, -167949.81, -167537.77, -167520.66, -168078.11, -0.99, -0.23, 0.34
95, -168779.38, -72923.84, -167578.33, -167455.63, -167906.67, -167521.89, -167489.11, -168038.53, -0.99, -0.23, 0.34
96, -168759.22, -73072.59, -167572.50, -167402.58, -167864.75, -167522.16, -167458.42, -168048.09, -0.99, -0.23, 0.34
97, -168729.48, -73192.53, -167608.17, -167345.45, -167824.30, -167537.36, -167416.39, -168106.30, -0.99, -0.23, 0.34
98, -168686.42, -73297.38, -167611.13, -167425.56, -167781.59, -167541.66, -167362.70, -168110.53, -0.99, -0.23, 0.34
99, -168661.61, -73457.73, -167579.09, -167491.16, -167736.69, -167514.34, -167326.86, -168029.14, -0.99, -0.23, 0.33
100, -168645.89, -73619.09, -167574.42, -167453.77, -167698.92, -167517.88, -167299.92, -168022.55, -0.99, -0.23, 0.33
101, -168621.84, -73759.41, -167583.56, -167381.70, -167658.50, -167529.45, -167264.63, -168057.78, -0.99, -0.23, 0.33
102, -168583.16, -73865.94, -167614.58, -167371.44, -167616.22, -167541.30, -167184.81, -168118.28, -0.99, -0.23, 0.33
103, -168531.55, -73992.25, -167622.03, -167468.30, -167547.06, -167544.11, -167143.45, -168183.03, -0.99, -0.23, 0.33
104, -168481.98, -74119.32, -167598.25, -167431.38, -167308.81, -167533.20, -167363.23, -168138.28, -0.99, -0.23, 0.33
105, -168432.75, -74236.65, -167600.44, -167346.09, -166891.31, -167543.91, -167523.70, -168132.70, -0.99, -0.23, 0.33
106, -168370.75, -74321.31, -167636.77, -167346.20, -166931.98, -167562.02, -167467.95, -168189.98, -0.99, -0.23, 0.33
107, -168314.06, -74436.09, -167596.38, -167446.30, -167047.45, -167536.20, -167399.19, -168115.42, -0.99, -0.23, 0.33
108, -168274.03, -74570.54, -167583.66, -167421.44, -167175.58, -167526.56, -167347.33, -168093.70, -0.99, -0.23, 0.33
109, -168227.66, -74689.47, -167589.47, -167342.30, -167301.38, -167533.97, -167288.63, -168115.28, -0.99, -0.23, 0.33
110, -168163.55, -74771.95, -167627.02, -167339.02, -167418.78, -167554.45, -167197.19, -168168.63, -0.99, -0.23, 0.33
111, -168092.64, -74865.16, -167613.98, -167422.55, -167517.88, -167544.92, -167091.20, -168208.94, -0.99, -0.23, 0.33
112, -168024.14, -74976.63, -167587.47, -167377.55, -167605.31, -167538.44, -167220.61, -168181.09, -0.99, -0.23, 0.33
113, -167955.11, -75077.41, -167601.69, -167295.84, -167700.39, -167538.25, -167447.69, -168187.81, -0.99, -0.23, 0.33
114, -167732.20, -75152.82, -167618.83, -167330.08, -167805.17, -167532.39, -167464.42, -168181.69, -0.99, -0.23, 0.33
115, -167452.88, -75222.20, -167583.70, -167407.72, -167913.73, -167518.92, -167386.44, -168126.48, -0.99, -0.23, 0.33
116, -167554.58, -75327.37, -167551.67, -167375.59, -168104.67, -167499.30, -167323.00, -168087.45, -0.99, -0.23, 0.33
117, -167705.78, -75429.63, -167546.09, -167304.30, -168615.94, -167490.47, -167266.17, -168059.72, -0.99, -0.23, 0.33
118, -167848.11, -75506.09, -167578.47, -167290.83, -168724.44, -167499.23, -167191.36, -168097.20, -0.99, -0.23, 0.33
119, -167975.70, -75560.72, -167582.47, -167376.89, -168655.03, -167503.16, -167078.70, -168153.33, -0.99, -0.23, 0.33
120, -168107.39, -75651.69, -167558.19, -167356.56, -168568.48, -167494.27, -167193.36, -168127.72, -0.99, -0.23, 0.33
121, -168268.91, -75745.73, -167538.67, -167279.53, -168491.06, -167478.52, -167432.80, -168083.48, -0.99, -0.23, 0.33
122, -168661.91, -75832.88, -167554.45, -167285.41, -168427.67, -167476.72, -167456.61, -168078.81, -0.99, -0.23, 0.33
123, -168871.05, -75936.18, -167516.55, -167374.13, -168380.98, -167452.53, -167402.83, -167996.38, -0.99, -0.23, 0.33
124, -168857.86, -76099.46, -167485.50, -167369.67, -168339.72, -167435.38, -167373.83, -167939.14, -0.99, -0.23, 0.33
125, -168841.39, -76252.88, -167485.02, -167322.56, -168301.67, -167437.19, -167346.88, -167954.98, -0.99, -0.23, 0.33
126, -168814.09, -76388.58, -167519.09, -167265.23, -168259.25, -167449.05, -167308.45, -168005.66, -0.99, -0.23, 0.33
127, -168771.02, -76493.50, -167534.20, -167323.56, -168211.42, -167455.38, -167254.20, -168032.67, -0.99, -0.23, 0.33
128, -168741.47, -76640.20, -167499.88, -167387.17, -168163.08, -167438.45, -167213.14, -167963.34, -0.99, -0.23, 0.33
129, -168724.91, -76801.98, -167486.33, -167353.14, -168121.64, -167433.53, -167184.81, -167935.05, -0.99, -0.23, 0.33
130, -168702.56, -76948.34, -167498.42, -167287.67, -168080.33, -167440.80, -167140.66, -167957.66, -0.99, -0.23, 0.33
131, -168656.00, -77047.53, -167552.50, -167263.95, -168029.14, -167470.27, -167046.25, -168102.72, -0.99, -0.23, 0.33
132, -168591.09, -77150.89, -167548.05, -167367.94, -167953.89, -167469.19, -167160.73, -168106.44, -0.99, -0.23, 0.33
133, -168552.13, -77283.37, -167492.28, -167369.00, -167893.58, -167431.61, -167409.84, -167977.53, -0.99, -0.23, 0.33
134, -168528.50, -77422.26, -167481.89, -167302.56, -167853.02, -167428.38, -167449.03, -167972.30, -0.99, -0.23, 0.33
135, -168493.08, -77533.64, -167522.19, -167265.52, -167812.42, -167447.69, -167401.75, -168023.38, -0.99, -0.23, 0.34
136, -168452.73, -77659.59, -167505.70, -167369.00, -167762.44, -167433.72, -167349.34, -167993.67, -0.99, -0.23, 0.34
137, -168434.05, -77820.59, -167476.77, -167385.77, -167718.41, -167416.48, -167318.53, -167930.34, -0.99, -0.23, 0.34
138, -168415.72, -77965.84, -167477.53, -167327.33, -167680.69, -167423.30, -167287.84, -167951.94, -0.99, -0.23, 0.34
139, -168389.36, -78085.75, -167487.78, -167251.75, -167646.08, -167427.34, -167249.02, -167964.80, -0.99, -0.23, 0.34
140, -168354.20, -78207.16, -167508.42, -167308.30, -167603.64, -167432.52, -167201.95, -167983.84, -0.99, -0.23, 0.35
141, -168329.59, -78369.51, -167478.39, -167385.03, -167556.11, -167415.88, -167166.19, -167925.88, -0.99, -0.23, 0.35
142, -168311.30, -78516.76, -167469.41, -167336.63, -167517.98, -167413.95, -167129.70, -167926.45, -0.99, -0.23, 0.35
143, -168274.75, -78626.66, -167516.80, -167257.31, -167473.50, -167439.17, -167041.20, -168057.03, -0.99, -0.23, 0.35
144, -168207.02, -78708.54, -167540.64, -167298.06, -167343.28, -167452.42, -167125.66, -168122.38, -0.99, -0.23, 0.35
145, -168150.84, -78833.52, -167505.58, -167359.73, -166881.72, -167438.00, -167364.17, -168033.28, -0.99, -0.23, 0.34
146, -168107.02, -78958.72, -167489.53, -167303.00, -166790.19, -167437.56, -167409.20, -168016.14, -0.99, -0.23, 0.34
147, -168055.63, -79060.89, -167511.83, -167224.14, -166915.13, -167449.03, -167346.41, -168055.25, -0.99, -0.23, 0.34
148, -167992.00, -79138.18, -167525.06, -167272.52, -167034.25, -167452.95, -167270.97, -168073.33, -0.99, -0.23, 0.34
149, -167940.03, -79265.48, -167489.91, -167359.03, -167149.25, -167425.89, -167206.63, -167999.73, -0.99, -0.23, 0.34
150, -167899.91, -79399.95, -167473.95, -167315.36, -167274.03, -167418.34, -167154.52, -167970.47, -0.98, -0.23, 0.33
151, -167820.27, -79511.74, -167495.20, -167231.66, -167396.98, -167427.75, -167067.53, -168018.73, -0.98, -0.23, 0.33
152, -167471.63, -79566.42, -167561.36, -167220.13, -167491.61, -167451.47, -166977.56, -168171.33, -0.98, -0.23, 0.33
153, -167355.69, -79619.13, -167533.84, -167309.11, -167558.91, -167446.09, -167102.69, -168175.50, -0.98, -0.23, 0.33
154, -167470.58, -79689.02, -167485.66, -167274.73, -167638.06, -167438.05, -167322.25, -168088.95, -0.98, -0.23, 0.33
155, -167599.31, -79762.13, -167495.67, -167192.19, -167736.83, -167426.73, -167359.44, -168063.36, -0.99, -0.23, 0.34
156, -167714.77, -79804.71, -167508.97, -167224.59, -167838.33, -167430.56, -167272.00, -168084.58, -0.99, -0.23, 0.34
157, -167841.86, -79878.90, -167467.91, -167294.64, -168069.78, -167404.17, -167194.19, -168000.83, -0.99, -0.23, 0.34
158, -167996.73, -79982.83, -167422.36, -167252.48, -168568.56, -167375.06, -167142.30, -167918.22, -0.99, -0.23, 0.34
159, -168180.70, -80082.12, -167438.13, -167180.63, -168622.81, -167368.45, -167088.88, -167923.13, -0.99, -0.23, 0.34
160, -168572.58, -80149.04, -167492.28, -167180.94, -168558.09, -167400.91, -166974.44, -168066.83, -0.98, -0.23, 0.33
161, -168742.75, -80236.14, -167464.89, -167279.20, -168481.91, -167389.23, -167041.48, -168030.48, -0.98, -0.23, 0.33
162, -168704.61, -80373.61, -167416.11, -167274.91, -168414.48, -167356.73, -167301.02, -167926.80, -0.98, -0.23, 0.33
163, -168680.70, -80519.30, -167394.13, -167216.72, -168371.58, -167345.27, -167382.33, -167861.64, -0.98, -0.23, 0.33
164, -168649.72, -80633.16, -167432.59, -167174.55, -168332.81, -167356.92, -167340.83, -167923.08, -0.98, -0.23, 0.33
165, -168611.52, -80749.92, -167420.66, -167269.98, -168286.86, -167348.16, -167291.06, -167892.86, -0.99, -0.23, 0.33
166, -168590.23, -80915.37, -167401.50, -167298.70, -168239.88, -167336.53, -167258.39, -167857.48, -0.99, -0.23, 0.33
167, -168571.75, -81068.30, -167391.31, -167249.31, -168198.41, -167335.38, -167228.30, -167862.73, -0.99, -0.23, 0.33
168, -168542.77, -81190.16, -167416.81, -167173.03, -168158.52, -167348.83, -167188.16, -167909.94, -0.99, -0.23, 0.33
169, -168502.95, -81302.92, -167419.52, -167219.45, -168113.50, -167347.61, -167137.33, -167899.69, -0.99, -0.23, 0.33
170, -168477.86, -81467.28, -167390.69, -167301.27, -168064.02, -167327.05, -167101.09, -167839.58, -0.99, -0.23, 0.32
171, -168459.84, -81623.90, -167392.52, -167262.84, -168022.55, -167330.39, -167072.52, -167840.31, -0.99, -0.23, 0.32
172, -168436.81, -81758.19, -167395.81, -167189.48, -167983.39, -167339.81, -167025.11, -167860.05, -0.99, -0.23, 0.32
173, -168390.30, -81855.53, -167450.09, -167177.13, -167930.64, -167370.66, -166932.52, -168032.34, -0.99, -0.23, 0.32
174, -168328.77, -81968.34, -167440.33, -167272.50, -167851.98, -167362.34, -167055.23, -168004.83, -0.99, -0.23, 0.32
175, -168290.44, -82098.85, -167391.53, -167247.50, -167790.11, -167333.42, -167307.58, -167881.31, -0.98, -0.23, 0.32
176, -168262.27, -82234.26, -167387.94, -167174.84, -167743.94, -167330.55, -167349.03, -167876.28, -0.98, -0.23, 0.32
177, -168222.27, -82337.54, -167415.92, -167172.41, -167700.13, -167337.52, -167299.03, -167916.00, -0.98, -0.23, 0.32
178, -168188.16, -82471.99, -167394.53, -167285.45, -167650.61, -167322.97, -167252.94, -167872.48, -0.98, -0.23, 0.32
179, -168171.70, -82629.61, -167375.09, -167278.77, -167608.28, -167316.41, -167223.28, -167825.88, -0.98, -0.23, 0.32
180, -168153.36, -82775.59, -167366.86, -167216.09, -167569.95, -167317.59, -167191.98, -167835.69, -0.98, -0.23, 0.33
181, -168124.56, -82891.58, -167392.36, -167147.59, -167532.11, -167326.69, -167151.19, -167881.23, -0.98, -0.23, 0.33
182, -168090.14, -83024.01, -167389.66, -167228.38, -167484.83, -167319.25, -167104.67, -167856.44, -0.98, -0.23, 0.33
183, -168068.48, -83181.88, -167376.52, -167269.36, -167439.28, -167314.45, -167071.44, -167826.77, -0.98, -0.23, 0.33
184, -168047.56, -83322.20, -167363.06, -167209.13, -167399.30, -167309.59, -167037.53, -167811.97, -0.98, -0.23, 0.33
185, -168015.22, -83434.74, -167407.05, -167138.89, -167356.80, -167331.61, -166951.45, -167935.09, -0.98, -0.23, 0.33
186, -167954.09, -83531.82, -167442.41, -167202.08, -167189.59, -167348.47, -166951.70, -168025.80, -0.98, -0.23, 0.33
187, -167892.75, -83652.09, -167417.06, -167246.05, -166715.70, -167354.25, -167176.14, -167975.30, -0.98, -0.23, 0.33
188, -167843.36, -83768.52, -167389.06, -167173.36, -166690.05, -167340.00, -167318.05, -167926.55, -0.98, -0.23, 0.33
189, -167786.16, -83858.67, -167427.97, -167126.36, -166812.83, -167354.91, -167261.39, -167973.20, -0.98, -0.23, 0.33
190, -167641.55, -83942.76, -167406.16, -167219.97, -166931.19, -167336.64, -167184.84, -167945.89, -0.98, -0.23, 0.33
191, -167321.91, -84060.33, -167388.56, -167237.02, -167044.69, -167326.36, -167122.27, -167903.42, -0.99, -0.24, 0.33
192, -167361.05, -84148.77, -167384.31, -167159.91, -167155.73, -167330.66, -167055.39, -167909.05, -0.99, -0.24, 0.33
193, -167482.05, -84201.41, -167435.53, -167106.31, -167255.80, -167344.63, -166931.47, -167983.72, -0.99, -0.24, 0.33
194, -167574.64, -84217.84, -167451.64, -167175.98, -167335.23, -167343.66, -166884.31, -168075.66, -0.99, -0.24, 0.33
195, -167677.23, -84274.50, -167405.58, -167207.45, -167404.72, -167336.80, -167056.81, -168046.22, -0.99, -0.24, 0.33
196, -167801.36, -84343.81, -167372.61, -167127.83, -167493.81, -167329.22, -167247.81, -167968.30, -0.98, -0.24, 0.33
197, -167921.92, -84398.91, -167406.61, -167089.31, -167594.09, -167325.38, -167210.36, -167977.98, -0.98, -0.24, 0.33
198, -168046.48, -84433.04, -167389.13, -167170.53, -167694.09, -167318.14, -167119.56, -167956.19, -0.98, -0.24, 0.33
199, -168407.63, -84531.32, -167338.77, -167185.39, -167891.69, -167280.72, -167052.28, -167850.44, -0.98, -0.24, 0.33
200, -168680.81, -84666.70, -167303.05, -167133.44, -168413.34, -167255.75, -167007.02, -167785.05, -0.98, -0.24, 0.33
201, -168667.00, -84802.63, -167315.55, -167069.92, -168526.98, -167249.84, -166963.38, -167772.97, -0.99, -0.24, 0.33
202, -168617.16, -84896.88, -167370.61, -167093.30, -168472.83, -167286.33, -166859.28, -167931.25, -0.99, -0.24, 0.33
203, -168556.98, -85005.88, -167348.25, -167184.63, -168396.50, -167275.13, -166944.97, -167898.97, -0.99, -0.24, 0.33
204, -168519.89, -85142.35, -167303.66, -167157.16, -168333.02, -167248.98, -167206.06, -167800.94, -0.99, -0.24, 0.33
205, -168496.66, -85279.91, -167292.55, -167091.78, -168288.72, -167237.33, -167271.73, -167771.39, -0.99, -0.24, 0.33
206, -168460.59, -85386.25, -167332.03, -167074.48, -168246.02, -167255.22, -167224.59, -167825.05, -0.99, -0.23, 0.33
207, -168423.86, -85514.04, -167313.50, -167179.05, -168197.56, -167246.83, -167175.55, -167797.94, -0.99, -0.23, 0.33
208, -168403.88, -85671.71, -167293.39, -167180.47, -168151.75, -167229.95, -167143.45, -167748.77, -0.99, -0.23, 0.33
209, -168384.48, -85816.88, -167279.02, -167122.84, -168112.11, -167228.81, -167112.52, -167744.56, -0.99, -0.23, 0.33
210, -168354.78, -85933.55, -167317.84, -167060.42, -168073.58, -167244.78, -167071.59, -167805.02, -0.99, -0.23, 0.33
211, -168316.03, -86051.24, -167319.39, -167145.38, -168024.70, -167249.25, -167020.81, -167813.69, -0.98, -0.22, 0.33
212, -168295.27, -86208.24, -167288.98, -167203.52, -167981.48, -167226.11, -166988.61, -167723.50, -0.98, -0.22, 0.33
213, -168278.52, -86356.19, -167281.36, -167154.50, -167943.56, -167222.64, -166960.27, -167730.80, -0.98, -0.22, 0.33
214, -168254.05, -86473.87, -167291.45, -167074.39, -167908.56, -167230.06, -166904.25, -167760.77, -0.98, -0.22, 0.33
215, -168205.30, -86565.11, -167346.86, -167085.25, -167856.39, -167263.31, -166829.03, -167916.72, -0.98, -0.22, 0.33
216, -168146.42, -86680.27, -167321.63, -167172.80, -167779.00, -167248.28, -166994.23, -167863.55, -0.99, -0.22, 0.32
217, -168109.92, -86809.75, -167285.20, -167131.98, -167722.20, -167227.67, -167221.34, -167790.50, -0.99, -0.22, 0.32
218, -168082.11, -86938.52, -167294.94, -167061.64, -167679.11, -167230.88, -167227.66, -167787.08, -0.99, -0.22, 0.32
219, -168043.56, -87043.39, -167315.92, -167101.66, -167634.59, -167237.33, -167175.91, -167809.20, -0.99, -0.22, 0.32
220, -168017.91, -87194.47, -167273.13, -167188.72, -167589.11, -167215.03, -167138.53, -167731.33, -0.99, -0.22, 0.32
221, -168001.45, -87345.23, -167274.22, -167153.89, -167550.53, -167217.11, -167109.44, -167741.48, -1.00, -0.23, 0.32
222, -167978.98, -87478.82, -167273.78, -167080.94, -167512.89, -167217.47, -167073.72, -167753.59, -1.00, -0.23, 0.32
223, -167944.86, -87587.01, -167309.94, -167051.81, -167473.80, -167230.31, -167028.61, -167793.89, -1.00, -0.23, 0.32
224, -167909.30, -87722.46, -167291.64, -167158.77, -167423.55, -167221.83, -166981.31, -167752.78, -1.00, -0.23, 0.32
225, -167891.08, -87869.42, -167261.88, -167155.97, -167385.55, -167206.69, -166950.69, -167707.39, -1.00, -0.23, 0.32
226, -167871.47, -88006.98, -167264.63, -167089.59, -167348.89, -167212.13, -166911.80, -167731.83, -0.99, -0.23, 0.32
227, -167834.17, -88103.45, -167315.16, -167029.59, -167307.73, -167233.42, -166819.02, -167863.67, -0.99, -0.23, 0.32
228, -167774.47, -88204.70, -167325.00, -167116.25, -167237.38, -167241.31, -166898.95, -167887.83, -0.99, -0.23, 0.32
229, -167728.80, -88331.21, -167289.64, -167134.47, -167004.67, -167217.11, -167155.44, -167805.42, -0.99, -0.23, 0.32
230, -167688.89, -88449.80, -167286.13, -167061.09, -166596.23, -167231.20, -167234.45, -167811.86, -0.99, -0.23, 0.32
231, -167554.81, -88523.39, -167326.52, -167041.11, -166642.22, -167252.00, -167163.80, -167878.34, -1.00, -0.23, 0.33
232, -167213.89, -88602.00, -167320.03, -167135.39, -166750.52, -167249.52, -167084.11, -167877.48, -1.00, -0.23, 0.33
233, -167244.03, -88706.41, -167285.39, -167121.89, -166855.75, -167226.05, -167017.81, -167813.69, -1.00, -0.23, 0.33
234, -167385.41, -88787.74, -167300.14, -167042.19, -166967.56, -167229.80, -166947.45, -167828.53, -1.00, -0.23, 0.33
235, -167501.53, -88822.68, -167340.38, -167025.63, -167069.41, -167245.88, -166814.03, -167923.75, -1.00, -0.23, 0.33
236, -167600.22, -88854.30, -167329.53, -167103.89, -167148.64, -167247.06, -166806.86, -167959.52, -1.00, -0.23, 0.33
237, -167710.91, -88925.45, -167288.88, -167076.42, -167222.16, -167242.70, -167011.67, -167904.47, -0.99, -0.23, 0.33
238, -167837.70, -89001.38, -167278.97, -166995.31, -167316.41, -167217.08, -167159.30, -167851.41, -0.99, -0.23, 0.33
239, -167963.97, -89049.48, -167313.03, -166997.16, -167414.94, -167223.77, -167092.22, -167879.86, -0.99, -0.23, 0.33
240, -168288.38, -89101.70, -167276.25, -167082.91, -167516.75, -167207.84, -167006.66, -167825.78, -0.99, -0.23, 0.33
241, -168576.34, -89227.65, -167227.78, -167077.55, -167652.98, -167168.31, -166950.36, -167718.81, -0.99, -0.23, 0.33
242, -168558.75, -89358.34, -167212.59, -167017.92, -168101.27, -167163.27, -166903.17, -167696.02, -0.99, -0.23, 0.33
243, -168523.34, -89481.00, -167230.88, -166968.39, -168424.95, -167162.03, -166844.03, -167716.42, -0.99, -0.23, 0.33
244, -168470.69, -89570.77, -167261.86, -167045.78, -168380.41, -167179.55, -166750.09, -167824.95, -0.99, -0.23, 0.33
245, -168418.42, -89696.36, -167237.31, -167095.09, -168305.08, -167166.33, -166895.17, -167776.30, -0.99, -0.23, 0.33
246, -168383.33, -89832.09, -167195.72, -167042.98, -168248.17, -167141.25, -167139.48, -167685.89, -0.99, -0.23, 0.33
247, -168356.19, -89958.62, -167218.56, -166975.17, -168204.41, -167151.91, -167162.17, -167709.45, -1.00, -0.23, 0.32
248, -168313.14, -90048.20, -167226.89, -167006.55, -168161.56, -167154.72, -167106.53, -167737.81, -1.00, -0.23, 0.32
249, -168284.77, -90190.23, -167196.23, -167096.81, -168115.64, -167130.52, -167065.63, -167650.86, -1.00, -0.23, 0.32
250, -168269.33, -90346.95, -167188.11, -167071.73, -168074.94, -167125.98, -167038.05, -167635.86, -1.00, -0.23, 0.32
251, -168249.91, -90482.70, -167177.16, -167005.05, -168038.67, -167128.53, -167005.92, -167644.92, -1.00, -0.23, 0.32
252, -168221.88, -90591.82, -167218.63, -166953.31, -168003.66, -167140.80, -166966.11, -167703.30, -0.99, -0.23, 0.33
253, -168186.97, -90717.73, -167208.05, -167053.84, -167958.02, -167134.84, -166919.73, -167684.39, -0.99, -0.23, 0.33
254, -168167.50, -90878.32, -167181.08, -167086.38, -167913.88, -167121.38, -166888.56, -167625.20, -0.99, -0.23, 0.33
255, -168148.44, -91024.73, -167180.56, -167027.81, -167873.86, -167129.69, -166854.72, -167639.75, -0.99, -0.23, 0.33
0, -168113.64, -91133.55, -167219.97, -166953.08, -167829.34, -167150.61, -166764.95, -167739.83, -0.99, -0.23, 0.33
1, -168053.80, -91232.93, -167248.69, -167013.61, -167757.81, -167164.05, -166786.28, -167823.98, -0.99, -0.23, 0.33
2, -168004.98, -91361.91, -167198.48, -167057.09, -167686.94, -167130.30, -167033.84, -167714.05, -0.99, -0.23, 0.33
3, -167979.36, -91502.36, -167170.50, -167000.72, -167639.39, -167119.22, -167168.73, -167651.59, -0.99, -0.23, 0.33
4, -167949.42, -91622.68, -167202.11, -166951.95, -167596.41, -167131.75, -167132.91, -167702.70, -0.99, -0.23, 0.33
5, -167911.31, -91734.15, -167196.56, -167041.67, -167551.22, -167126.27, -167081.70, -167682.52, -0.99, -0.23, 0.33
6, -167892.31, -91891.28, -167164.48, -167082.77, -167508.84, -167102.80, -167050.11, -167600.23, -0.99, -0.23, 0.32
7, -167874.27, -92037.82, -167171.66, -167034.47, -167470.64, -167114.89, -167020.36, -167650.28, -0.99, -0.23, 0.32
8, -167846.39, -92161.20, -167179.73, -166958.16, -167430.03, -167119.61, -166981.55, -167663.69, -0.99, -0.23, 0.32
9, -167809.78, -92265.80, -167203.11, -166984.56, -167387.53, -167125.73, -166933.38, -167682.31, -0.99, -0.23, 0.32
10, -167783.78, -92417.40, -167164.63, -167075.78, -167343.53, -167102.48, -166895.23, -167612.63, -0.99, -0.23, 0.32
11, -167768.64, -92569.05, -167163.27, -167043.80, -167306.17, -167104.75, -166867.14, -167625.36, -0.99, -0.23, 0.32
12, -167746.22, -92700.99, -167169.41, -166972.05, -167268.63, -167110.47, -166828.77, -167633.31, -0.99, -0.23, 0.32
13, -167705.25, -92799.92, -167217.22, -166975.14, -167222.67, -167132.80, -166730.11, -167755.73, -0.99, -0.23, 0.32
14, -167652.06, -92919.64, -167200.31, -167050.58, -167150.42, -167128.33, -166785.66, -167738.38, -0.99, -0.23, 0.32
15, -167611.13, -93041.97, -167170.25, -167003.22, -167084.31, -167103.48, -167042.77, -167685.67, -0.99, -0.23, 0.32
16, -167577.80, -93166.29, -167181.98, -166932.36, -166791.80, -167110.89, -167135.59, -167692.08, -0.99, -0.23, 0.32
17, -167406.64, -93246.27, -167227.23, -166949.59, -166449.80, -167153.42, -167068.02, -167783.83, -0.99, -0.23, 0.32
18, -167097.44, -93337.26, -167199.06, -167044.27, -166520.11, -167137.84, -166991.86, -167738.81, -0.99, -0.23, 0.32
19, -167173.98, -93427.77, -167187.69, -167006.19, -166633.02, -167125.91, -166927.88, -167720.91, -0.99, -0.23, 0.32
20, -167311.88, -93500.18, -167205.42, -166920.23, -166743.98, -167139.05, -166854.81, -167748.70, -0.99, -0.23, 0.32
21, -167425.33, -93528.62, -167247.02, -166914.73, -166842.83, -167151.84, -166717.55, -167831.91, -0.99, -0.23, 0.32
22, -167524.95, -93565.34, -167229.88, -167007.47, -166917.86, -167149.09, -166716.67, -167869.39, -0.99, -0.23, 0.32
23, -167638.91, -93629.06, -167188.11, -166979.34, -166992.09, -167136.97, -166921.72, -167796.08, -0.99, -0.23, 0.32
24, -167763.89, -93693.66, -167184.94, -166886.83, -167086.22, -167117.86, -167058.52, -167756.88, -0.99, -0.23, 0.32
25, -167910.19, -93734.12, -167210.42, -166887.27, -167186.61, -167124.25, -166987.69, -167787.75, -0.99, -0.23, 0.32
26, -168299.48, -93802.65, -167163.08, -166988.95, -167293.06, -167101.05, -166906.42, -167710.19, -0.99, -0.23, 0.33
27, -168466.70, -93935.77, -167126.27, -166988.00, -167416.22, -167068.75, -166852.09, -167627.17, -0.99, -0.23, 0.33
28, -168428.86, -94055.66, -167129.94, -166917.48, -167564.03, -167076.48, -166798.13, -167627.91, -0.99, -0.23, 0.33
29, -168371.70, -94140.23, -167175.17, -166862.88, -168003.53, -167091.31, -166685.31, -167724.56, -0.99, -0.23, 0.33
30, -168301.55, -94210.03, -167169.20, -166948.69, -168301.61, -167085.83, -166704.13, -167743.89, -0.99, -0.23, 0.33
31, -168253.36, -94331.94, -167119.05, -166990.25, -168245.03, -167050.78, -166951.59, -167634.56, -0.99, -0.23, 0.33
32, -168227.94, -94471.55, -167089.00, -166939.73, -168195.80, -167032.92, -167085.52, -167572.86, -0.98, -0.23, 0.33
33, -168198.92, -94591.28, -167110.70, -166875.55, -168155.81, -167045.44, -167051.95, -167597.20, -0.98, -0.23, 0.33
34, -168160.50, -94698.39, -167119.41, -166935.72, -168109.70, -167045.20, -167001.48, -167599.61, -0.98, -0.23, 0.33
35, -168139.06, -94854.14, -167084.77, -166992.02, -168063.72, -167023.61, -166966.77, -167534.34, -0.98, -0.23, 0.33
36, -168124.66, -95008.30, -167084.31, -166954.36, -168026.14, -167021.73, -166940.45, -167532.63, -0.98, -0.23, 0.33
37, -168102.03, -95140.51, -167084.33, -166884.00, -167987.92, -167030.94, -166906.17, -167571.58, -0.98, -0.23, 0.33
38, -168065.69, -95248.70, -167117.94, -166885.94, -167946.33, -167042.53, -166857.33, -167608.66, -0.98, -0.23, 0.33
39, -168035.61, -95393.22, -167096.92, -166988.45, -167895.92, -167028.48, -166814.53, -167562.84, -0.98, -0.23, 0.33
40, -168017.91, -95536.80, -167080.53, -166964.55, -167857.03, -167020.47, -166784.78, -167532.73, -0.98, -0.23, 0.33
41, -167996.28, -95669.89, -167074.34, -166895.13, -167819.73, -167025.84, -166748.91, -167538.92, -0.98, -0.23, 0.33
42, -167960.80, -95772.64, -167122.47, -166842.80, -167779.03, -167038.41, -166658.22, -167633.52, -0.99, -0.23, 0.33
43, -167901.63, -95877.27, -167136.92, -166937.06, -167708.34, -167056.98, -166689.73, -167704.69, -0.99, -0.23, 0.33
44, -167858.59, -95998.82, -167087.58, -166956.80, -167643.08, -167029.03, -166943.39, -167603.45, -0.99, -0.23, 0.33
45, -167831.89, -96127.72, -167075.02, -166889.09, -167599.00, -167022.91, -167059.81, -167568.70, -0.99, -0.23, 0.33
46, -167797.20, -96227.54, -167109.33, -166856.80, -167559.59, -167028.19, -167018.17, -167598.05, -0.99, -0.23, 0.33
47, -167762.06, -96350.88, -167084.89, -166961.84, -167514.34, -167014.55, -166970.20, -167556.42, -0.99, -0.23, 0.32
48, -167742.81, -96509.94, -167069.42, -166974.61, -167470.75, -167008.39, -166938.45, -167534.19, -0.99, -0.23, 0.32
49, -167724.05, -96652.72, -167061.16, -166917.06, -167432.06, -167008.42, -166908.14, -167527.86, -0.99, -0.23, 0.32
50, -167694.92, -96762.27, -167087.64, -166850.67, -167394.64, -167018.89, -166867.08, -167573.44, -0.99, -0.23, 0.32
51, -167660.63, -96880.66, -167081.55, -166923.11, -167351.64, -167012.55, -166819.38, -167558.02, -0.99, -0.23, 0.32
52, -167643.36, -97046.11, -167052.78, -166962.31, -167309.33, -166996.11, -166789.61, -167497.11, -0.99, -0.23, 0.33
53, -167626.25, -97191.06, -167063.92, -166911.27, -167271.84, -167004.50, -166760.39, -167524.58, -0.99, -0.23, 0.33
54, -167600.34, -97305.84, -167077.08, -166836.23, -167235.80, -167010.95, -166710.17, -167542.80, -0.99, -0.23, 0.33
55, -167552.94, -97400.38, -167120.34, -166875.02, -167182.80, -167033.84, -166617.66, -167678.52, -0.99, -0.23, 0.33
56, -167497.73, -97520.39, -167096.14, -166951.56, -167107.42, -167022.72, -166754.88, -167636.20, -0.99, -0.23, 0.33
57, -167463.42, -97648.45, -167051.39, -166902.39, -167051.70, -166996.36, -166995.27, -167541.88, -0.99, -0.23, 0.32
58, -167431.92, -97771.58, -167067.45, -166831.73, -167013.03, -166998.86, -167012.75, -167552.72, -0.99, -0.23, 0.32
59, -167204.55, -97866.98, -167099.41, -166869.84, -166860.61, -167013.97, -166959.08, -167606.47, -0.99, -0.23, 0.32
60, -166997.67, -97977.62, -167084.63, -166935.77, -166410.59, -167022.63, -166900.94, -167605.13, -0.99, -0.23, 0.32
61, -167119.67, -98063.54, -167075.70, -166875.97, -166395.91, -167025.78, -166838.11, -167607.23, -0.99, -0.23, 0.32
62, -167253.14, -98123.87, -167113.02, -166796.47, -166504.95, -167037.94, -166761.91, -167659.06, -0.99, -0.23, 0.32
63, -167365.77, -98148.59, -167132.25, -166842.89, -166603.19, -167051.17, -166625.92, -167707.64, -0.99, -0.23, 0.32
64, -167471.48, -98201.70, -167117.55, -166917.92, -166677.83, -167042.88, -166598.41, -167738.81, -0.99, -0.23, 0.32
65, -167583.83, -98261.02, -167084.53, -166851.44, -166753.97, -167035.03, -166792.88, -167703.77, -0.99, -0.23, 0.32
66, -167702.47, -98311.09, -167100.11, -166772.19, -166844.17, -167022.17, -166953.80, -167684.39, -0.99, -0.23, 0.32
67, -167882.14, -98338.82, -167109.70, -166828.77, -166942.05, -167024.59, -166891.06, -167701.38, -0.99, -0.23, 0.32
68, -168289.52, -98430.53, -167051.95, -166917.77, -167051.95, -166989.45, -166817.72, -167571.53, -0.99, -0.23, 0.32
69, -168373.14, -98560.70, -167026.44, -166887.75, -167180.66, -166968.78, -166766.05, -167520.63, -0.99, -0.23, 0.32
70, -168328.95, -98675.04, -167027.98, -166810.44, -167308.55, -166974.70, -166710.69, -167544.22, -0.99, -0.23, 0.32
71, -168270.94, -98755.39, -167067.48, -166765.44, -167431.03, -166982.86, -166608.42, -167591.55, -0.99, -0.23, 0.32
72, -168192.89, -98838.56, -167079.19, -166858.19, -167634.41, -166999.06, -166543.16, -167697.36, -0.98, -0.23, 0.32
73, -168131.84, -98957.92, -167028.05, -166865.80, -168118.03, -166969.81, -166736.91, -167593.75, -0.98, -0.23, 0.32
74, -168094.91, -99081.08, -167002.86, -166794.72, -168190.72, -166942.06, -166958.52, -167508.23, -0.98, -0.23, 0.32
75, -168058.53, -99187.41, -167027.27, -166772.48, -168143.92, -166946.56, -166951.80, -167515.17, -0.98, -0.23, 0.32
76, -168023.38, -99298.27, -167003.11, -166867.55, -168100.63, -166936.61, -166902.61, -167488.45, -0.98, -0.23, 0.32
77, -168007.23, -99456.66, -166978.70, -166878.20, -168061.23, -166919.78, -166873.69, -167425.44, -0.98, -0.23, 0.32
78, -167990.28, -99605.00, -166978.05, -166831.42, -168022.02, -166924.63, -166845.00, -167446.13, -0.98, -0.23, 0.32
79, -167963.78, -99724.05, -166996.00, -166757.75, -167981.98, -166933.17, -166806.59, -167472.56, -0.98, -0.23, 0.32
80, -167925.31, -99823.38, -167015.63, -166799.95, -167938.23, -166941.58, -166755.45, -167511.55, -0.98, -0.23, 0.32
81, -167899.19, -99970.54, -166981.88, -166887.97, -167893.69, -166923.89, -166716.77, -167433.61, -0.98, -0.23, 0.32
82, -167883.36, -100116.92, -166971.48, -166853.13, -167856.88, -166915.83, -166688.52, -167417.44, -0.98, -0.23, 0.32
83, -167860.55, -100247.86, -166983.31, -166781.42, -167818.25, -166925.13, -166648.16, -167456.64, -0.99, -0.24, 0.33
84, -167820.00, -100342.50, -167028.80, -166765.39, -167773.39, -166949.17, -166551.61, -167567.98, -0.99, -0.24, 0.33
85, -167765.27, -100450.01, -167022.72, -166857.31, -167702.81, -166946.33, -166634.11, -167554.86, -0.99, -0.24, 0.33
86, -167728.36, -100572.01, -166982.20, -166830.78, -167643.44, -166923.45, -166889.77, -167479.89, -0.99, -0.24, 0.33
87, -167701.22, -100697.11, -166981.63, -166759.16, -167602.05, -166920.34, -166943.94, -167460.73, -0.99, -0.24, 0.33
88, -167662.98, -100793.27, -167004.67, -166765.20, -167560.56, -166925.44, -166893.91, -167495.88, -0.99, -0.23, 0.33
89, -167629.98, -100933.91, -166980.25, -166885.06, -167511.91, -166915.67, -166848.77, -167461.09, -0.99, -0.23, 0.33
90, -167613.98, -101087.19, -166960.06, -166879.11, -167472.08, -166896.20, -166820.58, -167400.30, -0.99, -0.23, 0.33
91, -167594.69, -101221.08, -166958.27, -166814.61, -167435.02, -166906.27, -166788.58, -167433.88, -0.99, -0.23, 0.33
92, -167570.94, -101333.91, -166968.20, -166736.44, -167400.34, -166907.33, -166752.23, -167444.05, -0.99, -0.23, 0.33
93, -167540.52, -101466.79, -166983.33, -166791.06, -167355.48, -166911.17, -166709.34, -167455.33, -0.99, -0.23, 0.33
94, -167518.09, -101618.54, -166961.38, -166870.66, -167312.84, -166894.95, -166674.03, -167401.58, -0.99, -0.23, 0.33
95, -167499.61, -101758.88, -166959.55, -166820.55, -167273.81, -166904.77, -166642.55, -167424.42, -0.99, -0.23, 0.33
96, -167466.59, -101866.24, -166986.14, -166751.81, -167229.63, -166917.03, -166569.02, -167480.72, -0.99, -0.23, 0.33
97, -167414.09, -101969.03, -167009.19, -166816.94, -167166.67, -166931.05, -166518.39, -167573.39, -0.99, -0.23, 0.33
98, -167366.42, -102087.55, -166976.27, -166832.09, -167098.66, -166914.27, -166729.02, -167508.91, -1.00, -0.23, 0.33
99, -167335.48, -102204.66, -166949.58, -166761.23, -167052.17, -166895.73, -166928.14, -167444.53, -1.00, -0.23, 0.33
100, -167244.28, -102308.13, -166981.73, -166713.56, -167013.39, -166904.61, -166911.00, -167477.92, -1.00, -0.23, 0.33
101, -166925.86, -102396.00, -166987.16, -166808.81, -166963.66, -166910.95, -166854.06, -167497.31, -1.00, -0.23, 0.33
102, -166958.25, -102508.02, -166957.95, -166842.63, -166910.80, -166887.17, -166809.50, -167434.08, -1.00, -0.23, 0.33
103, -167126.56, -102605.95, -166963.33, -166779.75, -166761.33, -166893.86, -166765.84, -167466.61, -1.00, -0.23, 0.33
104, -167267.19, -102666.37, -167015.48, -166706.03, -166304.11, -166940.02, -166698.09, -167564.81, -1.00, -0.23, 0.33
105, -167384.75, -102708.45, -167011.06, -166774.67, -166261.08, -166935.36, -166598.59, -167548.88, -1.00, -0.23, 0.33
106, -167509.22, -102787.91, -167002.03, -166829.38, -166354.64, -166927.09, -166484.61, -167588.72, -1.00, -0.23, 0.33
107, -167623.97, -102843.91, -167003.00, -166741.48, -166436.30, -166941.08, -166579.41, -167627.53, -1.00, -0.23, 0.33
108, -167824.58, -102874.55, -167022.53, -166683.70, -166515.84, -166934.27, -166790.05, -167625.81, -0.99, -0.23, 0.33
109, -168202.59, -102921.30, -166982.64, -166765.22, -166619.39, -166914.02, -166847.42, -167544.11, -0.99, -0.23, 0.33
110, -168240.23, -103046.66, -166934.94, -166789.47, -166741.86, -166877.72, -166792.64, -167442.70, -0.99, -0.23, 0.33
111, -168200.69, -103174.06, -166927.94, -166735.36, -166872.42, -166874.56, -166741.45, -167444.02, -0.99, -0.23, 0.33
112, -168148.19, -103278.02, -166965.02, -166668.22, -166995.78, -166891.23, -166677.59, -167496.39, -0.99, -0.23, 0.33
113, -168080.58, -103345.74, -166977.73, -166719.63, -167111.11, -166898.69, -166598.00, -167506.11, -0.99, -0.23, 0.33
114, -168025.66, -103453.39, -166946.17, -166791.95, -167225.89, -166879.59, -166492.42, -167482.17, -0.99, -0.23, 0.33
115, -167968.39, -103563.90, -166946.77, -166736.34, -167329.84, -166884.25, -166481.55, -167538.08, -0.99, -0.23, 0.33
116, -167895.88, -103646.98, -166969.81, -166656.25, -167538.77, -166895.48, -166679.91, -167550.44, -0.99, -0.23, 0.33
117, -167829.34, -103716.31, -166940.23, -166710.23, -168032.63, -166861.11, -166848.50, -167470.13, -0.99, -0.23, 0.33
118, -167798.39, -103847.74, -166890.09, -166776.06, -168105.50, -166829.13, -166835.58, -167361.16, -0.99, -0.23, 0.32
119, -167784.64, -104003.63, -166872.28, -166749.97, -168065.84, -166813.56, -166808.53, -167322.97, -0.99, -0.23, 0.32
120, -167763.89, -104141.67, -166885.97, -166690.97, -168024.52, -166832.20, -166775.33, -167371.05, -0.99, -0.23, 0.32
121, -167730.44, -104245.90, -166916.47, -166652.52, -167981.05, -166841.39, -166729.28, -167408.08, -0.99, -0.23, 0.32
122, -167693.67, -104361.32, -166889.56, -166762.50, -167934.28, -166821.91, -166678.98, -167375.95, -0.99, -0.23, 0.32
123, -167675.47, -104516.48, -166876.83, -166797.92, -167893.22, -166816.34, -166648.70, -167324.30, -0.98, -0.23, 0.33
124, -167659.33, -104654.38, -166875.41, -166745.81, -167857.33, -166815.06, -166620.00, -167331.91, -0.98, -0.23, 0.33
125, -167635.31, -104767.95, -166882.64, -166668.50, -167821.27, -166824.19, -166583.25, -167353.58, -0.98, -0.23, 0.33
126, -167600.66, -104872.62, -166903.64, -166703.13, -167780.41, -166836.23, -166533.97, -167373.59, -0.98, -0.23, 0.33
127, -167571.20, -105017.74, -166895.69, -166773.31, -167730.50, -166825.61, -166450.06, -167392.36, -0.98, -0.23, 0.33
128, -167527.81, -105133.93, -166909.88, -166709.42, -167666.83, -166841.70, -166510.70, -167453.81, -1.00, -0.22, 0.32
129, -167471.20, -105220.14, -166925.84, -166659.34, -167600.34, -166847.88, -166750.73, -167482.78, -1.00, -0.22, 0.32
130, -167427.13, -105314.63, -166887.89, -166743.03, -167551.39, -166819.42, -166824.58, -167374.86, -1.00, -0.22, 0.32
131, -167410.45, -105473.81, -166855.66, -166765.33, -167511.13, -166794.72, -166796.95, -167290.75, -1.00, -0.22, 0.32
132, -167398.25, -105623.48, -166856.30, -166725.70, -167476.36, -166796.44, -166771.39, -167310.48, -1.00, -0.22, 0.32
133, -167375.48, -105741.79, -166878.66, -166653.69, -167441.25, -166812.78, -166735.88, -167368.58, -1.00, -0.22, 0.32
134, -167338.86, -105838.95, -166890.72, -166676.38, -167401.23, -166818.48, -166686.14, -167378.27, -1.00, -0.23, 0.32
135, -167313.00, -105982.71, -166861.56, -166758.64, -167358.72, -166795.53, -166647.61, -167312.50, -1.00, -0.23, 0.32
136, -167297.03, -106128.59, -166854.83, -166726.94, -167320.19, -166798.75, -166619.94, -167314.47, -1.00, -0.23, 0.32
137, -167274.81, -106258.11, -166865.09, -166660.34, -167282.33, -166807.02, -166585.78, -167345.69, -1.00, -0.23, 0.32
138, -167239.70, -106358.65, -166891.66, -166665.13, -167243.44, -166809.55, -166536.86, -167365.81, -1.00, -0.23, 0.32
139, -167153.27, -106491.28, -166878.98, -166759.50, -167196.45, -166804.33, -166457.39, -167360.20, -1.00, -0.23, 0.33
140, -166838.48, -106611.76, -166886.86, -166723.38, -167135.75, -166820.39, -166453.61, -167423.64, -1.00, -0.23, 0.33
141, -166825.30, -106681.01, -166913.84, -166636.19, -167056.63, -166839.42, -166670.30, -167488.77, -1.00, -0.23, 0.33
142, -166955.81, -106721.80, -166913.52, -166662.53, -166987.91, -166830.64, -166795.31, -167458.55, -1.00, -0.23, 0.33
143, -167109.34, -106807.43, -166866.97, -166741.70, -166929.81, -166796.22, -166752.25, -167354.48, -1.00, -0.23, 0.33
144, -167277.97, -106923.77, -166855.39, -166714.25, -166875.95, -166790.83, -166710.17, -167334.47, -0.99, -0.23, 0.33
145, -167441.83, -107019.91, -166860.70, -166644.86, -166824.66, -166795.89, -166664.14, -167375.20, -0.99, -0.23, 0.33
146, -167629.81, -107079.88, -166886.86, -166620.14, -166771.09, -166794.67, -166604.94, -167395.03, -0.99, -0.23, 0.33
147, -168052.08, -107163.85, -166862.34, -166716.16, -166529.25, -166788.17, -166546.86, -167343.23, -0.99, -0.23, 0.33
148, -168203.94, -107300.30, -166854.02, -166713.77, -166146.13, -166796.28, -166499.48, -167332.27, -0.99, -0.23, 0.33
149, -168156.80, -107408.06, -166881.34, -166638.89, -166209.78, -166814.58, -166395.95, -167443.81, -1.00, -0.23, 0.33
150, -168075.55, -107467.34, -166938.80, -166598.20, -166304.66, -166838.02, -166414.83, -167559.52, -1.00, -0.23, 0.33
151, -167984.95, -107521.43, -166910.66, -166683.64, -166387.56, -166830.06, -166602.28, -167529.38, -1.00, -0.23, 0.33
152, -167927.08, -107640.37, -166845.17, -166705.58, -166490.30, -166794.81, -166778.86, -167373.61, -1.00, -0.23, 0.33
153, -167885.25, -107764.06, -166838.88, -166644.50, -166615.31, -166785.94, -166754.31, -167364.05, -1.00, -0.23, 0.33
154, -167834.19, -107861.45, -166862.11, -166568.30, -166739.45, -166792.48, -166689.94, -167395.98, -0.99, -0.23, 0.33
155, -167769.86, -107935.48, -166868.33, -166627.83, -166859.70, -166791.64, -166613.58, -167407.23, -0.99, -0.23, 0.33
156, -167721.73, -108056.47, -166831.77, -166722.42, -166983.08, -166763.05, -166553.64, -167324.39, -0.99, -0.23, 0.33
157, -167684.06, -108177.09, -166825.48, -166679.91, -167112.75, -166764.86, -166502.91, -167324.28, -0.99, -0.23, 0.33
158, -167635.59, -108280.38, -166838.48, -166595.39, -167242.19, -166771.56, -166413.34, -167366.42, -0.99, -0.23, 0.33
159, -167561.56, -108340.06, -166886.66, -166582.50, -167589.38, -166795.97, -166338.88, -167498.80, -0.99, -0.23, 0.32
160, -167494.05, -108436.67, -166835.92, -166670.77, -167968.92, -166764.33, -166519.38, -167385.17, -0.99, -0.23, 0.32
161, -167461.88, -108568.23, -166786.08, -166649.17, -167949.27, -166727.94, -166746.11, -167265.73, -0.99, -0.23, 0.32
162, -167439.86, -108693.65, -166782.25, -166581.13, -167910.75, -166724.25, -166753.58, -167262.70, -0.99, -0.23, 0.32
163, -167404.56, -108784.55, -166825.70, -166572.22, -167871.59, -166743.27, -166704.98, -167324.80, -0.99, -0.23, 0.32
164, -167374.91, -108909.67, -166785.78, -166681.42, -167827.86, -166715.55, -166661.70, -167233.11, -0.99, -0.23, 0.33
165, -167360.58, -109070.05, -166773.67, -166684.47, -167787.92, -166716.31, -166634.28, -167231.77, -0.99, -0.23, 0.33
166, -167340.42, -109210.64, -166781.53, -166625.64, -167745.91, -166722.58, -166601.92, -167253.50, -0.99, -0.23, 0.33
167, -167311.30, -109311.43, -166797.83, -166566.69, -167708.23, -166729.95, -166560.05, -167284.61, -0.99, -0.23, 0.33
168, -167276.67, -109427.32, -166794.14, -166649.48, -167662.47, -166723.27, -166513.09, -167262.03, -0.99, -0.23, 0.33
169, -167258.59, -109582.44, -166774.55, -166676.19, -167620.36, -166712.11, -166483.03, -167227.45, -0.99, -0.22, 0.33
170, -167241.22, -109726.74, -166769.75, -166625.70, -167581.73, -166713.86, -166453.70, -167213.42, -0.99, -0.22, 0.33
171, -167215.16, -109826.84, -166790.56, -166550.73, -167546.80, -166724.25, -166389.94, -167274.77, -0.99, -0.22, 0.33
172, -167164.89, -109911.59, -166835.19, -166605.36, -167491.58, -166751.92, -166327.95, -167406.48, -0.99, -0.22, 0.33
173, -166991.47, -110024.20, -166805.34, -166660.92, -167420.23, -166728.86, -166521.78, -167321.91, -0.99, -0.22, 0.33
174, -166713.50, -110129.95, -166789.22, -166599.77, -167357.47, -166729.39, -166726.31, -167314.14, -0.99, -0.22, 0.32
175, -166803.44, -110194.23, -166816.81, -166532.36, -167303.20, -166739.69, -166702.23, -167344.13, -0.99, -0.22, 0.32
176, -166944.14, -110250.24, -166806.73, -166612.88, -167244.48, -166731.16, -166633.77, -167326.77, -0.99, -0.22, 0.32
177, -167105.48, -110352.37, -166775.33, -166671.52, -167188.42, -166709.70, -166585.25, -167250.88, -0.99, -0.22, 0.32
178, -167275.67, -110454.65, -166764.61, -166619.22, -167138.20, -166705.09, -166543.83, -167247.06, -0.99, -0.22, 0.32
179, -167440.88, -110535.63, -166777.84, -166539.28, -167086.45, -166709.67, -166493.59, -167283.72, -0.99, -0.22, 0.33
180, -167769.39, -110600.43, -166795.08, -166576.30, -167034.58, -166712.00, -166432.56, -167278.45, -0.99, -0.22, 0.33
181, -168110.84, -110731.79, -166760.03, -166660.86, -166985.52, -166695.97, -166367.56, -167219.92, -0.99, -0.22, 0.33
182, -168107.06, -110858.70, -166771.41, -166614.41, -166932.64, -166706.50, -166322.08, -167305.59, -0.99, -0.22, 0.33
183, -168055.09, -110951.24, -166786.61, -166522.19, -166868.70, -166715.94, -166517.56, -167337.61, -0.99, -0.22, 0.33
184, -168001.09, -111027.73, -166792.72, -166541.75, -166813.81, -166711.31, -166694.47, -167310.47, -0.99, -0.22, 0.33
185, -167969.33, -111156.34, -166748.02, -166648.36, -166768.97, -166680.11, -166676.48, -167201.23, -0.99, -0.23, 0.33
186, -167954.00, -111303.30, -166736.00, -166632.78, -166734.00, -166669.28, -166648.83, -167184.77, -0.99, -0.23, 0.33
187, -167933.92, -111432.65, -166738.78, -166566.36, -166697.22, -166679.67, -166615.38, -167219.92, -0.99, -0.23, 0.33
188, -167906.91, -111534.89, -166758.00, -166513.06, -166659.89, -166677.27, -166575.05, -167232.27, -0.99, -0.23, 0.33
189, -167871.78, -111662.31, -166758.92, -166612.05, -166371.20, -166688.00, -166527.58, -167245.56, -0.99, -0.23, 0.33
190, -167835.67, -111801.39, -166756.22, -166629.59, -166034.70, -166697.98, -166480.09, -167260.72, -0.99, -0.23, 0.32
191, -167791.80, -111915.31, -166764.73, -166555.63, -166125.80, -166707.38, -166421.31, -167279.05, -0.99, -0.23, 0.32
192, -167728.13, -111989.52, -166811.33, -166503.75, -166242.17, -166727.63, -166301.98, -167379.00, -0.99, -0.23, 0.32
193, -167646.53, -112059.04, -166804.73, -166581.08, -166330.23, -166734.78, -166312.80, -167417.72, -0.99, -0.23, 0.32
194, -167579.06, -112161.90, -166759.00, -166572.39, -166421.38, -166705.55, -166534.06, -167327.33, -0.99, -0.23, 0.32
195, -167525.77, -112261.81, -166758.22, -166494.92, -166536.38, -166693.00, -166679.02, -167291.58, -0.99, -0.23, 0.32
196, -167462.70, -112341.85, -166786.95, -166511.14, -166650.63, -166703.53, -166617.83, -167334.27, -0.99, -0.23, 0.32
197, -167404.34, -112429.29, -166750.09, -166590.73, -166766.45, -166684.48, -166546.47, -167270.59, -0.99, -0.23, 0.32
198, -167364.58, -112556.61, -166723.27, -166567.00, -166892.95, -166666.67, -166494.70, -167223.97, -0.99, -0.23, 0.32
199, -167323.91, -112667.77, -166727.16, -166497.77, -167025.22, -166667.94, -166442.02, -167241.09, -0.99, -0.23, 0.32
200, -167263.70, -112747.83, -166776.06, -166465.23, -167147.20, -166690.23, -166350.23, -167310.22, -0.99, -0.23, 0.32
201, -167189.56, -112809.90, -166768.33, -166543.33, -167480.70, -166694.28, -166248.30, -167366.34, -0.99, -0.23, 0.32
202, -167135.86, -112925.86, -166715.08, -166543.27, -167880.69, -166654.31, -166423.06, -167254.16, -0.99, -0.23, 0.32
203, -167106.33, -113046.05, -166678.97, -166482.72, -167872.55, -166632.25, -166644.67, -167170.39, -0.99, -0.23, 0.32
204, -167078.66, -113154.67, -166719.05, -166444.47, -167835.52, -166635.47, -166641.91, -167196.55, -0.99, -0.23, 0.32
205, -167039.98, -113244.64, -166707.59, -166538.50, -167796.94, -166634.50, -166590.08, -167192.89, -0.99, -0.23, 0.33
206, -166977.47, -113391.63, -166669.27, -166595.97, -167762.58, -166610.28, -166558.25, -167119.47, -0.99, -0.23, 0.33
207, -166688.39, -113517.95, -166684.69, -166566.41, -167727.69, -166620.88, -166528.67, -167146.78, -0.99, -0.23, 0.33
208, -166683.48, -113595.90, -166697.00, -166493.05, -167682.63, -166630.94, -166482.36, -167194.38, -0.99, -0.23, 0.33
209, -166834.48, -113643.26, -166725.61, -166479.50, -167634.64, -166646.39, -166422.72, -167243.06, -0.99, -0.23, 0.33
210, -166988.69, -113729.98, -166697.41, -166581.75, -167579.61, -166624.45, -166366.00, -167168.44, -0.99, -0.22, 0.33
211, -167160.95, -113838.21, -166682.86, -166567.89, -167530.41, -166618.66, -166316.33, -167145.13, -0.99, -0.22, 0.33
212, -167318.20, -113920.38, -166709.63, -166486.11, -167470.91, -166640.27, -166224.53, -167281.33, -0.99, -0.22, 0.33
213, -167473.66, -113946.51, -166766.52, -166436.72, -167391.69, -166664.86, -166309.72, -167360.16, -0.99, -0.22, 0.33
214, -167870.38, -114015.15, -166702.95, -166533.72, -167315.86, -166630.33, -166540.94, -167238.08, -0.99, -0.22, 0.33
215, -168042.58, -114158.00, -166659.19, -166550.73, -167267.52, -166595.30, -166642.00, -167123.58, -0.99, -0.24, 0.32
216, -168023.48, -114291.15, -166653.81, -166493.44, -167231.39, -166595.17, -166612.28, -167112.36, -0.99, -0.24, 0.32
217, -167994.23, -114393.85, -166676.13, -166433.28, -167195.83, -166608.05, -166570.58, -167165.41, -0.99, -0.24, 0.32
218, -167956.75, -114507.27, -166683.92, -166517.45, -167148.84, -166609.78, -166521.36, -167162.00, -0.99, -0.24, 0.32
219, -167937.25, -114669.12, -166647.58, -166562.00, -167102.58, -166587.64, -166489.47, -167085.23, -0.99, -0.24, 0.32
220, -167921.83, -114820.44, -166643.30, -166516.63, -167062.70, -166587.50, -166461.80, -167112.09, -1.00, -0.23, 0.32
221, -167897.27, -114935.70, -166661.55, -166435.31, -167026.22, -166599.92, -166424.53, -167149.36, -1.00, -0.23, 0.32
222, -167862.58, -115043.24, -166690.14, -166452.73, -166984.02, -166608.27, -166377.80, -167168.89, -1.00, -0.23, 0.32
223, -167835.27, -115188.03, -166656.75, -166547.36, -166936.41, -166587.84, -166338.19, -167095.42, -1.00, -0.23, 0.32
224, -167815.94, -115328.34, -166646.16, -166511.30, -166896.77, -166583.50, -166303.34, -167092.06, -1.00, -0.23, 0.32
225, -167783.45, -115439.78, -166686.81, -166435.67, -166850.94, -166612.22, -166214.11, -167223.94, -0.99, -0.23, 0.33
226, -167719.70, -115508.27, -166717.75, -166464.28, -166784.33, -166634.27, -166262.47, -167300.61, -0.99, -0.23, 0.33
227, -167667.92, -115623.36, -166665.02, -166549.25, -166715.84, -166596.28, -166509.30, -167167.31, -0.99, -0.23, 0.33
228, -167647.17, -115757.89, -166636.61, -166516.67, -166674.19, -166574.00, -166622.91, -167097.25, -0.99, -0.23, 0.33
229, -167625.09, -115880.40, -166641.39, -166444.77, -166638.06, -166585.78, -166591.38, -167128.28, -0.99, -0.23, 0.33
230, -167590.38, -115977.38, -166677.94, -166434.75, -166599.44, -166593.58, -166544.23, -167175.98, -1.00, -0.23, 0.33
231, -167561.86, -116113.76, -166643.09, -166532.94, -166545.39, -166567.00, -166502.55, -167100.16, -1.00, -0.23, 0.33
232, -167542.72, -116252.63, -166638.08, -166511.59, -166225.94, -166575.97, -166470.52, -167099.25, -1.00, -0.23, 0.33
233, -167503.56, -116363.67, -166664.14, -166433.67, -165940.16, -166611.73, -166418.61, -167196.09, -1.00, -0.23, 0.33
234, -167445.88, -116435.75, -166697.11, -166406.31, -166043.27, -166616.63, -166348.06, -167216.23, -1.00, -0.23, 0.33
235, -167389.02, -116540.63, -166677.28, -166514.98, -166158.55, -166606.45, -166264.03, -167178.97, -1.00, -0.23, 0.33
236, -167338.67, -116652.72, -166672.02, -166497.06, -166272.31, -166611.34, -166178.42, -167253.31, -0.99, -0.23, 0.34
237, -167266.81, -116729.32, -166699.23, -166403.28, -166366.08, -166626.55, -166302.67, -167297.19, -0.99, -0.23, 0.34
238, -167183.36, -116768.80, -166701.00, -166415.75, -166457.89, -166625.55, -166513.05, -167296.28, -0.99, -0.23, 0.34
239, -167123.11, -116861.45, -166651.84, -166500.89, -166569.98, -166584.08, -166547.17, -167174.14, -0.99, -0.23, 0.34
240, -167082.77, -116996.41, -166631.63, -166477.34, -166693.72, -166569.64, -166494.83, -167134.02, -0.99, -0.23, 0.34
241, -167039.77, -117114.06, -166640.70, -166407.75, -166820.00, -166578.78, -166438.28, -167171.80, -0.99, -0.22, 0.33
242, -166948.69, -117183.89, -166672.45, -166394.31, -166943.78, -166593.83, -166365.56, -167219.41, -0.99, -0.22, 0.33
243, -166623.94, -117258.01, -166648.80, -166473.70, -167086.75, -166580.66, -166292.14, -167168.78, -0.99, -0.22, 0.33
244, -166568.59, -117359.82, -166616.77, -166453.45, -167547.80, -166555.97, -166213.17, -167115.19, -0.99, -0.22, 0.33
245, -166714.38, -117434.48, -166645.34, -166378.33, -167794.31, -166571.25, -166147.23, -167219.56, -0.99, -0.22, 0.33
246, -166828.08, -117460.11, -166693.38, -166367.66, -167712.70, -166592.48, -166287.11, -167293.56, -0.99, -0.23, 0.33
247, -166949.00, -117498.34, -166635.89, -166458.48, -167634.55, -166554.94, -166505.78, -167189.86, -0.99, -0.23, 0.33
248, -167112.00, -117604.80, -166592.23, -166466.52, -167574.00, -166528.33, -166550.42, -167072.83, -0.99, -0.23, 0.33
249, -167305.34, -117702.85, -166581.48, -166409.56, -167522.27, -166523.67, -166508.48, -167074.95, -0.99, -0.23, 0.33
250, -167715.19, -117779.16, -166610.09, -166357.03, -167473.28, -166537.19, -166456.47, -167125.38, -0.99, -0.23, 0.33
251, -167925.95, -117868.03, -166592.39, -166439.06, -167430.00, -166523.22, -166403.75, -167066.16, -0.99, -0.23, 0.32
252, -167911.94, -118019.93, -166570.80, -166476.55, -167390.33, -166506.81, -166373.06, -167013.53, -0.99, -0.23, 0.32
253, -167898.05, -118162.25, -166558.00, -166434.08, -167357.39, -166496.58, -166347.08, -167016.81, -0.99, -0.23, 0.32
254, -167874.27, -118281.83, -166582.97, -166366.95, -167320.66, -166514.45, -166311.41, -167066.56, -0.99, -0.23, 0.32
255, -167835.11, -118372.06, -166603.61, -166394.66, -167278.91, -166527.38, -166259.80, -167082.14, -0.99, -0.23, 0.32
0, -167808.33, -118516.70, -166562.89, -166465.73, -167233.72, -166500.42, -166220.06, -166998.17, -0.98, -0.23, 0.32
1, -167788.84, -118669.92, -166570.94, -166433.78, -167189.03, -166509.25, -166148.13, -167061.38, -0.98, -0.23, 0.32
2, -167742.80, -118774.15, -166611.16, -166347.39, -167127.14, -166540.47, -166169.52, -167183.00, -0.98, -0.23, 0.32
3, -167678.17, -118837.34, -166626.84, -166345.20, -167059.53, -166540.09, -166394.11, -167177.09, -0.98, -0.23, 0.32
4, -167638.33, -118958.41, -166576.91, -166458.59, -167004.98, -166509.69, -166520.58, -167052.50, -0.98, -0.23, 0.32
5, -167622.55, -119111.59, -166551.38, -166457.34, -166963.38, -166487.16, -166501.38, -166995.67, -0.98, -0.23, 0.32
6, -167604.14, -119242.77, -166553.22, -166399.36, -166928.59, -166491.36, -166470.17, -167015.56, -0.98, -0.23, 0.32
7, -167575.14, -119336.34, -166578.97, -166345.95, -166894.66, -166509.88, -166427.94, -167077.08, -0.98, -0.23, 0.32
8, -167540.64, -119447.83, -166569.78, -166436.02, -166850.06, -166497.48, -166380.08, -167049.02, -0.98, -0.23, 0.32
9, -167523.13, -119597.41, -166551.30, -166463.72, -166808.50, -166484.86, -166350.17, -166989.56, -0.98, -0.23, 0.32
10, -167506.78, -119729.33, -166543.20, -166411.66, -166772.19, -166486.41, -166320.91, -166999.52, -0.99, -0.22, 0.32
11, -167483.77, -119835.34, -166552.03, -166333.16, -166740.25, -166491.81, -166284.67, -167022.27, -0.99, -0.22, 0.32
12, -167453.19, -119944.35, -166576.13, -166368.88, -166700.64, -166498.56, -166241.36, -167039.25, -0.99, -0.22, 0.32
13, -167431.02, -120092.61, -166543.69, -166448.63, -166654.63, -166479.00, -166206.47, -166976.44, -0.99, -0.22, 0.32
14, -167412.02, -120228.38, -166551.05, -166402.52, -166612.06, -166492.42, -166142.50, -167039.30, -0.99, -0.22, 0.32
15, -167362.72, -120314.16, -166603.03, -166316.58, -166549.02, -166523.80, -166110.52, -167183.69, -0.99, -0.22, 0.33
16, -167291.89, -120376.23, -166615.86, -166367.47, -166443.17, -166517.05, -166294.72, -167183.58, -0.99, -0.22, 0.33
17, -167247.86, -120501.42, -166555.22, -166450.11, -166031.41, -166489.44, -166504.86, -167058.70, -0.99, -0.22, 0.33
18, -167213.81, -120624.63, -166551.94, -166409.98, -165870.22, -166493.48, -166498.34, -167058.41, -0.99, -0.22, 0.33
19, -167168.52, -120716.29, -166561.91, -166322.55, -166000.16, -166501.09, -166439.28, -167077.11, -0.99, -0.22, 0.33
20, -167111.94, -120787.33, -166591.09, -166320.08, -166128.63, -166511.59, -166370.28, -167131.25, -0.99, -0.22, 0.34
21, -167059.55, -120900.56, -166564.70, -166419.55, -166246.25, -166499.95, -166305.16, -167081.30, -0.99, -0.22, 0.34
22, -167020.72, -121021.10, -166542.86, -166391.67, -166376.52, -166485.05, -166253.19, -167037.58, -0.99, -0.22, 0.34
23, -166975.39, -121120.77, -166557.34, -166312.73, -166509.41, -166495.48, -166183.31, -167072.67, -0.99, -0.22, 0.34
24, -166885.58, -121173.70, -166614.05, -166298.36, -166627.56, -166521.39, -166068.00, -167204.55, -0.99, -0.22, 0.34
25, -166553.39, -121235.23, -166590.20, -166385.94, -166714.19, -166518.19, -166157.19, -167203.58, -0.99, -0.23, 0.33
26, -166423.64, -121296.90, -166558.42, -166346.39, -166800.72, -166508.84, -166383.97, -167160.44, -0.99, -0.23, 0.33
27, -166552.30, -121347.62, -166553.89, -166261.28, -166906.22, -166486.34, -166453.72, -167112.19, -0.99, -0.23, 0.33
28, -166677.56, -121367.76, -166578.88, -166278.95, -167157.47, -166491.41, -166372.28, -167127.94, -0.99, -0.23, 0.33
29, -166822.17, -121441.59, -166524.48, -166385.33, -167644.14, -166455.63, -166305.27, -167030.58, -0.99, -0.23, 0.33
30, -166995.31, -121551.24, -166501.80, -166376.91, -167688.97, -166434.69, -166263.36, -166982.92, -0.99, -0.23, 0.33
31, -167167.33, -121643.42, -166497.88, -166310.78, -167639.52, -166436.72, -166218.89, -166980.27, -0.99, -0.23, 0.32
32, -167509.69, -121699.45, -166523.63, -166259.09, -167593.06, -166445.13, -166163.58, -167015.22, -0.99, -0.23, 0.32
33, -167828.64, -121792.39, -166509.36, -166357.91, -167546.09, -166432.73, -166079.38, -166997.61, -0.99, -0.23, 0.32
34, -167816.69, -121919.46, -166507.45, -166368.59, -167490.13, -166442.30, -166063.83, -167047.45, -0.99, -0.23, 0.32
35, -167772.50, -122026.13, -166498.08, -166291.55, -167429.16, -166437.36, -166296.97, -167029.02, -0.99, -0.23, 0.32
36, -167732.27, -122123.27, -166508.58, -166241.89, -167384.86, -166432.78, -166441.50, -167008.34, -1.00, -0.23, 0.32
37, -167694.06, -122230.29, -166493.95, -166340.27, -167341.72, -166421.86, -166402.50, -166961.69, -1.00, -0.23, 0.32
38, -167676.88, -122386.05, -166461.75, -166379.81, -167303.53, -166397.94, -166372.41, -166905.55, -1.00, -0.23, 0.32
39, -167661.30, -122526.11, -166466.42, -166334.88, -167268.64, -166410.28, -166343.48, -166936.50, -1.00, -0.23, 0.32
40, -167634.03, -122631.70, -166475.67, -166253.59, -167230.30, -166413.81, -166303.98, -166957.31, -1.00, -0.23, 0.32
41, -167597.89, -122728.84, -166499.34, -166278.95, -167187.05, -166423.06, -166255.98, -166984.77, -0.99, -0.23, 0.33
42, -167571.45, -122865.01, -166475.47, -166376.23, -167145.92, -166408.48, -166217.38, -166937.81, -0.99, -0.23, 0.33
43, -167556.52, -123002.54, -166461.50, -166352.47, -167114.28, -166402.94, -166190.27, -166902.97, -0.99, -0.23, 0.33
44, -167537.55, -123117.36, -166457.33, -166280.59, -167081.94, -166406.55, -166158.81, -166912.42, -0.99, -0.23, 0.33
45, -167510.06, -123212.91, -166489.06, -166229.19, -167047.23, -166417.14, -166106.63, -166955.50, -0.99, -0.23, 0.33
46, -167470.38, -123345.39, -166501.06, -166329.31, -166989.20, -166423.03, -166022.66, -167032.34, -0.99, -0.23, 0.33
47, -167425.95, -123462.00, -166493.78, -166321.34, -166926.89, -166426.70, -166172.94, -167030.48, -0.99, -0.23, 0.33
48, -167385.95, -123566.01, -166477.53, -166242.53, -166871.39, -166410.94, -166400.95, -166977.67, -0.99, -0.23, 0.33
49, -167345.92, -123652.15, -166491.20, -166257.61, -166824.08, -166415.59, -166399.36, -166993.98, -0.99, -0.23, 0.33
50, -167317.59, -123782.37, -166459.83, -166361.66, -166779.14, -166391.77, -166356.78, -166923.41, -0.99, -0.23, 0.33
51, -167305.14, -123933.13, -166449.02, -166353.55, -166746.89, -166384.13, -166331.64, -166880.16, -0.99, -0.23, 0.33
52, -167287.30, -124065.79, -166448.56, -166298.56, -166714.44, -166397.02, -166301.98, -166928.75, -0.99, -0.23, 0.33
53, -167260.16, -124161.88, -166473.23, -166224.31, -166678.05, -166404.19, -166262.03, -166957.48, -0.99, -0.23, 0.33
54, -167227.45, -124275.88, -166472.80, -166298.58, -166635.38, -166396.23, -166216.81, -166937.94, -0.99, -0.23, 0.33
55, -167208.86, -124423.35, -166446.47, -166353.80, -166599.23, -166384.72, -166185.75, -166892.25, -0.99, -0.23, 0.33
56, -167189.88, -124557.05, -166445.83, -166304.06, -166564.45, -166390.22, -166153.36, -166905.19, -0.99, -0.23, 0.33
57, -167163.30, -124668.80, -166462.02, -166227.30, -166526.45, -166399.48, -166102.27, -166940.03, -0.99, -0.23, 0.33
58, -167117.69, -124772.57, -166505.27, -166264.09, -166471.05, -166420.33, -166012.91, -167048.70, -0.99, -0.23, 0.33
59, -167069.20, -124887.73, -166470.11, -166326.97, -166405.58, -166396.95, -166159.48, -166992.11, -0.99, -0.23, 0.33
60, -167037.80, -125002.75, -166447.72, -166270.38, -166260.58, -166387.05, -166396.70, -166949.39, -0.99, -0.23, 0.33
61, -166995.42, -125094.82, -166494.98, -166200.80, -165819.06, -166423.19, -166392.77, -167026.47, -0.99, -0.22, 0.33
62, -166933.33, -125171.48, -166500.23, -166273.89, -165791.91, -166421.06, -166317.33, -167029.17, -0.99, -0.22, 0.33
63, -166887.63, -125292.19, -166463.73, -166341.56, -165917.38, -166394.09, -166258.89, -166960.28, -0.99, -0.22, 0.33
64, -166847.47, -125402.05, -166455.92, -166286.16, -166051.86, -166397.31, -166205.17, -166963.92, -0.99, -0.22, 0.33
65, -166757.59, -125487.07, -166480.14, -166207.77, -166179.53, -166406.50, -166139.89, -166995.78, -0.99, -0.22, 0.33
66, -166414.36, -125535.13, -166506.92, -166250.39, -166286.63, -166431.34, -166014.83, -167092.69, -0.99, -0.23, 0.32
67, -166349.55, -125599.74, -166486.31, -166291.16, -166370.27, -166422.61, -165998.73, -167105.50, -0.99, -0.23, 0.32
68, -166469.22, -125652.43, -166480.97, -166211.39, -166455.88, -166421.38, -166193.95, -167091.56, -0.99, -0.23, 0.32
69, -166585.16, -125686.38, -166502.23, -166170.42, -166545.69, -166413.09, -166346.23, -167084.72, -0.99, -0.23, 0.32
70, -166702.59, -125702.54, -166483.19, -166255.11, -166644.63, -166407.66, -166283.20, -167061.78, -0.99, -0.23, 0.32
71, -166841.84, -125774.27, -166444.31, -166285.55, -166752.77, -166377.81, -166210.61, -166975.77, -0.99, -0.23, 0.33
72, -166990.64, -125855.83, -166433.36, -166228.06, -166928.97, -166370.31, -166146.36, -166964.67, -0.99, -0.23, 0.33
73, -167171.75, -125918.48, -166440.84, -166158.22, -167434.66, -166371.42, -166076.08, -166956.03, -0.99, -0.23, 0.33
74, -167579.22, -125964.57, -166444.14, -166210.81, -167587.98, -166366.86, -165960.73, -166993.98, -0.99, -0.23, 0.33
75, -167724.00, -126062.76, -166417.97, -166270.44, -167519.81, -166345.63, -166024.33, -166944.77, -0.99, -0.23, 0.33
76, -167692.44, -126190.77, -166382.94, -166235.39, -167466.11, -166326.97, -166287.16, -166882.95, -0.99, -0.23, 0.33
77, -167668.20, -126316.27, -166386.52, -166175.73, -167426.30, -166326.44, -166353.52, -166877.09, -0.99, -0.23, 0.33
78, -167631.50, -126411.31, -166414.70, -166164.77, -167380.30, -166340.11, -166305.05, -166913.28, -0.99, -0.23, 0.33
79, -167596.25, -126529.94, -166395.36, -166274.06, -167331.39, -166324.36, -166257.55, -166867.52, -0.99, -0.23, 0.33
80, -167579.81, -126678.66, -166366.17, -166282.59, -167293.81, -166309.25, -166228.42, -166804.95, -0.99, -0.23, 0.33
81, -167562.69, -126814.59, -166367.02, -166232.36, -167258.34, -166307.88, -166198.84, -166833.33, -0.99, -0.23, 0.33
82, -167537.78, -126924.33, -166383.75, -166154.86, -167221.27, -166318.78, -166161.44, -166867.25, -0.99, -0.23, 0.32
83, -167503.88, -127036.31, -166402.83, -166195.61, -167176.58, -166327.50, -166114.67, -166881.19, -0.99, -0.23, 0.32
84, -167484.19, -127182.90, -166367.16, -166276.00, -167137.00, -166304.53, -166082.16, -166797.63, -0.99, -0.23, 0.32
85, -167469.14, -127316.63, -166370.38, -166234.44, -167105.69, -166310.81, -166055.06, -166815.11, -0.99, -0.23, 0.32
86, -167441.88, -127423.02, -166390.42, -166153.27, -167068.64, -166325.41, -165989.17, -166887.55, -0.99, -0.23, 0.32
87, -167387.88, -127505.21, -166440.09, -166174.00, -167008.78, -166353.91, -165932.75, -167013.50, -0.99, -0.24, 0.32
88, -167332.64, -127610.38, -166402.55, -166255.59, -166938.38, -166329.73, -166131.44, -166931.41, -0.99, -0.24, 0.32
89, -167304.13, -127729.40, -166357.56, -166214.88, -166892.13, -166303.19, -166332.77, -166836.91, -0.99, -0.24, 0.32
90, -167277.75, -127839.32, -166373.53, -166147.19, -166854.25, -166306.70, -166321.31, -166859.92, -0.99, -0.24, 0.32
91, -167238.47, -127928.73, -166394.63, -166199.08, -166809.97, -166317.11, -166269.08, -166887.38, -0.99, -0.24, 0.32
92, -167215.94, -128064.47, -166355.88, -166274.83, -166771.59, -166292.97, -166233.19, -166793.88, -0.99, -0.23, 0.32
93, -167203.11, -128204.15, -166353.19, -166244.20, -166741.02, -166290.25, -166206.88, -166806.69, -0.99, -0.23, 0.32
94, -167182.38, -128331.35, -166358.08, -166177.55, -166702.95, -166297.89, -166172.81, -166840.14, -0.99, -0.23, 0.32
95, -167149.89, -128427.58, -166389.39, -166142.95, -166664.48, -166312.89, -166128.11, -166877.63, -0.99, -0.23, 0.32
96, -167118.33, -128556.26, -166365.56, -166247.73, -166620.47, -166295.34, -166084.59, -166816.03, -0.99, -0.23, 0.32
97, -167103.11, -128699.64, -166348.69, -166251.47, -166585.98, -166287.03, -166057.34, -166793.94, -0.99, -0.22, 0.32
98, -167083.83, -128824.63, -166345.52, -166187.30, -166551.11, -166294.41, -166025.20, -166812.11, -0.99, -0.22, 0.32
99, -167055.72, -128920.81, -166377.13, -166119.67, -166517.16, -166302.89, -165954.80, -166865.25, -0.99, -0.22, 0.32
100, -167008.03, -129026.40, -166392.34, -166197.31, -166458.39, -166316.11, -165917.55, -166938.67, -0.99, -0.22, 0.32
101, -166961.73, -129134.67, -166374.09, -166222.63, -166392.27, -166306.72, -166135.91, -166902.73, -0.99, -0.22, 0.32
102, -166928.48, -129245.29, -166355.63, -166153.03, -166342.92, -166295.28, -166326.56, -166853.17, -0.99, -0.22, 0.32
103, -166893.00, -129340.53, -166379.92, -166137.84, -166303.20, -166297.63, -166301.44, -166873.56, -0.99, -0.22, 0.32
104, -166858.50, -129457.77, -166361.50, -166239.00, -166227.89, -166281.53, -166253.72, -166822.75, -0.99, -0.22, 0.32
105, -166836.75, -129601.80, -166348.47, -166238.72, -165831.20, -166290.64, -166218.34, -166834.13, -0.99, -0.22, 0.32
106, -166798.59, -129713.36, -166366.11, -166170.78, -165664.47, -166308.58, -166166.27, -166887.03, -0.99, -0.22, 0.32
107, -166745.44, -129789.91, -166392.48, -166106.06, -165788.36, -166324.27, -166100.08, -166920.56, -0.99, -0.23, 0.32
108, -166612.48, -129870.47, -166389.08, -166198.56, -165910.78, -166313.98, -166027.09, -166899.06, -0.99, -0.23, 0.32
109, -166290.53, -129972.06, -166376.41, -166238.50, -166025.89, -166312.59, -165924.17, -166919.16, -0.99, -0.23, 0.32
110, -166305.25, -130028.03, -166388.81, -166148.64, -166117.88, -166327.53, -165898.47, -167011.36, -0.99, -0.23, 0.32
111, -166407.08, -130035.88, -166440.89, -166070.97, -166195.08, -166326.75, -166058.91, -167055.19, -0.99, -0.23, 0.32
112, -166509.58, -130045.66, -166410.91, -166147.16, -166275.72, -166318.08, -166241.72, -167018.20, -0.99, -0.22, 0.33
113, -166643.78, -130118.71, -166353.75, -166194.80, -166375.34, -166297.78, -166233.03, -166902.42, -0.99, -0.22, 0.33
114, -166790.80, -130198.26, -166334.39, -166130.88, -166488.95, -166275.00, -166168.06, -166866.47, -0.99, -0.22, 0.33
115, -166925.27, -130248.66, -166372.05, -166060.69, -166599.70, -166293.89, -166090.75, -166933.64, -0.99, -0.22, 0.33
116, -167091.27, -130277.00, -166364.50, -166127.41, -166711.95, -166290.11, -166004.05, -166902.95, -0.99, -0.22, 0.33
117, -167512.53, -130369.27, -166311.48, -166173.86, -167073.16, -166250.69, -165937.02, -166786.14, -0.99, -0.23, 0.32
118, -167653.77, -130497.41, -166301.52, -166129.38, -167488.41, -166237.39, -165852.52, -166827.48, -0.99, -0.23, 0.32
119, -167601.06, -130593.08, -166353.98, -166053.94, -167457.78, -166271.81, -165933.25, -166929.89, -0.99, -0.23, 0.32
120, -167533.36, -130651.55, -166350.75, -166097.06, -167387.31, -166263.48, -166164.67, -166901.52, -0.99, -0.23, 0.32
121, -167499.25, -130773.34, -166283.05, -166188.95, -167339.44, -166218.63, -166264.92, -166732.39, -0.99, -0.23, 0.32
122, -167485.75, -130915.33, -166275.09, -166167.25, -167304.98, -166210.16, -166242.45, -166730.55, -0.99, -0.23, 0.33
123, -167466.34, -131040.54, -166275.41, -166105.28, -167269.25, -166215.13, -166208.59, -166749.17, -0.99, -0.23, 0.33
124, -167436.08, -131134.64, -166294.31, -166070.75, -167235.98, -166227.69, -166166.53, -166776.91, -0.99, -0.23, 0.33
125, -167405.06, -131251.03, -166281.86, -166165.19, -167195.11, -166212.39, -166124.00, -166735.45, -0.99, -0.23, 0.33
126, -167389.80, -131399.23, -166269.44, -166170.81, -167156.78, -166206.94, -166095.61, -166723.64, -0.99, -0.23, 0.33
127, -167371.13, -131527.98, -166272.20, -166112.69, -167120.39, -166215.08, -166064.11, -166740.70, -0.99, -0.22, 0.33
128, -167340.58, -131620.17, -166294.69, -166059.73, -167084.41, -166223.13, -166020.39, -166781.78, -0.99, -0.22, 0.33
129, -167305.48, -131728.64, -166290.06, -166156.89, -167041.16, -166219.61, -165972.92, -166762.88, -0.99, -0.22, 0.33
130, -167287.78, -131882.69, -166262.53, -166196.69, -166999.17, -166197.47, -165943.17, -166676.58, -0.99, -0.22, 0.33
131, -167270.81, -132018.78, -166268.25, -166147.64, -166962.47, -166206.50, -165904.47, -166728.97, -0.99, -0.22, 0.33
132, -167237.44, -132110.47, -166300.11, -166062.53, -166921.69, -166232.84, -165820.28, -166847.55, -0.99, -0.22, 0.33
133, -167177.19, -132184.45, -166325.30, -166086.16, -166855.81, -166241.72, -165927.95, -166886.30, -0.99, -0.23, 0.33
134, -167132.91, -132307.81, -166287.00, -166162.59, -166790.98, -166210.27, -166174.19, -166777.41, -0.99, -0.23, 0.33
135, -167112.39, -132438.86, -166254.39, -166123.02, -166750.31, -166198.14, -166228.11, -166725.77, -0.99, -0.23, 0.33
136, -167086.45, -132545.19, -166265.72, -166045.30, -166714.17, -166208.38, -166189.44, -166752.48, -0.99, -0.23, 0.33
137, -167051.86, -132642.33, -166291.25, -166064.42, -166675.55, -166211.30, -166141.97, -166781.20, -0.99, -0.23, 0.33
138, -167026.22, -132785.58, -166257.45, -166167.88, -166629.02, -166194.31, -166103.27, -166702.80, -1.00, -0.22, 0.32
139, -167011.20, -132925.64, -166257.61, -166143.91, -166592.47, -166193.34, -166075.56, -166712.06, -1.00, -0.22, 0.32
140, -166990.48, -133042.25, -166247.70, -166071.95, -166558.42, -166199.03, -166042.28, -166732.36, -1.00, -0.22, 0.32
141, -166962.70, -133139.39, -166271.11, -166036.64, -166525.47, -166201.44, -166001.91, -166742.00, -1.00, -0.22, 0.32
142, -166934.47, -133268.19, -166261.92, -166145.03, -166481.63, -166191.55, -165960.41, -166712.14, -1.00, -0.22, 0.32
143, -166918.22, -133406.58, -166251.44, -166149.58, -166444.38, -166187.05, -165931.33, -166694.66, -0.99, -0.22, 0.33
144, -166892.53, -133523.22, -166261.59, -166078.53, -166405.38, -166203.20, -165863.55, -166760.33, -0.99, -0.22, 0.33
145, -166843.63, -133588.89, -166306.14, -166022.88, -166355.22, -166223.75, -165824.38, -166864.69, -0.99, -0.22, 0.33
146, -166784.28, -133685.05, -166293.00, -166122.92, -166283.30, -166209.94, -166028.80, -166817.52, -0.99, -0.22, 0.33
147, -166756.22, -133818.66, -166238.34, -166141.38, -166232.75, -166173.44, -166216.22, -166701.09, -0.99, -0.22, 0.33
148, -166738.39, -133944.44, -166234.88, -166081.19, -166199.56, -166176.59, -166206.22, -166707.42, -0.99, -0.23, 0.33
149, -166714.14, -134040.05, -166242.75, -166009.63, -166173.45, -166175.17, -166168.50, -166719.16, -0.99, -0.23, 0.33
150, -166682.34, -134155.66, -166267.11, -166075.73, -165967.13, -166185.02, -166123.14, -166744.67, -0.99, -0.23, 0.33
151, -166647.81, -134284.14, -166264.31, -166120.19, -165560.48, -166199.50, -166075.63, -166766.45, -0.99, -0.23, 0.33
152, -166589.02, -134387.16, -166268.66, -166050.66, -165613.08, -166210.34, -166018.61, -166804.52, -0.99, -0.23, 0.33
153, -166291.92, -134442.75, -166295.47, -166029.69, -165738.17, -166220.89, -165943.30, -166832.20, -0.99, -0.23, 0.33
154, -166138.61, -134491.16, -166299.83, -166107.45, -165842.58, -166230.03, -165815.66, -166872.75, -0.99, -0.23, 0.33
155, -166254.27, -134555.89, -166289.48, -166067.02, -165927.70, -166228.06, -165818.89, -166894.30, -0.99, -0.23, 0.33
156, -166368.47, -134593.39, -166308.31, -165985.03, -166009.11, -166229.73, -166016.38, -166921.45, -0.99, -0.23, 0.33
157, -166476.09, -134602.52, -166301.38, -166023.08, -166100.36, -166219.02, -166147.59, -166894.30, -0.99, -0.23, 0.33
158, -166606.55, -134637.22, -166254.33, -166067.02, -166212.55, -166190.06, -166089.70, -166793.61, -0.99, -0.23, 0.33
159, -166757.78, -134726.72, -166224.78, -166026.34, -166327.38, -166168.94, -166026.63, -166754.72, -0.99, -0.23, 0.33
160, -166905.44, -134795.83, -166252.36, -165961.61, -166439.72, -166181.58, -165958.03, -166797.03, -0.99, -0.23, 0.33
161, -167207.25, -134825.50, -166281.06, -165985.20, -166542.38, -166201.52, -165857.41, -166842.75, -0.99, -0.23, 0.33
162, -167506.06, -134868.31, -166248.63, -166046.50, -166676.38, -166182.23, -165742.11, -166831.89, -0.99, -0.23, 0.33
163, -167475.41, -134973.28, -166210.45, -166007.94, -167124.41, -166152.17, -165881.28, -166760.13, -0.98, -0.22, 0.34
164, -167440.36, -135096.91, -166182.06, -165954.19, -167385.17, -166125.27, -166119.52, -166677.17, -0.98, -0.22, 0.34
165, -167404.88, -135199.27, -166218.19, -165960.11, -167346.14, -166132.58, -166127.19, -166709.67, -0.98, -0.22, 0.34
166, -167365.78, -135280.55, -166195.56, -166051.80, -167306.13, -166123.50, -166075.63, -166676.14, -0.98, -0.22, 0.34
167, -167346.95, -135423.45, -166166.59, -166059.94, -167266.69, -166106.64, -166045.38, -166622.42, -0.98, -0.22, 0.34
168, -167332.23, -135566.14, -166163.89, -166024.69, -167228.45, -166104.34, -166018.61, -166616.27, -0.99, -0.23, 0.33
169, -167310.27, -135689.95, -166175.20, -165962.64, -167190.03, -166117.41, -165983.78, -166649.55, -0.99, -0.23, 0.33
170, -167275.27, -135781.77, -166202.84, -165966.55, -167149.92, -166125.11, -165935.52, -166690.97, -0.99, -0.23, 0.33
171, -167243.84, -135903.56, -166181.53, -166085.22, -167104.39, -166111.81, -165891.25, -166638.33, -0.99, -0.23, 0.33
172, -167230.47, -136049.61, -166162.84, -166087.78, -167067.55, -166099.41, -165865.88, -166598.25, -0.99, -0.23, 0.33
173, -167211.98, -136171.77, -166163.36, -166027.45, -167033.55, -166110.00, -165834.88, -166619.47, -0.99, -0.23, 0.33
174, -167186.86, -136269.23, -166174.84, -165947.59, -167003.41, -166113.06, -165766.56, -166655.52, -0.99, -0.23, 0.33
175, -167139.45, -136370.02, -166228.44, -165977.56, -166945.00, -166138.81, -165727.88, -166788.75, -0.99, -0.23, 0.33
176, -167085.56, -136482.25, -166196.64, -166037.80, -166869.41, -166123.91, -165936.39, -166731.06, -0.99, -0.23, 0.33
177, -167054.41, -136602.61, -166150.77, -165982.86, -166819.00, -166095.63, -166136.00, -166632.94, -0.99, -0.23, 0.33
178, -167026.02, -136702.28, -166177.88, -165922.56, -166783.75, -166106.05, -166122.16, -166661.28, -0.99, -0.23, 0.34
179, -166990.53, -136802.86, -166169.70, -166008.86, -166744.09, -166096.66, -166073.13, -166643.72, -0.99, -0.23, 0.34
180, -166973.31, -136951.14, -166149.36, -166065.34, -166704.17, -166083.16, -166041.97, -166599.77, -0.99, -0.23, 0.34
181, -166957.22, -137086.06, -166154.22, -166019.23, -166669.38, -166089.28, -166012.34, -166612.33, -0.99, -0.23, 0.34
182, -166933.23, -137189.23, -166156.88, -165938.83, -166639.88, -166097.91, -165975.73, -166638.22, -0.99, -0.23, 0.34
183, -166900.50, -137288.81, -166176.50, -165963.86, -166602.75, -166100.91, -165930.00, -166658.72, -0.99, -0.23, 0.34
184, -166874.47, -137430.23, -166155.47, -166055.73, -166557.39, -166092.31, -165891.67, -166604.69, -0.99, -0.23, 0.33
185, -166857.13, -137568.59, -166151.95, -166023.55, -166521.16, -166086.39, -165861.38, -166591.05, -0.99, -0.23, 0.33
186, -166836.59, -137681.91, -166136.88, -165947.86, -166488.64, -166089.69, -165826.38, -166607.45, -0.99, -0.23, 0.33
187, -166806.02, -137778.05, -166176.98, -165921.42, -166453.17, -166098.33, -165746.86, -166676.22, -0.99, -0.23, 0.33
188, -166758.73, -137894.39, -166184.28, -166016.50, -166387.88, -166107.11, -165742.45, -166722.58, -0.99, -0.23, 0.33
189, -166717.13, -138008.06, -166161.61, -165988.61, -166324.00, -166095.52, -165986.27, -166670.50, -0.99, -0.23, 0.33
190, -166685.41, -138114.05, -166156.27, -165917.02, -166281.75, -166094.48, -166113.91, -166655.47, -0.99, -0.23, 0.33
191, -166648.03, -138196.06, -166167.36, -165953.84, -166243.50, -166093.08, -166071.36, -166656.08, -0.99, -0.23, 0.33
192, -166622.19, -138325.53, -166140.53, -166036.16, -166199.11, -166076.05, -166031.56, -166586.36, -0.99, -0.23, 0.33
193, -166609.27, -138468.20, -166128.16, -166013.08, -166159.70, -166064.41, -166005.17, -166574.45, -0.99, -0.23, 0.33
194, -166589.58, -138591.88, -166129.58, -165953.14, -166126.58, -166073.25, -165972.34, -166614.50, -0.98, -0.23, 0.33
195, -166561.42, -138683.92, -166158.30, -165903.00, -166095.34, -166083.38, -165931.83, -166647.05, -0.98, -0.23, 0.33
196, -166531.58, -138805.52, -166154.38, -166006.31, -166047.33, -166068.11, -165888.73, -166611.94, -0.98, -0.23, 0.33
197, -166511.91, -138946.73, -166138.95, -166036.44, -165775.78, -166073.83, -165856.33, -166604.31, -0.98, -0.23, 0.33
198, -166403.20, -139050.47, -166159.16, -165967.31, -165433.84, -166102.94, -165800.34, -166659.72, -0.98, -0.23, 0.33
199, -166063.80, -139086.03, -166221.77, -165895.41, -165511.27, -166128.98, -165679.08, -166800.02, -0.98, -0.23, 0.33
200, -166049.98, -139106.55, -166228.05, -165967.86, -165589.56, -166133.84, -165721.30, -166868.19, -0.98, -0.23, 0.33
201, -166165.52, -139156.44, -166175.73, -165977.16, -165666.78, -166122.55, -165929.42, -166775.95, -0.98, -0.23, 0.33
202, -166300.59, -139210.27, -166171.63, -165893.34, -165765.66, -166108.03, -166069.31, -166737.95, -0.98, -0.23, 0.33
203, -166424.69, -139235.30, -166192.97, -165891.38, -165870.81, -166113.38, -166000.64, -166766.61, -0.98, -0.23, 0.33
204, -166555.30, -139275.44, -166159.55, -165975.23, -165979.44, -166088.13, -165918.38, -166691.95, -0.99, -0.23, 0.33
205, -166703.22, -139361.92, -166136.20, -165953.83, -166091.05, -166076.45, -165853.53, -166658.77, -0.99, -0.23, 0.33
206, -166896.27, -139431.14, -166146.14, -165881.05, -166204.42, -166076.52, -165779.31, -166678.66, -0.99, -0.23, 0.33
207, -167291.22, -139466.98, -166189.78, -165881.14, -166308.69, -166097.75, -165645.78, -166787.13, -0.99, -0.23, 0.33
208, -167362.44, -139507.31, -166174.69, -165948.33, -166398.77, -166097.17, -165690.48, -166791.64, -0.99, -0.23, 0.33
209, -167295.30, -139605.73, -166121.48, -165917.34, -166494.20, -166066.59, -165919.27, -166693.47, -0.99, -0.23, 0.33
210, -167247.75, -139713.03, -166100.08, -165852.48, -166844.14, -166039.86, -166055.50, -166622.30, -0.99, -0.23, 0.33
211, -167203.83, -139804.09, -166117.09, -165857.31, -167273.56, -166041.31, -166010.64, -166618.88, -0.99, -0.23, 0.33
212, -167169.83, -139889.89, -166080.55, -165938.98, -167277.75, -166018.67, -165963.03, -166554.64, -0.99, -0.23, 0.33
213, -167154.77, -140035.78, -166059.03, -165936.27, -167237.69, -166003.86, -165934.97, -166496.53, -0.99, -0.23, 0.33
214, -167140.17, -140178.27, -166067.27, -165899.27, -167198.83, -166011.70, -165907.81, -166526.44, -0.99, -0.22, 0.34
215, -167115.30, -140294.11, -166087.52, -165842.45, -167161.31, -166016.64, -165870.33, -166560.20, -0.99, -0.22, 0.34
216, -167075.55, -140377.09, -166097.34, -165891.98, -167119.89, -166023.98, -165818.06, -166586.05, -0.99, -0.22, 0.34
217, -167051.09, -140511.47, -166063.08, -165972.00, -167075.75, -165998.36, -165780.48, -166502.34, -0.99, -0.22, 0.34
218, -167036.34, -140651.36, -166068.83, -165945.69, -167038.42, -166003.92, -165753.45, -166518.19, -0.99, -0.22, 0.34
219, -167016.34, -140775.44, -166054.61, -165884.92, -167002.08, -166004.70, -165713.50, -166518.84, -0.99, -0.22, 0.34
220, -166981.03, -140860.16, -166109.53, -165837.91, -166961.09, -166028.28, -165626.00, -166639.63, -0.99, -0.22, 0.34
221, -166922.47, -140954.95, -166112.80, -165928.38, -166888.91, -166034.25, -165730.52, -166666.81, -0.99, -0.22, 0.34
222, -166885.88, -141083.14, -166066.69, -165942.27, -166826.73, -165998.64, -165980.86, -166555.56, -0.99, -0.22, 0.34
0, -166750.95, -141746.73, -166058.72, -165872.69, -166614.53, -166001.14, -165854.83, -166537.41, -0.99, -0.23, 0.33
1, -166720.14, -141832.39, -166074.13, -165837.31, -166583.28, -166002.58, -165811.97, -166561.19, -0.99, -0.23, 0.33
2, -166690.70, -141956.34, -166063.08, -165943.06, -166537.61, -165995.47, -165770.05, -166512.33, -0.99, -0.22, 0.32
3, -166676.81, -142097.28, -166047.33, -165946.81, -166497.05, -165980.06, -165742.61, -166480.06, -0.99, -0.22, 0.32
4, -166658.78, -142218.42, -166044.91, -165883.91, -166466.98, -165992.00, -165710.67, -166507.28, -0.99, -0.22, 0.32
5, -166630.08, -142302.67, -166072.98, -165811.81, -166436.77, -165999.89, -165631.88, -166564.77, -0.99, -0.22, 0.32
6, -166578.25, -142395.63, -166102.48, -165881.92, -166374.11, -166020.58, -165618.70, -166673.95, -0.99, -0.22, 0.32
7, -166528.25, -142501.33, -166071.36, -165917.19, -166304.50, -166008.45, -165847.75, -166603.11, -0.99, -0.22, 0.32
8, -166495.92, -142608.86, -166044.48, -165850.78, -166257.52, -165985.92, -166023.00, -166537.45, -0.99, -0.22, 0.32
9, -166462.31, -142695.75, -166065.98, -165831.14, -166219.95, -165989.33, -165993.64, -166554.73, -0.99, -0.22, 0.32
10, -166431.55, -142808.52, -166044.94, -165922.20, -166178.38, -165975.05, -165949.00, -166510.00, -0.99, -0.22, 0.32
11, -166417.66, -142955.53, -166023.81, -165920.13, -166140.22, -165965.70, -165921.28, -166469.17, -0.99, -0.22, 0.32
12, -166404.02, -143086.19, -166025.05, -165870.09, -166107.39, -165967.17, -165893.30, -166481.84, -0.99, -0.23, 0.32
13, -166317.30, -143182.72, -166053.58, -165807.20, -166076.52, -165985.14, -165853.48, -166546.69, -0.99, -0.23, 0.32
14, -166001.97, -143263.66, -166070.08, -165879.44, -166030.14, -165992.63, -165798.23, -166568.06, -0.99, -0.23, 0.32
15, -166035.81, -143371.39, -166043.75, -165926.47, -165974.80, -165970.50, -165752.97, -166507.09, -0.99, -0.23, 0.32
16, -166207.41, -143463.28, -166036.59, -165868.67, -165804.23, -165972.14, -165707.16, -166513.92, -0.99, -0.23, 0.32
17, -166351.33, -143506.84, -166108.19, -165787.44, -165354.58, -166011.05, -165592.56, -166650.78, -1.00, -0.23, 0.31
18, -166453.45, -143513.33, -166140.42, -165830.97, -165319.00, -166022.69, -165588.80, -166761.83, -1.00, -0.23, 0.31
19, -166562.48, -143558.45, -166094.31, -165887.98, -165391.48, -166019.59, -165775.44, -166733.97, -1.00, -0.23, 0.31
20, -166699.95, -143610.41, -166049.92, -165816.95, -165490.09, -166010.41, -165957.20, -166626.84, -1.00, -0.23, 0.31
21, -167021.73, -143656.36, -166079.69, -165767.45, -165600.53, -165999.27, -165915.58, -166634.08, -1.00, -0.23, 0.31
22, -167314.92, -143698.84, -166055.06, -165854.05, -165718.27, -165986.91, -165834.38, -166597.64, -0.99, -0.23, 0.32
23, -167293.70, -143810.66, -166017.47, -165898.83, -165846.19, -165954.98, -165777.19, -166522.30, -0.99, -0.23, 0.32
24, -167252.33, -143925.52, -166022.53, -165850.42, -165975.42, -165966.08, -165723.94, -166535.95, -0.99, -0.23, 0.32
25, -167205.59, -144016.20, -166024.42, -165771.28, -166105.39, -165960.89, -165654.41, -166528.97, -0.99, -0.23, 0.32
26, -167137.44, -144065.39, -166073.83, -165767.38, -166220.94, -165984.72, -165537.38, -166664.84, -0.99, -0.23, 0.32
27, -167057.95, -144140.38, -166058.80, -165858.66, -166309.00, -165986.50, -165624.14, -166669.70, -0.99, -0.23, 0.33
28, -166998.02, -144237.91, -166013.55, -165825.84, -166421.77, -165955.81, -165861.16, -166564.36, -0.99, -0.23, 0.33
29, -166950.36, -144329.72, -166013.34, -165758.03, -166837.59, -165948.48, -165922.72, -166542.86, -0.99, -0.23, 0.33
30, -166904.56, -144402.20, -166006.52, -165806.67, -167193.61, -165932.13, -165865.55, -166502.94, -0.99, -0.23, 0.33
31, -166879.50, -144525.55, -165967.06, -165872.45, -167173.36, -165903.72, -165826.95, -166405.52, -0.99, -0.23, 0.33
32, -166864.47, -144673.98, -165971.67, -165851.91, -167134.67, -165901.75, -165800.19, -166434.41, -1.00, -0.23, 0.32
33, -166845.03, -144800.55, -165965.66, -165794.13, -167096.16, -165903.45, -165768.28, -166421.97, -1.00, -0.23, 0.32
34, -166814.59, -144891.92, -165991.33, -165753.45, -167059.92, -165919.88, -165725.19, -166479.86, -1.00, -0.23, 0.32
35, -166781.05, -144999.36, -165975.42, -165855.77, -167018.13, -165909.38, -165678.98, -166434.22, -1.00, -0.23, 0.32
36, -166768.17, -145151.08, -165953.89, -165885.09, -166981.58, -165893.50, -165652.69, -166378.25, -1.00, -0.23, 0.32
37, -166751.08, -145281.17, -165965.92, -165833.78, -166945.36, -165903.83, -165617.39, -166420.41, -0.99, -0.23, 0.33
38, -166718.58, -145374.33, -165986.66, -165749.78, -166903.84, -165923.98, -165530.44, -166526.44, -0.99, -0.23, 0.33
39, -166660.05, -145445.97, -166032.55, -165765.47, -166839.70, -165937.25, -165611.58, -166592.02, -0.99, -0.23, 0.33
40, -166610.30, -145554.16, -165984.16, -165857.41, -166771.81, -165913.06, -165858.81, -166487.83, -0.99, -0.23, 0.33
41, -166587.64, -145679.70, -165945.80, -165826.88, -166730.63, -165887.56, -165946.30, -166408.98, -0.99, -0.23, 0.33
42, -166566.33, -145785.53, -165946.16, -165750.45, -166697.83, -165892.23, -165912.61, -166431.94, -0.99, -0.23, 0.33
43, -166537.08, -145880.38, -165984.92, -165739.77, -166663.83, -165902.80, -165869.73, -166461.23, -0.99, -0.23, 0.33
44, -166511.86, -146017.89, -165955.42, -165853.11, -166621.44, -165889.59, -165831.28, -166406.31, -0.99, -0.23, 0.33
45, -166497.94, -146153.33, -165939.70, -165841.13, -166585.84, -165879.31, -165803.25, -166401.63, -0.99, -0.23, 0.33
46, -166477.34, -146263.19, -165940.86, -165769.06, -166551.20, -165886.86, -165769.77, -166411.61, -0.99, -0.23, 0.33
47, -166449.23, -146356.52, -165976.72, -165720.95, -166517.16, -165902.44, -165728.59, -166451.45, -0.99, -0.23, 0.33
48, -166417.19, -146483.47, -165969.81, -165825.63, -166470.22, -165892.86, -165684.78, -166431.91, -0.99, -0.23, 0.33
49, -166400.08, -146629.06, -165944.23, -165850.31, -166429.41, -165880.58, -165654.92, -166389.86, -0.99, -0.23, 0.33
50, -166380.77, -146740.97, -165941.56, -165782.19, -166394.92, -165883.41, -165622.08, -166387.70, -0.99, -0.23, 0.33
51, -166349.36, -146834.95, -165974.69, -165746.11, -166356.45, -165900.28, -165542.36, -166481.31, -0.99, -0.23, 0.33
52, -166283.45, -146944.44, -165988.03, -165826.36, -166294.56, -165906.63, -165528.13, -166535.64, -0.99, -0.23, 0.33
53, -165991.17, -147041.48, -165962.14, -165799.25, -166230.63, -165903.02, -165764.23, -166492.75, -0.99, -0.23, 0.32
54, -165899.17, -147117.55, -165963.63, -165722.33, -166174.39, -165896.78, -165905.80, -166478.00, -0.99, -0.23, 0.32
55, -166042.88, -147157.27, -165992.59, -165725.50, -166118.03, -165905.75, -165851.91, -166517.97, -0.99, -0.23, 0.32
56, -166195.08, -147232.55, -165959.89, -165837.52, -166058.39, -165886.78, -165790.91, -166445.64, -0.99, -0.23, 0.32
57, -166368.05, -147338.53, -165939.70, -165832.95, -166006.83, -165873.45, -165749.67, -166425.70, -0.99, -0.23, 0.32
58, -166537.05, -147412.25, -165938.77, -165758.20, -165959.78, -165881.34, -165703.94, -166438.64, -0.99, -0.23, 0.32
59, -166801.92, -147461.22, -165957.72, -165686.55, -165915.14, -165883.48, -165649.16, -166450.78, -0.99, -0.23, 0.32
60, -167215.42, -147547.34, -165940.39, -165780.02, -165870.17, -165863.66, -165597.16, -166403.80, -0.99, -0.23, 0.32
61, -167273.03, -147698.91, -165915.50, -165843.09, -165819.72, -165845.25, -165554.84, -166351.48, -0.99, -0.23, 0.32
62, -167240.34, -147813.44, -165955.06, -165781.41, -165477.48, -165885.45, -165478.70, -166506.25, -0.99, -0.23, 0.32
63, -167164.58, -147858.95, -166013.16, -165680.31, -165174.11, -165930.34, -165575.69, -166622.39, -0.99, -0.23, 0.33
64, -167077.14, -147896.34, -165991.95, -165731.97, -165246.48, -165912.28, -165784.81, -166581.59, -0.99, -0.23, 0.33
65, -167023.42, -147998.67, -165939.66, -165801.03, -165364.66, -165873.11, -165878.86, -166453.66, -0.99, -0.23, 0.33
66, -166982.84, -148105.98, -165924.91, -165748.84, -165496.77, -165871.75, -165831.97, -166443.91, -0.99, -0.23, 0.33
67, -166931.94, -148186.83, -165957.14, -165675.50, -165623.27, -165880.30, -165768.11, -166489.69, -0.99, -0.23, 0.33
68, -166872.23, -148248.39, -165949.20, -165734.36, -165747.14, -165877.23, -165695.31, -166474.38, -0.99, -0.23, 0.33
69, -166827.42, -148360.66, -165925.20, -165786.25, -165876.56, -165859.75, -165637.73, -166412.38, -0.99, -0.23, 0.33
70, -166790.70, -148477.02, -165907.53, -165740.70, -166013.59, -165848.69, -165588.25, -166393.75, -0.99, -0.23, 0.33
71, -166740.75, -148562.50, -165943.23, -165661.16, -166141.88, -165865.22, -165491.44, -166477.73, -0.99, -0.23, 0.33
72, -166659.45, -148600.78, -165982.55, -165681.30, -166239.91, -165891.56, -165429.05, -166609.94, -0.99, -0.23, 0.33
73, -166580.02, -148682.38, -165951.03, -165769.22, -166334.88, -165881.86, -165600.17, -166544.52, -0.99, -0.23, 0.33
74, -166530.59, -148785.20, -165896.86, -165734.94, -166742.02, -165836.55, -165816.05, -166399.50, -0.99, -0.23, 0.33
75, -166505.45, -148895.05, -165868.64, -165666.94, -167105.41, -165811.30, -165828.59, -166334.33, -0.99, -0.23, 0.33
76, -166472.61, -148977.72, -165906.64, -165649.73, -167084.69, -165828.34, -165782.50, -166408.86, -0.99, -0.23, 0.33
77, -166440.69, -149096.72, -165879.17, -165769.73, -167037.11, -165811.47, -165737.53, -166346.13, -0.99, -0.23, 0.33
78, -166426.72, -149241.09, -165862.19, -165783.73, -167001.36, -165799.64, -165710.17, -166304.75, -0.99, -0.22, 0.34
79, -166408.64, -149363.38, -165864.91, -165727.66, -166966.39, -165806.52, -165678.48, -166338.03, -0.99, -0.22, 0.34
80, -166382.11, -149455.19, -165874.33, -165644.95, -166929.39, -165811.61, -165638.58, -166354.38, -0.99, -0.22, 0.34
81, -166350.45, -149566.67, -165894.47, -165688.02, -166883.97, -165820.86, -165594.14, -166362.64, -0.99, -0.22, 0.34
82, -166330.41, -149706.09, -165854.05, -165767.73, -166843.61, -165795.20, -165561.42, -166295.19, -0.99, -0.22, 0.34
83, -166314.09, -149834.06, -165853.22, -165725.33, -166809.70, -165793.66, -165532.56, -166287.05, -0.99, -0.22, 0.33
84, -166291.56, -149933.34, -165858.77, -165643.13, -166774.58, -165803.77, -165471.64, -166348.41, -0.99, -0.22, 0.33
85, -166245.50, -150025.66, -165924.08, -165640.88, -166716.50, -165832.97, -165413.61, -166485.06, -0.99, -0.22, 0.33
86, -166131.25, -150129.89, -165895.83, -165728.77, -166645.75, -165817.75, -165604.06, -166425.52, -0.99, -0.22, 0.33
87, -165819.47, -150217.17, -165876.73, -165681.42, -166593.27, -165809.84, -165809.55, -166382.09, -0.99, -0.22, 0.33
88, -165840.34, -150268.27, -165899.02, -165608.63, -166539.22, -165818.80, -165784.92, -166420.17, -1.00, -0.24, 0.32
89, -165985.36, -150311.56, -165902.63, -165685.30, -166478.72, -165822.16, -165715.73, -166435.36, -1.00, -0.24, 0.32
90, -166151.50, -150416.66, -165859.39, -165762.56, -166423.34, -165788.16, -165667.03, -166324.73, -1.00, -0.24, 0.32
91, -166326.83, -150514.88, -165849.30, -165720.23, -166377.23, -165786.02, -165627.25, -166320.91, -1.00, -0.24, 0.32
92, -166494.20, -150573.02, -165862.61, -165631.11, -166332.56, -165793.97, -165578.61, -166357.09, -1.00, -0.24, 0.32
93, -166778.25, -150624.06, -165891.94, -165641.63, -166279.72, -165805.59, -165518.08, -166379.92, -1.00, -0.24, 0.32
94, -167172.88, -150739.48, -165842.50, -165742.63, -166232.59, -165774.88, -165455.00, -166298.42, -0.99, -0.23, 0.33
95, -167196.72, -150865.42, -165860.06, -165713.69, -166185.02, -165793.70, -165400.33, -166396.59, -0.99, -0.23, 0.33
96, -167144.94, -150956.69, -165867.42, -165624.61, -166119.39, -165799.11, -165582.19, -166405.84, -0.99, -0.23, 0.33
97, -167093.19, -151022.55, -165872.20, -165623.66, -166065.88, -165793.70, -165776.16, -166380.77, -0.99, -0.23, 0.33
98, -167063.64, -151142.53, -165827.39, -165736.48, -166025.16, -165760.58, -165766.75, -166287.81, -0.99, -0.23, 0.33
99, -167051.95, -151282.80, -165819.25, -165733.23, -165994.48, -165757.33, -165741.28, -166264.14, -1.00, -0.23, 0.33
100, -167034.88, -151411.77, -165811.69, -165679.44, -165962.09, -165758.14, -165711.33, -166284.50, -1.00, -0.23, 0.33
101, -167011.02, -151512.56, -165829.13, -165604.05, -165928.77, -165767.69, -165675.39, -166310.70, -1.00, -0.23, 0.33
102, -166980.42, -151627.28, -165852.31, -165655.75, -165886.80, -165774.64, -165632.39, -166322.92, -1.00, -0.23, 0.33
103, -166960.47, -151760.14, -165819.58, -165728.39, -165851.92, -165751.84, -165599.53, -166254.06, -1.00, -0.23, 0.33
104, -166941.94, -151882.69, -165814.69, -165679.34, -165818.78, -165758.66, -165567.70, -166285.86, -1.00, -0.23, 0.33
105, -166915.89, -151976.80, -165826.33, -165597.08, -165786.09, -165760.69, -165529.23, -166302.30, -1.00, -0.23, 0.33
106, -166885.42, -152083.08, -165847.28, -165638.41, -165744.19, -165759.13, -165485.98, -166304.53, -1.00, -0.23, 0.33
107, -166864.58, -152217.88, -165815.98, -165728.17, -165586.20, -165746.89, -165438.17, -166251.89, -1.00, -0.23, 0.33
108, -166825.69, -152320.97, -165859.92, -165670.55, -165148.30, -165799.22, -165359.56, -166443.88, -1.00, -0.23, 0.33
109, -166746.89, -152358.06, -165906.53, -165578.50, -165126.72, -165820.45, -165466.69, -166520.02, -1.00, -0.23, 0.32
110, -166663.23, -152405.09, -165888.11, -165648.64, -165220.16, -165810.80, -165681.94, -166469.28, -1.00, -0.23, 0.32
111, -166612.52, -152519.94, -165830.53, -165706.42, -165337.69, -165770.77, -165764.28, -166342.23, -1.00, -0.23, 0.32
112, -166571.88, -152627.58, -165823.86, -165648.70, -165469.78, -165763.23, -165713.84, -166345.00, -1.00, -0.23, 0.32
113, -166519.69, -152697.09, -165853.77, -165575.80, -165598.61, -165785.28, -165648.27, -166390.11, -1.00, -0.23, 0.32
114, -166457.34, -152761.45, -165846.86, -165648.27, -165719.97, -165774.36, -165574.28, -166371.88, -1.00, -0.24, 0.32
115, -166413.97, -152884.47, -165811.52, -165706.66, -165849.00, -165746.61, -165517.48, -166292.38, -1.00, -0.24, 0.32
116, -166377.69, -152998.94, -165811.67, -165657.64, -165989.03, -165748.55, -165463.25, -166299.13, -1.00, -0.24, 0.32
117, -166323.81, -153072.98, -165841.63, -165566.19, -166116.11, -165769.73, -165351.73, -166408.11, -1.00, -0.24, 0.32
118, -166240.80, -153106.84, -165887.91, -165567.03, -166210.73, -165787.80, -165383.03, -166504.86, -1.00, -0.24, 0.32
119, -166163.98, -153188.50, -165833.42, -165669.72, -166417.42, -165767.33, -165594.48, -166421.00, -1.00, -0.23, 0.32
120, -166126.30, -153312.83, -165775.70, -165659.95, -166926.31, -165716.08, -165754.16, -166250.81, -1.00, -0.23, 0.32
121, -166087.17, -153429.66, -165762.91, -165593.50, -167006.11, -165708.89, -165733.48, -166241.67, -1.00, -0.23, 0.32
122, -165812.31, -153502.92, -165800.11, -165533.70, -166967.02, -165720.05, -165687.86, -166286.41, -1.00, -0.23, 0.32
123, -165704.47, -153590.72, -165796.50, -165627.47, -166909.34, -165720.09, -165632.77, -166289.39, -1.00, -0.23, 0.32
124, -165871.69, -153686.14, -165769.77, -165640.55, -166860.84, -165705.48, -165591.31, -166245.47, -0.99, -0.23, 0.33
125, -166040.80, -153768.27, -165773.92, -165569.41, -166811.64, -165708.86, -165545.80, -166268.03, -0.99, -0.23, 0.33
126, -166195.55, -153809.67, -165803.64, -165522.80, -166759.08, -165721.45, -165486.86, -166306.52, -0.99, -0.23, 0.33
127, -166349.52, -153891.28, -165783.13, -165635.14, -166697.77, -165708.20, -165426.17, -166260.70, -0.99, -0.23, 0.33
128, -166604.75, -153996.27, -165776.77, -165650.98, -166640.78, -165706.31, -165336.83, -166288.03, -0.99, -0.23, 0.33
129, -167017.38, -154073.41, -165794.44, -165567.20, -166574.56, -165726.05, -165370.83, -166358.27, -0.99, -0.23, 0.33
130, -167047.83, -154127.14, -165808.83, -165532.70, -166507.09, -165724.08, -165603.23, -166356.77, -0.99, -0.23, 0.33
131, -167006.47, -154224.73, -165757.98, -165634.41, -166457.30, -165689.94, -165711.41, -166225.47, -0.99, -0.23, 0.33
132, -166992.98, -154370.48, -165734.88, -165648.42, -166423.08, -165673.14, -165692.06, -166175.14, -0.99, -0.23, 0.33
133, -166976.06, -154500.19, -165738.94, -165601.77, -166389.31, -165680.64, -165662.63, -166209.48, -0.99, -0.23, 0.33
134, -166950.58, -154597.06, -165747.81, -165524.61, -166352.83, -165686.59, -165624.25, -166222.14, -0.99, -0.23, 0.32
135, -166915.64, -154682.31, -165772.33, -165561.47, -166311.55, -165693.66, -165576.89, -166258.28, -0.99, -0.23, 0.32
136, -166890.13, -154812.42, -165751.75, -165648.59, -166269.84, -165679.91, -165538.98, -166198.33, -0.99, -0.23, 0.32
137, -166873.63, -154941.28, -165736.88, -165613.72, -166236.44, -165677.52, -165509.16, -166200.17, -0.99, -0.23, 0.32
138, -166849.52, -155042.89, -165740.39, -165536.39, -166200.91, -165684.48, -165471.66, -166217.88, -0.99, -0.23, 0.32
139, -166815.94, -155132.03, -165769.19, -165552.61, -166163.80, -165688.64, -165425.61, -166232.80, -0.99, -0.23, 0.33
140, -166794.39, -155268.56, -165732.28, -165653.33, -166125.22, -165671.11, -165388.83, -166150.77, -0.99, -0.23, 0.33
141, -166776.63, -155398.64, -165742.69, -165626.69, -166089.30, -165675.14, -165316.05, -166233.42, -0.99, -0.23, 0.33
142, -166730.23, -155486.19, -165768.00, -165533.42, -166032.75, -165703.11, -165354.44, -166333.98, -0.99, -0.23, 0.33
143, -166669.39, -155547.59, -165792.81, -165507.84, -165968.58, -165710.08, -165588.73, -166336.22, -0.99, -0.23, 0.33
144, -166630.17, -155664.09, -165745.16, -165621.64, -165916.72, -165675.13, -165691.11, -166218.50, -0.99, -0.23, 0.33
145, -166614.45, -155802.41, -165718.22, -165621.73, -165883.95, -165655.59, -165667.34, -166159.67, -0.99, -0.23, 0.33
146, -166594.94, -155920.44, -165717.22, -165558.50, -165851.39, -165662.86, -165635.41, -166193.53, -0.99, -0.23, 0.33
147, -166565.33, -156010.16, -165748.44, -165513.14, -165815.11, -165675.02, -165592.41, -166224.53, -0.99, -0.23, 0.33
148, -166537.02, -156139.27, -165732.53, -165621.48, -165772.41, -165658.72, -165550.63, -166179.78, -0.99, -0.23, 0.33
149, -166522.70, -156279.03, -165713.61, -165640.44, -165741.70, -165648.86, -165523.84, -166168.50, -0.99, -0.23, 0.33
150, -166503.39, -156400.17, -165713.91, -165582.77, -165709.55, -165655.91, -165491.78, -166188.50, -0.99, -0.23, 0.33
151, -166477.34, -156488.61, -165737.11, -165498.25, -165677.53, -165668.39, -165453.00, -166224.64, -0.99, -0.23, 0.33
152, -166445.08, -156601.77, -165751.77, -165542.80, -165573.98, -165663.45, -165408.02, -166210.14, -0.99, -0.23, 0.33
153, -166414.31, -156739.19, -165737.48, -165623.22, -165141.81, -165673.34, -165343.69, -166219.53, -0.99, -0.23, 0.33
154, -166360.86, -156841.20, -165771.06, -165555.14, -165039.58, -165707.88, -165268.19, -166355.88, -0.99, -0.23, 0.33
155, -166279.98, -156881.39, -165805.33, -165465.89, -165130.91, -165718.31, -165401.05, -166399.48, -0.98, -0.23, 0.33
156, -166200.95, -156939.14, -165783.95, -165547.23, -165224.16, -165702.11, -165612.81, -166346.14, -0.98, -0.23, 0.33
157, -166154.59, -157055.17, -165728.25, -165599.70, -165346.84, -165665.53, -165652.66, -166232.06, -0.98, -0.23, 0.33
158, -166113.94, -157156.20, -165726.20, -165534.58, -165483.08, -165666.00, -165599.94, -166241.36, -0.98, -0.23, 0.33
159, -166015.78, -157220.20, -165759.44, -165465.28, -165610.75, -165680.13, -165531.22, -166304.39, -0.98, -0.23, 0.33
160, -165675.03, -157268.48, -165756.89, -165540.25, -165720.98, -165680.17, -165449.00, -166296.08, -0.99, -0.23, 0.33
161, -165651.30, -157345.19, -165720.20, -165571.75, -165835.25, -165657.36, -165379.20, -166225.36, -0.99, -0.23, 0.33
162, -165798.06, -157409.09, -165733.48, -165500.58, -165950.45, -165662.20, -165271.56, -166288.45, -0.99, -0.23, 0.33
163, -165908.41, -157421.14, -165798.13, -165431.89, -166034.66, -165679.55, -165244.55, -166409.17, -0.99, -0.23, 0.33
164, -166002.02, -157418.34, -165784.72, -165502.59, -166102.72, -165667.39, -165397.34, -166416.39, -0.99, -0.23, 0.33
165, -166126.16, -157476.55, -165718.20, -165559.36, -166327.45, -165656.17, -165596.95, -166292.77, -0.99, -0.22, 0.33
166, -166286.58, -157559.70, -165675.64, -165512.67, -166822.66, -165622.44, -165609.44, -166171.16, -0.99, -0.22, 0.33
167, -166599.95, -157630.28, -165686.25, -165435.22, -166867.13, -165617.48, -165558.06, -166191.94, -0.99, -0.22, 0.33
168, -166961.33, -157696.69, -165699.72, -165469.53, -166814.22, -165615.02, -165499.22, -166194.89, -0.99, -0.22, 0.33
169, -166975.33, -157824.56, -165651.98, -165573.80, -166770.42, -165584.84, -165458.92, -166091.92, -0.99, -0.22, 0.33
170, -166961.98, -157957.58, -165647.09, -165557.67, -166740.98, -165581.30, -165433.84, -166096.45, -0.99, -0.23, 0.33
0, -166809.09, -158580.72, -165702.53, -165412.02, -166520.72, -165620.92, -165240.55, -166275.42, -0.99, -0.23, 0.33
1, -166741.70, -158637.33, -165706.17, -165452.53, -166451.17, -165618.28, -165456.08, -166249.59, -0.99, -0.23, 0.33
2, -166707.55, -158764.84, -165640.72, -165551.19, -166397.58, -165576.83, -165619.41, -166099.36, -0.99, -0.24, 0.32
3, -166693.20, -158901.14, -165637.95, -165528.66, -166363.56, -165571.08, -165607.20, -166098.58, -0.99, -0.24, 0.32
4, -166671.67, -159013.30, -165639.20, -165455.70, -166332.94, -165581.63, -165571.97, -166117.13, -0.99, -0.24, 0.32
5, -166637.81, -159101.75, -165669.36, -165434.63, -166293.86, -165589.19, -165524.98, -166161.45, -0.99, -0.24, 0.32
6, -166609.67, -159235.20, -165637.75, -165536.83, -166249.70, -165569.95, -165483.64, -166101.06, -0.99, -0.24, 0.32
7, -166594.27, -159378.11, -165629.14, -165529.22, -166216.75, -165567.48, -165455.77, -166072.38, -0.99, -0.23, 0.33
8, -166571.30, -159500.67, -165630.58, -165465.33, -166180.00, -165571.75, -165420.41, -166100.81, -0.99, -0.23, 0.33
9, -166538.81, -159595.03, -165665.41, -165434.27, -166137.25, -165586.03, -165375.13, -166159.05, -0.99, -0.23, 0.33
10, -166506.66, -159715.88, -165650.20, -165535.47, -166090.64, -165578.28, -165329.91, -166102.33, -0.99, -0.23, 0.33
11, -166492.23, -159850.08, -165620.47, -165538.84, -166059.28, -165559.08, -165302.03, -166056.30, -0.99, -0.23, 0.33
12, -166475.27, -159973.48, -165623.83, -165482.44, -166026.20, -165565.72, -165248.75, -166088.08, -0.99, -0.23, 0.33
13, -166430.70, -160049.81, -165687.64, -165406.05, -165974.03, -165603.58, -165190.55, -166253.23, -0.99, -0.23, 0.33
14, -166367.11, -160129.33, -165686.30, -165476.95, -165898.44, -165600.84, -165360.23, -166242.81, -0.99, -0.23, 0.33
15, -166332.58, -160249.28, -165627.66, -165522.95, -165845.31, -165561.63, -165592.42, -166099.25, -0.99, -0.23, 0.33
16, -166311.70, -160369.45, -165624.30, -165470.34, -165808.61, -165560.91, -165609.88, -166098.59, -0.99, -0.23, 0.33
17, -166282.31, -160461.69, -165638.61, -165399.81, -165772.28, -165566.45, -165568.11, -166123.48, -0.99, -0.23, 0.33
18, -166247.44, -160565.72, -165633.63, -165473.73, -165729.44, -165561.42, -165520.19, -166107.34, -0.99, -0.23, 0.33
19, -166228.00, -160710.58, -165623.45, -165532.09, -165691.89, -165551.47, -165487.38, -166067.00, -0.99, -0.23, 0.33
20, -166212.86, -160842.23, -165609.56, -165487.86, -165660.64, -165548.28, -165459.03, -166061.92, -0.99, -0.23, 0.33
21, -166188.72, -160942.64, -165616.47, -165410.45, -165627.25, -165557.44, -165421.17, -166103.66, -0.99, -0.23, 0.33
22, -166153.94, -161041.67, -165645.36, -165447.27, -165583.89, -165563.66, -165372.77, -166120.33, -0.99, -0.23, 0.33
23, -166131.53, -161193.00, -165611.88, -165530.47, -165543.05, -165538.94, -165337.56, -166053.16, -0.99, -0.23, 0.33
24, -166112.70, -161327.17, -165614.73, -165494.30, -165343.67, -165548.59, -165306.03, -166065.98, -0.99, -0.23, 0.33
25, -166072.83, -161415.73, -165641.16, -165404.83, -164944.17, -165581.09, -165225.25, -166164.67, -0.99, -0.23, 0.33
26, -165998.44, -161468.75, -165701.09, -165384.95, -164974.17, -165605.13, -165152.27, -166302.31, -0.99, -0.23, 0.33
27, -165768.59, -161548.39, -165670.72, -165477.64, -165061.19, -165601.50, -165306.77, -166263.28, -0.99, -0.23, 0.33
28, -165496.36, -161616.09, -165642.05, -165435.42, -165167.09, -165584.05, -165519.83, -166203.52, -0.99, -0.23, 0.33
29, -165588.22, -161661.75, -165668.53, -165359.34, -165276.48, -165588.33, -165508.36, -166247.48, -0.99, -0.23, 0.33
30, -165707.77, -161680.64, -165672.39, -165413.31, -165376.02, -165591.48, -165415.13, -166240.17, -0.99, -0.23, 0.33
31, -165844.63, -161746.41, -165633.89, -165480.59, -165480.84, -165559.66, -165338.89, -166158.59, -0.99, -0.23, 0.33
32, -165994.28, -161825.97, -165612.03, -165432.55, -165599.95, -165547.94, -165272.34, -166114.73, -0.99, -0.23, 0.33
33, -166130.08, -161870.41, -165650.97, -165346.48, -165711.31, -165564.86, -165151.06, -166218.45, -0.99, -0.23, 0.33
34, -166229.73, -161864.41, -165692.52, -165355.27, -165791.31, -165570.23, -165128.72, -166310.70, -0.99, -0.23, 0.33
35, -166405.45, -161895.78, -165647.41, -165439.20, -165862.55, -165561.52, -165296.59, -166287.27, -0.99, -0.23, 0.33
36, -166813.39, -161987.98, -165589.08, -165417.52, -165967.00, -165539.61, -165508.78, -166149.58, -0.99, -0.23, 0.33
37, -166880.94, -162095.19, -165580.28, -165351.36, -166337.23, -165517.72, -165513.20, -166091.36, -0.99, -0.23, 0.32
38, -166834.02, -162172.72, -165580.11, -165365.11, -166753.08, -165502.84, -165454.17, -166066.22, -0.99, -0.23, 0.32
39, -166802.72, -162293.94, -165548.45, -165441.22, -166744.77, -165481.33, -165410.66, -166014.78, -0.99, -0.23, 0.32
40, -166786.95, -162448.47, -165540.55, -165430.48, -166706.14, -165480.38, -165381.48, -166001.69, -0.99, -0.23, 0.32
41, -166769.28, -162583.81, -165535.89, -165381.41, -166669.78, -165479.13, -165350.33, -166000.13, -0.99, -0.23, 0.32
42, -166741.59, -162686.88, -165562.03, -165315.31, -166629.19, -165492.27, -165311.11, -166046.91, -0.99, -0.23, 0.32
43, -166703.58, -162787.56, -165564.63, -165389.20, -166585.91, -165487.77, -165261.44, -166027.41, -0.99, -0.23, 0.33
44, -166684.34, -162935.03, -165537.33, -165452.75, -166549.80, -165473.89, -165229.20, -165972.06, -0.99, -0.23, 0.33
45, -166667.94, -163061.06, -165535.27, -165406.39, -166518.84, -165474.09, -165196.84, -165986.75, -0.99, -0.23, 0.33
46, -166635.84, -163159.13, -165565.31, -165323.64, -166475.41, -165495.55, -165108.52, -166097.42, -0.99, -0.23, 0.33
47, -166573.28, -163228.69, -165608.31, -165335.00, -166405.58, -165517.64, -165160.30, -166172.72, -0.99, -0.23, 0.33
48, -166520.84, -163341.83, -165560.73, -165427.88, -166335.75, -165485.05, -165404.95, -166061.41, -1.00, -0.23, 0.32
49, -166497.38, -163477.09, -165527.09, -165403.95, -166295.16, -165463.52, -165515.33, -165995.84, -1.00, -0.23, 0.32
50, -166473.33, -163592.17, -165534.20, -165330.86, -166257.20, -165475.02, -165481.84, -166025.63, -1.00, -0.23, 0.32
51, -166439.67, -163687.83, -165554.66, -165320.61, -166216.06, -165479.77, -165434.17, -166034.03, -1.00, -0.23, 0.32
52, -166412.94, -163818.81, -165529.64, -165426.33, -166176.00, -165457.75, -165394.28, -165976.50, -1.00, -0.23, 0.32
53, -166397.22, -163955.81, -165520.97, -165413.70, -166146.20, -165460.89, -165365.16, -165973.00, -0.99, -0.23, 0.32
54, -166374.22, -164074.83, -165525.66, -165343.94, -166111.52, -165465.02, -165329.23, -166006.42, -0.99, -0.23, 0.32
55, -166342.70, -164168.11, -165552.91, -165291.84, -166073.02, -165475.20, -165285.52, -166030.08, -0.99, -0.23, 0.32
56, -166307.34, -164289.83, -165542.69, -165399.48, -166026.09, -165469.59, -165237.56, -166002.94, -0.99, -0.23, 0.32
57, -166288.91, -164433.58, -165517.45, -165430.03, -165991.89, -165449.19, -165205.98, -165950.36, -0.99, -0.23, 0.32
58, -166269.97, -164558.47, -165513.25, -165369.64, -165959.38, -165456.14, -165171.36, -165971.28, -0.99, -0.22, 0.33
59, -166237.36, -164648.58, -165548.45, -165291.39, -165920.59, -165474.39, -165081.86, -166060.48, -0.99, -0.22, 0.33
60, -166181.80, -164743.89, -165575.91, -165353.81, -165854.50, -165490.19, -165115.50, -166136.47, -0.99, -0.22, 0.33
61, -166136.69, -164866.55, -165530.39, -165401.05, -165792.97, -165462.31, -165366.52, -166035.53, -0.99, -0.22, 0.33
62, -166109.75, -164990.53, -165513.67, -165343.38, -165751.95, -165455.67, -165482.44, -166005.08, -0.99, -0.22, 0.33
63, -166076.30, -165081.50, -165546.94, -165294.70, -165713.41, -165466.84, -165440.44, -166038.75, -0.99, -0.23, 0.33
64, -166039.73, -165193.94, -165527.25, -165388.75, -165668.86, -165452.17, -165390.44, -166004.20, -0.99, -0.23, 0.33
65, -166023.36, -165346.75, -165506.58, -165413.92, -165632.34, -165443.83, -165359.31, -165952.63, -0.99, -0.23, 0.33
66, -166005.97, -165473.02, -165496.00, -165366.09, -165600.50, -165436.23, -165329.02, -165945.88, -0.99, -0.23, 0.33
67, -165985.69, -165508.67, -165497.89, -165288.22, -165572.02, -165435.72, -165296.31, -165957.11, -0.99, -0.23, 0.33
68, -165965.61, -165508.27, -165512.52, -165313.66, -165541.97, -165441.22, -165263.11, -165976.27, -1.00, -0.22, 0.33
69, -165958.09, -165506.06, -165484.36, -165422.17, -165517.48, -165423.94, -165242.31, -165884.56, -1.00, -0.22, 0.33
70, -165959.08, -165506.86, -165489.50, -165407.86, -165502.17, -165423.22, -165230.27, -165889.64, -1.00, -0.22, 0.33
71, -165950.67, -165509.80, -165478.94, -165344.39, -165481.17, -165425.14, -165209.77, -165922.69, -1.00, -0.22, 0.33
72, -165935.55, -165509.67, -165506.03, -165298.75, -165455.39, -165435.97, -165182.34, -165956.53, -1.00, -0.22, 0.33
73, -165924.17, -165504.53, -165495.28, -165392.05, -165425.83, -165430.39, -165158.05, -165905.08, -0.99, -0.23, 0.32
74, -165924.55, -165509.16, -165484.13, -165412.31, -165407.73, -165422.17, -165143.44, -165884.38, -0.99, -0.23, 0.32
75, -165912.33, -165508.83, -165499.19, -165348.67, -165227.06, -165436.16, -165075.27, -165987.78, -0.99, -0.23, 0.32
76, -165817.45, -165499.70, -165576.17, -165270.94, -164799.89, -165493.03, -165111.44, -166144.13, -0.99, -0.23, 0.32
77, -165471.09, -165499.00, -165581.30, -165338.22, -164803.20, -165497.52, -165322.53, -166161.28, -0.99, -0.23, 0.32
78, -165450.11, -165498.59, -165527.30, -165346.48, -164914.83, -165467.20, -165444.23, -166067.83, -0.99, -0.23, 0.33
79, -165604.56, -165498.39, -165544.08, -165264.34, -165032.61, -165474.19, -165386.11, -166089.38, -0.99, -0.23, 0.33
80, -165736.55, -165499.03, -165564.84, -165278.78, -165136.06, -165486.20, -165297.45, -166139.64, -0.99, -0.23, 0.33
81, -165882.77, -165492.02, -165531.25, -165374.89, -165239.67, -165460.08, -165220.25, -166063.22, -0.99, -0.23, 0.33
82, -166051.31, -165489.22, -165508.47, -165345.77, -165364.64, -165443.94, -165157.14, -166009.84, -0.99, -0.23, 0.33
83, -166252.50, -165475.38, -165529.50, -165262.13, -165480.55, -165454.78, -165043.23, -166096.13, -0.99, -0.23, 0.33
84, -166644.81, -165477.42, -165587.23, -165234.14, -165570.36, -165471.39, -165055.78, -166203.55, -0.99, -0.23, 0.33
85, -166735.89, -165475.86, -165526.02, -165333.97, -165658.58, -165457.36, -165258.78, -166106.42, -0.99, -0.23, 0.33
86, -166695.70, -165467.44, -165473.77, -165339.45, -165787.83, -165414.73, -165432.00, -165960.63, -0.99, -0.23, 0.33
87, -166665.31, -165464.28, -165466.97, -165280.64, -166035.39, -165409.36, -165410.02, -165957.77, -0.99, -0.23, 0.33
88, -166628.25, -165462.83, -165478.00, -165230.92, -166573.59, -165407.38, -165360.48, -165968.48, -0.99, -0.22, 0.33
89, -166600.86, -165455.81, -165455.70, -165336.83, -166678.83, -165391.42, -165320.36, -165906.08, -0.99, -0.22, 0.33
90, -166601.50, -165454.00, -165427.09, -165381.64, -166655.88, -165375.72, -165308.25, -165830.36, -0.99, -0.22, 0.33
91, -166600.78, -165463.30, -165444.67, -165346.47, -166636.47, -165373.89, -165294.91, -165868.47, -0.99, -0.22, 0.33
92, -166592.63, -165467.36, -165427.77, -165274.81, -166616.58, -165375.92, -165273.86, -165871.42, -0.99, -0.22, 0.33
93, -166580.27, -165463.25, -165448.44, -165242.34, -166589.95, -165384.03, -165248.75, -165895.67, -0.99, -0.22, 0.33
94, -166570.17, -165457.31, -165446.31, -165346.94, -166560.48, -165380.42, -165226.64, -165859.02, -1.00, -0.22, 0.33
95, -166567.66, -165461.11, -165435.20, -165355.42, -166542.59, -165373.75, -165212.06, -165850.88, -1.00, -0.22, 0.33
96, -166557.38, -165462.52, -165439.84, -165285.84, -166520.31, -165384.69, -165189.42, -165891.88, -1.00, -0.22, 0.33
97, -166542.75, -165463.91, -165459.91, -165236.19, -166493.11, -165391.19, -165161.44, -165902.98, -1.00, -0.22, 0.33
98, -166531.59, -165459.98, -165442.58, -165334.58, -166463.73, -165392.55, -165137.45, -165863.64, -1.00, -0.22, 0.33
