%OpenBCI Raw EEG Data
%
%Sample Rate = 250.0 Hz
%First Column = SampleIndex
%Other Columns = EEG data in microvolts followed by Accel Data (in G) interleaved with Aux Data
0, -163475.31, 187500.00, -187500.02, -187500.02, 73614.59, 0.00, 0.00, 0.00, 0.00, 0.00, 0.00
1, -163283.42, 187500.00, -187500.02, -187500.02, 64111.75, 0.00, 0.00, 0.00, 0.00, 0.00, 0.00
2, -163336.19, 187500.00, -187500.02, -187500.02, 68652.80, 0.00, 0.00, 0.00, 0.00, 0.00, 0.00
3, -163778.02, 187500.00, -187500.02, -187500.02, 78885.98, 0.00, 0.00, 0.00, 0.00, 0.00, 0.00
4, -164021.45, 187500.00, -187500.02, -187500.02, 75397.08, 0.00, 0.00, 0.00, 0.00, 0.00, 0.00
5, -163856.13, 187500.00, -187500.02, -187500.02, 64825.78, 0.00, 0.00, 0.00, 0.00, 0.00, 0.00
6, -163831.63, 187500.00, -187500.02, -187500.02, 66668.55, 0.00, 0.00, 0.00, 0.00, 0.00, 0.00
7, -164196.58, 187500.00, -187500.02, -187500.02, 77636.23, 0.00, 0.00, 0.00, 0.00, 0.00, 0.00
8, -164491.72, 187500.00, -187500.02, -187500.02, 77130.34, 0.00, 0.00, 0.00, 0.00, 0.00, 0.00
9, -164357.83, 187500.00, -187500.02, -187500.02, 66212.91, 0.00, 0.00, 0.00, 0.00, 0.00, 0.00
10, -164219.67, 187500.00, -187500.02, -187500.02, 65242.15, 0.00, 0.00, 0.00, 0.00, 0.00, 0.00
11, -164518.80, 187500.00, -187500.02, -187500.02, 76098.59, 0.00, 0.00, 0.00, 0.00, 0.00, 0.00
12, -164855.58, 187500.00, -187500.02, -187500.02, 78557.21, 0.00, 0.00, 0.00, 0.00, 0.00, 0.00
13, -164756.64, 187500.00, -187500.02, -187500.02, 68014.21, 0.00, 0.00, 0.00, 0.00, 0.00, 0.00
14, -164595.94, 187500.00, -187500.02, -187500.02, 64230.15, 0.00, 0.00, 0.00, 0.00, 0.00, 0.00
15, -164830.67, 187500.00, -187500.02, -187500.02, 74172.00, 0.00, 0.00, 0.00, 0.00, 0.00, 0.00
16, -165243.42, 187500.00, -187500.02, -187500.02, 79354.23, 0.00, 0.00, 0.00, 0.00, 0.00, 0.00
17, -165257.44, 187500.00, -187500.02, -187500.02, 69837.55, 0.00, 0.00, 0.00, 0.00, 0.00, 0.00
18, -165049.33, 187500.00, -187500.02, -187500.02, 63520.57, 0.00, 0.00, 0.00, 0.00, 0.00, 0.00
19, -165184.61, 187500.00, -187500.02, -187500.02, 72029.52, 0.00, 0.00, 0.00, 0.00, 0.00, 0.00
20, -165629.06, 187500.00, -187500.02, -187500.02, 79609.52, 0.00, 0.00, 0.00, 0.00, 0.00, 0.00
21, -165718.11, 187500.00, -187500.02, -187500.02, 71925.56, 0.00, 0.00, 0.00, 0.00, 0.00, 0.00
22, -165506.80, 187500.00, -187500.02, -187500.02, 63545.70, 0.00, 0.00, 0.00, 0.00, 0.00, 0.00
23, -165551.88, 187500.00, -187500.02, -187500.02, 70030.94, 0.00, 0.00, 0.00, 0.00, 0.00, 0.00
24, -165974.14, 187500.00, -187500.02, -187500.02, 79458.30, 0.00, 0.00, 0.00, 0.00, 0.00, 0.00
25, -166144.67, 187500.00, -187500.02, -187500.02, 74120.46, 0.00, 0.00, 0.00, 0.00, 0.00, 0.00
26, -165909.97, 187500.00, -187500.02, -187500.02, 64254.22, 0.00, 0.00, 0.00, 0.00, 0.00, 0.00
27, -165912.91, 187500.00, -187500.02, -187500.02, 68168.17, 0.00, 0.00, 0.00, 0.00, 0.00, 0.00
28, -166304.94, 187500.00, -187500.02, -187500.02, 78738.02, 0.00, 0.00, 0.00, 0.00, 0.00, 0.00
29, -166551.53, 187500.00, -187500.02, -187500.02, 76185.38, 0.00, 0.00, 0.00, 0.00, 0.00, 0.00
30, -166375.31, 187500.00, -187500.02, -187500.02, 65426.04, 0.00, 0.00, 0.00, 0.00, 0.00, 0.00
31, -166302.81, 187500.00, -187500.02, -187500.02, 66351.84, 0.00, 0.00, 0.00, 0.00, 0.00, 0.00
32, -166651.53, 187500.00, -187500.02, -187500.02, 77351.74, 0.00, 0.00, 0.00, 0.00, 0.00, 0.00
33, -166964.44, 187500.00, -187500.02, -187500.02, 77825.06, 0.00, 0.00, 0.00, 0.00, 0.00, 0.00
34, -166836.98, 187500.00, -187500.02, -187500.02, 66940.74, 0.00, 0.00, 0.00, 0.00, 0.00, 0.00
35, -166716.88, 187500.00, -187500.02, -187500.02, 65005.84, 0.00, 0.00, 0.00, 0.00, 0.00, 0.00
36, -167006.03, 187500.00, -187500.02, -187500.02, 75633.67, 0.00, 0.00, 0.00, 0.00, 0.00, 0.00
37, -167358.28, 187500.00, -187500.02, -187500.02, 79056.30, 0.00, 0.00, 0.00, 0.00, 0.00, 0.00
38, -167285.50, 187500.00, -187500.02, -187500.02, 68801.26, 0.00, 0.00, 0.00, 0.00, 0.00, 0.00
39, -167097.72, 187500.00, -187500.02, -187500.02, 64166.00, 0.00, 0.00, 0.00, 0.00, 0.00, 0.00
40, -167354.36, 187500.00, -187500.02, -187500.02, 73629.28, 0.00, 0.00, 0.00, 0.00, 0.00, 0.00
41, -167759.84, 187500.00, -187500.02, -187500.02, 79697.89, 0.00, 0.00, 0.00, 0.00, 0.00, 0.00
42, -167774.25, 187500.00, -187500.02, -187500.02, 70763.41, 0.00, 0.00, 0.00, 0.00, 0.00, 0.00
43, -167563.95, 187500.00, -187500.02, -187500.02, 63726.12, 0.00, 0.00, 0.00, 0.00, 0.00, 0.00
44, -167696.66, 187500.00, -187500.02, -187500.02, 71456.67, 0.00, 0.00, 0.00, 0.00, 0.00, 0.00
45, -168090.56, 187500.00, -187500.02, -187500.02, 79775.41, 0.00, 0.00, 0.00, 0.00, 0.00, 0.00
46, -168201.94, 187500.00, -187500.02, -187500.02, 72876.61, 0.00, 0.00, 0.00, 0.00, 0.00, 0.00
47, -167974.69, 187500.00, -187500.02, -187500.02, 63900.11, 0.00, 0.00, 0.00, 0.00, 0.00, 0.00
48, -168021.33, 187500.00, -187500.02, -187500.02, 69390.50, 0.00, 0.00, 0.00, 0.00, 0.00, 0.00
49, -168446.25, 187500.00, -187500.02, -187500.02, 79291.00, 0.00, 0.00, 0.00, 0.00, 0.00, 0.00
50, -168631.77, 187500.00, -187500.02, -187500.02, 74908.16, 0.00, 0.00, 0.00, 0.00, 0.00, 0.00
51, -168474.95, 187500.00, -187500.02, -187500.02, 64534.07, 0.00, 0.00, 0.00, 0.00, 0.00, 0.00
52, -168439.39, 187500.00, -187500.02, -187500.02, 67438.25, 0.00, 0.00, 0.00, 0.00, 0.00, 0.00
53, -168848.33, 187500.00, -187500.02, -187500.02, 78221.55, 0.00, 0.00, 0.00, 0.00, 0.00, 0.00
54, -169163.70, 187500.00, -187500.02, -187500.02, 76629.40, 0.00, 0.00, 0.00, 0.00, 0.00, 0.00
55, -169033.20, 187500.00, -187500.02, -187500.02, 65600.78, 0.00, 0.00, 0.00, 0.00, 0.00, 0.00
56, -168980.44, 187500.00, -187500.02, -187500.02, 65626.40, 0.00, 0.00, 0.00, 0.00, 0.00, 0.00
57, -169326.95, 187500.00, -187500.02, -187500.02, 76576.70, 0.00, 0.00, 0.00, 0.00, 0.00, 0.00
58, -169660.06, 187500.00, -187500.02, -187500.02, 78003.20, 0.00, 0.00, 0.00, 0.00, 0.00, 0.00
59, -169573.05, 187500.00, -187500.02, -187500.02, 67168.06, 0.00, 0.00, 0.00, 0.00, 0.00, 0.00
60, -169447.70, 187500.00, -187500.02, -187500.02, 64263.79, 0.00, 0.00, 0.00, 0.00, 0.00, 0.00
61, -169766.50, 187500.00, -187500.02, -187500.02, 74528.13, 0.00, 0.00, 0.00, 0.00, 0.00, 0.00
62, -170194.41, 187500.00, -187500.02, -187500.02, 78802.03, 0.00, 0.00, 0.00, 0.00, 0.00, 0.00
63, -170188.14, 187500.00, -187500.02, -187500.02, 68849.72, 0.00, 0.00, 0.00, 0.00, 0.00, 0.00
64, -169999.52, 187500.00, -187500.02, -187500.02, 63327.21, 0.00, 0.00, 0.00, 0.00, 0.00, 0.00
65, -170180.23, 187500.00, -187500.02, -187500.02, 72314.73, 0.00, 0.00, 0.00, 0.00, 0.00, 0.00
66, -170601.72, 187500.00, -187500.02, -187500.02, 79154.48, 0.00, 0.00, 0.00, 0.00, 0.00, 0.00
67, -170661.52, 187500.00, -187500.02, -187500.02, 70799.17, 0.00, 0.00, 0.00, 0.00, 0.00, 0.00
68, -170431.55, 187500.00, -187500.02, -187500.02, 63056.53, 0.00, 0.00, 0.00, 0.00, 0.00, 0.00
69, -170545.66, 187500.00, -187500.02, -187500.02, 70040.89, 0.00, 0.00, 0.00, 0.00, 0.00, 0.00
70, -170965.47, 187500.00, -187500.02, -187500.02, 78953.66, 0.00, 0.00, 0.00, 0.00, 0.00, 0.00
71, -171091.22, 187500.00, -187500.02, -187500.02, 72852.94, 0.00, 0.00, 0.00, 0.00, 0.00, 0.00
72, -170876.00, 187500.00, -187500.02, -187500.02, 63386.04, 0.00, 0.00, 0.00, 0.00, 0.00, 0.00
73, -170887.84, 187500.00, -187500.02, -187500.02, 67977.95, 0.00, 0.00, 0.00, 0.00, 0.00, 0.00
74, -171293.17, 187500.00, -187500.02, -187500.02, 78264.74, 0.00, 0.00, 0.00, 0.00, 0.00, 0.00
75, -171499.36, 187500.00, -187500.02, -187500.02, 74829.26, 0.00, 0.00, 0.00, 0.00, 0.00, 0.00
76, -171318.67, 187500.00, -187500.02, -187500.02, 64236.77, 0.00, 0.00, 0.00, 0.00, 0.00, 0.00
77, -171263.11, 187500.00, -187500.02, -187500.02, 66075.46, 0.00, 0.00, 0.00, 0.00, 0.00, 0.00
78, -171627.08, 187500.00, -187500.02, -187500.02, 77024.78, 0.00, 0.00, 0.00, 0.00, 0.00, 0.00
79, -171917.86, 187500.00, -187500.02, -187500.02, 76506.84, 0.00, 0.00, 0.00, 0.00, 0.00, 0.00
80, -171776.41, 187500.00, -187500.02, -187500.02, 65478.81, 0.00, 0.00, 0.00, 0.00, 0.00, 0.00
81, -171659.58, 187500.00, -187500.02, -187500.02, 64518.51, 0.00, 0.00, 0.00, 0.00, 0.00, 0.00
82, -171953.73, 187500.00, -187500.02, -187500.02, 75397.37, 0.00, 0.00, 0.00, 0.00, 0.00, 0.00
83, -172283.08, 187500.00, -187500.02, -187500.02, 77862.77, 0.00, 0.00, 0.00, 0.00, 0.00, 0.00
84, -172184.22, 187500.00, -187500.02, -187500.02, 67226.52, 0.00, 0.00, 0.00, 0.00, 0.00, 0.00
85, -171990.20, 187500.00, -187500.02, -187500.02, 63489.66, 0.00, 0.00, 0.00, 0.00, 0.00, 0.00
86, -172231.39, 187500.00, -187500.02, -187500.02, 73506.62, 0.00, 0.00, 0.00, 0.00, 0.00, 0.00
87, -172629.38, 187500.00, -187500.02, -187500.02, 78717.19, 0.00, 0.00, 0.00, 0.00, 0.00, 0.00
88, -172627.02, 187500.00, -187500.02, -187500.02, 69200.75, 0.00, 0.00, 0.00, 0.00, 0.00, 0.00
89, -172395.16, 187500.00, -187500.02, -187500.02, 62963.81, 0.00, 0.00, 0.00, 0.00, 0.00, 0.00
90, -172549.52, 187500.00, -187500.02, -187500.02, 71413.91, 0.00, 0.00, 0.00, 0.00, 0.00, 0.00
91, -173003.02, 187500.00, -187500.02, -187500.02, 79024.19, 0.00, 0.00, 0.00, 0.00, 0.00, 0.00
92, -173069.17, 187500.00, -187500.02, -187500.02, 71372.49, 0.00, 0.00, 0.00, 0.00, 0.00, 0.00
93, -172828.52, 187500.00, -187500.02, -187500.02, 63007.66, 0.00, 0.00, 0.00, 0.00, 0.00, 0.00
94, -172907.48, 187500.00, -187500.02, -187500.02, 69213.90, 0.00, 0.00, 0.00, 0.00, 0.00, 0.00
95, -173317.23, 187500.00, -187500.02, -187500.02, 78652.86, 0.00, 0.00, 0.00, 0.00, 0.00, 0.00
96, -173506.22, 187500.00, -187500.02, -187500.02, 73386.43, 0.00, 0.00, 0.00, 0.00, 0.00, 0.00
97, -173272.27, 187500.00, -187500.02, -187500.02, 63471.66, 0.00, 0.00, 0.00, 0.00, 0.00, 0.00
98, -173275.56, 187500.00, -187500.02, -187500.02, 67115.34, 0.00, 0.00, 0.00, 0.00, 0.00, 0.00
99, -173704.14, 187500.00, -187500.02, -187500.02, 77670.41, 0.00, 0.00, 0.00, 0.00, 0.00, 0.00
100, -173962.50, 187500.00, -187500.02, -187500.02, 75165.31, 0.00, 0.00, 0.00, 0.00, 0.00, 0.00
101, -173772.22, 187500.00, -187500.02, -187500.02, 64361.55, 0.00, 0.00, 0.00, 0.00, 0.00, 0.00
102, -173696.67, 187500.00, -187500.02, -187500.02, 65237.23, 0.00, 0.00, 0.00, 0.00, 0.00, 0.00
103, -174029.25, 187500.00, -187500.02, -187500.02, 76229.68, 0.00, 0.00, 0.00, 0.00, 0.00, 0.00
104, -174356.92, 187500.00, -187500.02, -187500.02, 76634.65, 0.00, 0.00, 0.00, 0.00, 0.00, 0.00
105, -174233.39, 187500.00, -187500.02, -187500.02, 65667.88, 0.00, 0.00, 0.00, 0.00, 0.00, 0.00
106, -174086.84, 187500.00, -187500.02, -187500.02, 63653.96, 0.00, 0.00, 0.00, 0.00, 0.00, 0.00
107, -174368.61, 187500.00, -187500.02, -187500.02, 74240.18, 0.00, 0.00, 0.00, 0.00, 0.00, 0.00
108, -174731.72, 187500.00, -187500.02, -187500.02, 77644.10, 0.00, 0.00, 0.00, 0.00, 0.00, 0.00
109, -174649.47, 187500.00, -187500.02, -187500.02, 67305.55, 0.00, 0.00, 0.00, 0.00, 0.00, 0.00
110, -174449.14, 187500.00, -187500.02, -187500.02, 62557.50, 0.00, 0.00, 0.00, 0.00, 0.00, 0.00
111, -174688.00, 187500.00, -187500.02, -187500.02, 72062.34, 0.00, 0.00, 0.00, 0.00, 0.00, 0.00
112, -175142.11, 187500.00, -187500.02, -187500.02, 78083.89, 0.00, 0.00, 0.00, 0.00, 0.00, 0.00
113, -175165.77, 187500.00, -187500.02, -187500.02, 69054.23, 0.00, 0.00, 0.00, 0.00, 0.00, 0.00
114, -174972.98, 187500.00, -187500.02, -187500.02, 61879.28, 0.00, 0.00, 0.00, 0.00, 0.00, 0.00
115, -175148.47, 187500.00, -187500.02, -187500.02, 69664.75, 0.00, 0.00, 0.00, 0.00, 0.00, 0.00
116, -175600.58, 187500.00, -187500.02, -187500.02, 77908.32, 0.00, 0.00, 0.00, 0.00, 0.00, 0.00
117, -175683.72, 187500.00, -187500.02, -187500.02, 70925.68, 0.00, 0.00, 0.00, 0.00, 0.00, 0.00
118, -175491.75, 187500.00, -187500.02, -187500.02, 61832.63, 0.00, 0.00, 0.00, 0.00, 0.00, 0.00
119, -175584.33, 187500.00, -187500.02, -187500.02, 67341.76, 0.00, 0.00, 0.00, 0.00, 0.00, 0.00
120, -176016.50, 187500.00, -187500.02, -187500.02, 77210.59, 0.00, 0.00, 0.00, 0.00, 0.00, 0.00
121, -176225.27, 187500.00, -187500.02, -187500.02, 72830.12, 0.00, 0.00, 0.00, 0.00, 0.00, 0.00
122, -175996.83, 187500.00, -187500.02, -187500.02, 62516.44, 0.00, 0.00, 0.00, 0.00, 0.00, 0.00
123, -175951.03, 187500.00, -187500.02, -187500.02, 65235.22, 0.00, 0.00, 0.00, 0.00, 0.00, 0.00
124, -176304.91, 187500.00, -187500.02, -187500.02, 76076.38, 0.00, 0.00, 0.00, 0.00, 0.00, 0.00
125, -176568.84, 187500.00, -187500.02, -187500.02, 74579.77, 0.00, 0.00, 0.00, 0.00, 0.00, 0.00
126, -176395.36, 187500.00, -187500.02, -187500.02, 63608.35, 0.00, 0.00, 0.00, 0.00, 0.00, 0.00
127, -176274.92, 187500.00, -187500.02, -187500.02, 63478.21, 0.00, 0.00, 0.00, 0.00, 0.00, 0.00
128, -176599.86, 187500.00, -187500.02, -187500.02, 74412.35, 0.00, 0.00, 0.00, 0.00, 0.00, 0.00
129, -176926.28, 187500.00, -187500.02, -187500.02, 75891.44, 0.00, 0.00, 0.00, 0.00, 0.00, 0.00
130, -176775.77, 187500.00, -187500.02, -187500.02, 65080.88, 0.00, 0.00, 0.00, 0.00, 0.00, 0.00
131, -176618.63, 187500.00, -187500.02, -187500.02, 62107.09, 0.00, 0.00, 0.00, 0.00, 0.00, 0.00
132, -176881.11, 187500.00, -187500.02, -187500.02, 72420.74, 0.00, 0.00, 0.00, 0.00, 0.00, 0.00
133, -177264.06, 187500.00, -187500.02, -187500.02, 76810.49, 0.00, 0.00, 0.00, 0.00, 0.00, 0.00
134, -177251.58, 187500.00, -187500.02, -187500.02, 66863.37, 0.00, 0.00, 0.00, 0.00, 0.00, 0.00
135, -177017.77, 187500.00, -187500.02, -187500.02, 61313.25, 0.00, 0.00, 0.00, 0.00, 0.00, 0.00
136, -177183.92, 187500.00, -187500.02, -187500.02, 70292.61, 0.00, 0.00, 0.00, 0.00, 0.00, 0.00
137, -177595.59, 187500.00, -187500.02, -187500.02, 77209.77, 0.00, 0.00, 0.00, 0.00, 0.00, 0.00
138, -177635.70, 187500.00, -187500.02, -187500.02, 68860.98, 0.00, 0.00, 0.00, 0.00, 0.00, 0.00
139, -177420.92, 187500.00, -187500.02, -187500.02, 60983.16, 0.00, 0.00, 0.00, 0.00, 0.00, 0.00
140, -177511.42, 187500.00, -187500.02, -187500.02, 68003.30, 0.00, 0.00, 0.00, 0.00, 0.00, 0.00
141, -177927.34, 187500.00, -187500.02, -187500.02, 76931.53, 0.00, 0.00, 0.00, 0.00, 0.00, 0.00
142, -178067.05, 187500.00, -187500.02, -187500.02, 70781.34, 0.00, 0.00, 0.00, 0.00, 0.00, 0.00
143, -177847.42, 187500.00, -187500.02, -187500.02, 61159.09, 0.00, 0.00, 0.00, 0.00, 0.00, 0.00
144, -177847.89, 187500.00, -187500.02, -187500.02, 65857.09, 0.00, 0.00, 0.00, 0.00, 0.00, 0.00
145, -178243.95, 187500.00, -187500.02, -187500.02, 76211.09, 0.00, 0.00, 0.00, 0.00, 0.00, 0.00
146, -178468.22, 187500.00, -187500.02, -187500.02, 72800.32, 0.00, 0.00, 0.00, 0.00, 0.00, 0.00
147, -178285.17, 187500.00, -187500.02, -187500.02, 62104.07, 0.00, 0.00, 0.00, 0.00, 0.00, 0.00
148, -178194.92, 187500.00, -187500.02, -187500.02, 64081.64, 0.00, 0.00, 0.00, 0.00, 0.00, 0.00
149, -178531.17, 187500.00, -187500.02, -187500.02, 75091.24, 0.00, 0.00, 0.00, 0.00, 0.00, 0.00
150, -178826.73, 187500.00, -187500.02, -187500.02, 74564.43, 0.00, 0.00, 0.00, 0.00, 0.00, 0.00
151, -178650.27, 187500.00, -187500.02, -187500.02, 63536.93, 0.00, 0.00, 0.00, 0.00, 0.00, 0.00
152, -178525.34, 187500.00, -187500.02, -187500.02, 62488.37, 0.00, 0.00, 0.00, 0.00, 0.00, 0.00
153, -178828.55, 187500.00, -187500.02, -187500.02, 73330.95, 0.00, 0.00, 0.00, 0.00, 0.00, 0.00
154, -179146.75, 187500.00, -187500.02, -187500.02, 75849.63, 0.00, 0.00, 0.00, 0.00, 0.00, 0.00
155, -179037.16, 187500.00, -187500.02, -187500.02, 65254.02, 0.00, 0.00, 0.00, 0.00, 0.00, 0.00
156, -178841.52, 187500.00, -187500.02, -187500.02, 61379.05, 0.00, 0.00, 0.00, 0.00, 0.00, 0.00
157, -179070.30, 187500.00, -187500.02, -187500.02, 71337.16, 0.00, 0.00, 0.00, 0.00, 0.00, 0.00
158, -179440.95, 187500.00, -187500.02, -187500.02, 76699.41, 0.00, 0.00, 0.00, 0.00, 0.00, 0.00
159, -179440.45, 187500.00, -187500.02, -187500.02, 67262.56, 0.00, 0.00, 0.00, 0.00, 0.00, 0.00
160, -179254.28, 187500.00, -187500.02, -187500.02, 60811.67, 0.00, 0.00, 0.00, 0.00, 0.00, 0.00
161, -179411.75, 187500.00, -187500.02, -187500.02, 69143.98, 0.00, 0.00, 0.00, 0.00, 0.00, 0.00
162, -179832.89, 187500.00, -187500.02, -187500.02, 76818.36, 0.00, 0.00, 0.00, 0.00, 0.00, 0.00
163, -179921.17, 187500.00, -187500.02, -187500.02, 69121.98, 0.00, 0.00, 0.00, 0.00, 0.00, 0.00
164, -179689.95, 187500.00, -187500.02, -187500.02, 60591.31, 0.00, 0.00, 0.00, 0.00, 0.00, 0.00
165, -179741.14, 187500.00, -187500.02, -187500.02, 66750.71, 0.00, 0.00, 0.00, 0.00, 0.00, 0.00
166, -180203.48, 187500.00, -187500.02, -187500.02, 76163.48, 0.00, 0.00, 0.00, 0.00, 0.00, 0.00
167, -180406.88, 187500.00, -187500.02, -187500.02, 70825.88, 0.00, 0.00, 0.00, 0.00, 0.00, 0.00
168, -180215.56, 187500.00, -187500.02, -187500.02, 60751.84, 0.00, 0.00, 0.00, 0.00, 0.00, 0.00
169, -180258.56, 187500.00, -187500.02, -187500.02, 64284.98, 0.00, 0.00, 0.00, 0.00, 0.00, 0.00
170, -180691.83, 187500.00, -187500.02, -187500.02, 74860.17, 0.00, 0.00, 0.00, 0.00, 0.00, 0.00
171, -180975.75, 187500.00, -187500.02, -187500.02, 72348.93, 0.00, 0.00, 0.00, 0.00, 0.00, 0.00
172, -180829.34, 187500.00, -187500.02, -187500.02, 61385.93, 0.00, 0.00, 0.00, 0.00, 0.00, 0.00
173, -180790.56, 187500.00, -187500.02, -187500.02, 62148.38, 0.00, 0.00, 0.00, 0.00, 0.00, 0.00
174, -181133.53, 187500.00, -187500.02, -187500.02, 73161.59, 0.00, 0.00, 0.00, 0.00, 0.00, 0.00
175, -181452.22, 187500.00, -187500.02, -187500.02, 73625.95, 0.00, 0.00, 0.00, 0.00, 0.00, 0.00
176, -181347.50, 187500.00, -187500.02, -187500.02, 62490.74, 0.00, 0.00, 0.00, 0.00, 0.00, 0.00
177, -181179.28, 187500.00, -187500.02, -187500.02, 60502.04, 0.00, 0.00, 0.00, 0.00, 0.00, 0.00
178, -181455.13, 187500.00, -187500.02, -187500.02, 71143.14, 0.00, 0.00, 0.00, 0.00, 0.00, 0.00
179, -181838.91, 187500.00, -187500.02, -187500.02, 74477.55, 0.00, 0.00, 0.00, 0.00, 0.00, 0.00
180, -181790.11, 187500.00, -187500.02, -187500.02, 63986.70, 0.00, 0.00, 0.00, 0.00, 0.00, 0.00
181, -181584.94, 187500.00, -187500.02, -187500.02, 59259.52, 0.00, 0.00, 0.00, 0.00, 0.00, 0.00
182, -181777.88, 187500.00, -187500.02, -187500.02, 68761.74, 0.00, 0.00, 0.00, 0.00, 0.00, 0.00
183, -182187.92, 187500.00, -187500.02, -187500.02, 74857.51, 0.00, 0.00, 0.00, 0.00, 0.00, 0.00
184, -182189.67, 187500.00, -187500.02, -187500.02, 65888.56, 0.00, 0.00, 0.00, 0.00, 0.00, 0.00
185, -181964.45, 187500.00, -187500.02, -187500.02, 58672.46, 0.00, 0.00, 0.00, 0.00, 0.00, 0.00
186, -182088.84, 187500.00, -187500.02, -187500.02, 66318.09, 0.00, 0.00, 0.00, 0.00, 0.00, 0.00
187, -182511.17, 187500.00, -187500.02, -187500.02, 74684.33, 0.00, 0.00, 0.00, 0.00, 0.00, 0.00
188, -182584.95, 187500.00, -187500.02, -187500.02, 67807.55, 0.00, 0.00, 0.00, 0.00, 0.00, 0.00
189, -182326.02, 187500.00, -187500.02, -187500.02, 58748.45, 0.00, 0.00, 0.00, 0.00, 0.00, 0.00
190, -182343.78, 187500.00, -187500.02, -187500.02, 64118.55, 0.00, 0.00, 0.00, 0.00, 0.00, 0.00
191, -182730.52, 187500.00, -187500.02, -187500.02, 74129.49, 0.00, 0.00, 0.00, 0.00, 0.00, 0.00
192, -182918.94, 187500.00, -187500.02, -187500.02, 69824.23, 0.00, 0.00, 0.00, 0.00, 0.00, 0.00
193, -182697.97, 187500.00, -187500.02, -187500.02, 59474.73, 0.00, 0.00, 0.00, 0.00, 0.00, 0.00
194, -182646.42, 187500.00, -187500.02, -187500.02, 62179.38, 0.00, 0.00, 0.00, 0.00, 0.00, 0.00
195, -183026.78, 187500.00, -187500.02, -187500.02, 73075.83, 0.00, 0.00, 0.00, 0.00, 0.00, 0.00
196, -183271.72, 187500.00, -187500.02, -187500.02, 71718.95, 0.00, 0.00, 0.00, 0.00, 0.00, 0.00
197, -183081.09, 187500.00, -187500.02, -187500.02, 60802.00, 0.00, 0.00, 0.00, 0.00, 0.00, 0.00
198, -182955.73, 187500.00, -187500.02, -187500.02, 60630.07, 0.00, 0.00, 0.00, 0.00, 0.00, 0.00
199, -183276.30, 187500.00, -187500.02, -187500.02, 71636.24, 0.00, 0.00, 0.00, 0.00, 0.00, 0.00
200, -183615.08, 187500.00, -187500.02, -187500.02, 73242.77, 0.00, 0.00, 0.00, 0.00, 0.00, 0.00
201, -183508.91, 187500.00, -187500.02, -187500.02, 62410.14, 0.00, 0.00, 0.00, 0.00, 0.00, 0.00
202, -183313.06, 187500.00, -187500.02, -187500.02, 59419.47, 0.00, 0.00, 0.00, 0.00, 0.00, 0.00
203, -183562.94, 187500.00, -187500.02, -187500.02, 69806.87, 0.00, 0.00, 0.00, 0.00, 0.00, 0.00
204, -183941.81, 187500.00, -187500.02, -187500.02, 74269.28, 0.00, 0.00, 0.00, 0.00, 0.00, 0.00
205, -183868.30, 187500.00, -187500.02, -187500.02, 64329.68, 0.00, 0.00, 0.00, 0.00, 0.00, 0.00
206, -183668.44, 187500.00, -187500.02, -187500.02, 58677.48, 0.00, 0.00, 0.00, 0.00, 0.00, 0.00
207, -183835.69, 187500.00, -187500.02, -187500.02, 67743.51, 0.00, 0.00, 0.00, 0.00, 0.00, 0.00
208, -184224.72, 187500.00, -187500.02, -187500.02, 74737.28, 0.00, 0.00, 0.00, 0.00, 0.00, 0.00
209, -184242.47, 187500.00, -187500.02, -187500.02, 66365.63, 0.00, 0.00, 0.00, 0.00, 0.00, 0.00
210, -184032.70, 187500.00, -187500.02, -187500.02, 58472.92, 0.00, 0.00, 0.00, 0.00, 0.00, 0.00
211, -184141.06, 187500.00, -187500.02, -187500.02, 65538.30, 0.00, 0.00, 0.00, 0.00, 0.00, 0.00
212, -184546.80, 187500.00, -187500.02, -187500.02, 74525.74, 0.00, 0.00, 0.00, 0.00, 0.00, 0.00
213, -184676.66, 187500.00, -187500.02, -187500.02, 68448.39, 0.00, 0.00, 0.00, 0.00, 0.00, 0.00
214, -184471.44, 187500.00, -187500.02, -187500.02, 58807.28, 0.00, 0.00, 0.00, 0.00, 0.00, 0.00
215, -184490.64, 187500.00, -187500.02, -187500.02, 63276.13, 0.00, 0.00, 0.00, 0.00, 0.00, 0.00
216, -184888.69, 187500.00, -187500.02, -187500.02, 73634.38, 0.00, 0.00, 0.00, 0.00, 0.00, 0.00
217, -185081.05, 187500.00, -187500.02, -187500.02, 70248.00, 0.00, 0.00, 0.00, 0.00, 0.00, 0.00
218, -184880.13, 187500.00, -187500.02, -187500.02, 59531.90, 0.00, 0.00, 0.00, 0.00, 0.00, 0.00
219, -184819.45, 187500.00, -187500.02, -187500.02, 61187.21, 0.00, 0.00, 0.00, 0.00, 0.00, 0.00
220, -185175.75, 187500.00, -187500.02, -187500.02, 72154.83, 0.00, 0.00, 0.00, 0.00, 0.00, 0.00
221, -185464.05, 187500.00, -187500.02, -187500.02, 71723.23, 0.00, 0.00, 0.00, 0.00, 0.00, 0.00
222, -185273.67, 187500.00, -187500.02, -187500.02, 60712.52, 0.00, 0.00, 0.00, 0.00, 0.00, 0.00
223, -185129.81, 187500.00, -187500.02, -187500.02, 59526.92, 0.00, 0.00, 0.00, 0.00, 0.00, 0.00
224, -185452.94, 187500.00, -187500.02, -187500.02, 70353.74, 0.00, 0.00, 0.00, 0.00, 0.00, 0.00
225, -185823.59, 187500.00, -187500.02, -187500.02, 72935.10, 0.00, 0.00, 0.00, 0.00, 0.00, 0.00
226, -185785.95, 187500.00, -187500.02, -187500.02, 62278.73, 0.00, 0.00, 0.00, 0.00, 0.00, 0.00
227, -185623.19, 187500.00, -187500.02, -187500.02, 58287.67, 0.00, 0.00, 0.00, 0.00, 0.00, 0.00
228, -185882.67, 187500.00, -187500.02, -187500.02, 68192.78, 0.00, 0.00, 0.00, 0.00, 0.00, 0.00
229, -186307.33, 187500.00, -187500.02, -187500.02, 73567.73, 0.00, 0.00, 0.00, 0.00, 0.00, 0.00
230, -186281.53, 187500.00, -187500.02, -187500.02, 64128.47, 0.00, 0.00, 0.00, 0.00, 0.00, 0.00
231, -186043.94, 187500.00, -187500.02, -187500.02, 57625.79, 0.00, 0.00, 0.00, 0.00, 0.00, 0.00
232, -186231.64, 187500.00, -187500.02, -187500.02, 65917.82, 0.00, 0.00, 0.00, 0.00, 0.00, 0.00
233, -186677.53, 187500.00, -187500.02, -187500.02, 73659.84, 0.00, 0.00, 0.00, 0.00, 0.00, 0.00
234, -186749.36, 187500.00, -187500.02, -187500.02, 66056.06, 0.00, 0.00, 0.00, 0.00, 0.00, 0.00
235, -186535.73, 187500.00, -187500.02, -187500.02, 57419.84, 0.00, 0.00, 0.00, 0.00, 0.00, 0.00
236, -186581.50, 187500.00, -187500.02, -187500.02, 63710.43, 0.00, 0.00, 0.00, 0.00, 0.00, 0.00
237, -186978.30, 187500.00, -187500.02, -187500.02, 73307.66, 0.00, 0.00, 0.00, 0.00, 0.00, 0.00
238, -187138.97, 187500.00, -187500.02, -187500.02, 68120.59, 0.00, 0.00, 0.00, 0.00, 0.00, 0.00
239, -186912.77, 187500.00, -187500.02, -187500.02, 58039.88, 0.00, 0.00, 0.00, 0.00, 0.00, 0.00
240, -186886.14, 187500.00, -187500.02, -187500.02, 61817.64, 0.00, 0.00, 0.00, 0.00, 0.00, 0.00
241, -187258.59, 187500.00, -187500.02, -187500.02, 72548.24, 0.00, 0.00, 0.00, 0.00, 0.00, 0.00
242, -187490.83, 187500.00, -187500.02, -187500.02, 70150.73, 0.00, 0.00, 0.00, 0.00, 0.00, 0.00
243, -187316.80, 187500.00, -187500.02, -187500.02, 59248.50, 0.00, 0.00, 0.00, 0.00, 0.00, 0.00
244, -187204.39, 187500.00, -187500.02, -187500.02, 60124.67, 0.00, 0.00, 0.00, 0.00, 0.00, 0.00
245, -187500.02, 187500.00, -187500.02, -187500.02, 71192.80, 0.00, 0.00, 0.00, 0.00, 0.00, 0.00
246, -187500.02, 187500.00, -187500.02, -187500.02, 71798.56, 0.00, 0.00, 0.00, 0.00, 0.00, 0.00
247, -187500.02, 187500.00, -187500.02, -187500.02, 60845.54, 0.00, 0.00, 0.00, 0.00, 0.00, 0.00
248, -187500.02, 187500.00, -187500.02, -187500.02, 58726.93, 0.00, 0.00, 0.00, 0.00, 0.00, 0.00
249, -187500.02, 187500.00, -187500.02, -187500.02, 69360.68, 0.00, 0.00, 0.00, 0.00, 0.00, 0.00
250, -187500.02, 187500.00, -187500.02, -187500.02, 72921.91, 0.00, 0.00, 0.00, 0.00, 0.00, 0.00
251, -187500.02, 187500.00, -187500.02, -187500.02, 62628.13, 0.00, 0.00, 0.00, 0.00, 0.00, 0.00
252, -187500.02, 187500.00, -187500.02, -187500.02, 57830.58, 0.00, 0.00, 0.00, 0.00, 0.00, 0.00
253, -187500.02, 187500.00, -187500.02, -187500.02, 67353.54, 0.00, 0.00, 0.00, 0.00, 0.00, 0.00
254, -187500.02, 187500.00, -187500.02, -187500.02, 73586.70, 0.00, 0.00, 0.00, 0.00, 0.00, 0.00
255, -187500.02, 187500.00, -187500.02, -187500.02, 64678.30, 0.00, 0.00, 0.00, 0.00, 0.00, 0.00
0, -187500.02, 187500.00, -187500.02, -187500.02, 57442.17, 0.00, 0.00, 0.00, 0.00, 0.00, 0.00
1, -187500.02, 187500.00, -187500.02, -187500.02, 65152.43, 0.00, 0.00, 0.00, 0.00, 0.00, 0.00
2, -187500.02, 187500.00, -187500.02, -187500.02, 73600.56, 0.00, 0.00, 0.00, 0.00, 0.00, 0.00
3, -187500.02, 187500.00, -187500.02, -187500.02, 66754.33, 0.00, 0.00, 0.00, 0.00, 0.00, 0.00
4, -187500.02, 187500.00, -187500.02, -187500.02, 57640.14, 0.00, 0.00, 0.00, 0.00, 0.00, 0.00
5, -187500.02, 187500.00, -187500.02, -187500.02, 62965.55, 0.00, 0.00, 0.00, 0.00, 0.00, 0.00
6, -187500.02, 187500.00, -187500.02, -187500.02, 72979.74, 0.00, 0.00, 0.00, 0.00, 0.00, 0.00
7, -187500.02, 187500.00, -187500.02, -187500.02, 68724.26, 0.00, 0.00, 0.00, 0.00, 0.00, 0.00
8, -187500.02, 187500.00, -187500.02, -187500.02, 58278.55, 0.00, 0.00, 0.00, 0.00, 0.00, 0.00
9, -187500.02, 187500.00, -187500.02, -187500.02, 61001.33, 0.00, 0.00, 0.00, 0.00, 0.00, 0.00
10, -187500.02, 187500.00, -187500.02, -187500.02, 71914.34, 0.00, 0.00, 0.00, 0.00, 0.00, 0.00
11, -187500.02, 187500.00, -187500.02, -187500.02, 70493.69, 0.00, 0.00, 0.00, 0.00, 0.00, 0.00
12, -187500.02, 187500.00, -187500.02, -187500.02, 59421.93, 0.00, 0.00, 0.00, 0.00, 0.00, 0.00
13, -187500.02, 187500.00, -187500.02, -187500.02, 59328.23, 0.00, 0.00, 0.00, 0.00, 0.00, 0.00
14, -187500.02, 187500.00, -187500.02, -187500.02, 70348.63, 0.00, 0.00, 0.00, 0.00, 0.00, 0.00
15, -187500.02, 187500.00, -187500.02, -187500.02, 71921.05, 0.00, 0.00, 0.00, 0.00, 0.00, 0.00
16, -187500.02, 187500.00, -187500.02, -187500.02, 61065.90, 0.00, 0.00, 0.00, 0.00, 0.00, 0.00
17, -187500.02, 187500.00, -187500.02, -187500.02, 58002.13, 0.00, 0.00, 0.00, 0.00, 0.00, 0.00
18, -187500.02, 187500.00, -187500.02, -187500.02, 68353.73, 0.00, 0.00, 0.00, 0.00, 0.00, 0.00
19, -187500.02, 187500.00, -187500.02, -187500.02, 72825.38, 0.00, 0.00, 0.00, 0.00, 0.00, 0.00
20, -187500.02, 187500.00, -187500.02, -187500.02, 62911.60, 0.00, 0.00, 0.00, 0.00, 0.00, 0.00
21, -187500.02, 187500.00, -187500.02, -187500.02, 57198.92, 0.00, 0.00, 0.00, 0.00, 0.00, 0.00
22, -187500.02, 187500.00, -187500.02, -187500.02, 66104.77, 0.00, 0.00, 0.00, 0.00, 0.00, 0.00
23, -187500.02, 187500.00, -187500.02, -187500.02, 73137.48, 0.00, 0.00, 0.00, 0.00, 0.00, 0.00
24, -187500.02, 187500.00, -187500.02, -187500.02, 64863.60, 0.00, 0.00, 0.00, 0.00, 0.00, 0.00
25, -187500.02, 187500.00, -187500.02, -187500.02, 56891.07, 0.00, 0.00, 0.00, 0.00, 0.00, 0.00
26, -187500.02, 187500.00, -187500.02, -187500.02, 63733.65, 0.00, 0.00, 0.00, 0.00, 0.00, 0.00
27, -187500.02, 187500.00, -187500.02, -187500.02, 72727.73, 0.00, 0.00, 0.00, 0.00, 0.00, 0.00
28, -187500.02, 187500.00, -187500.02, -187500.02, 66629.52, 0.00, 0.00, 0.00, 0.00, 0.00, 0.00
29, -187500.02, 187500.00, -187500.02, -187500.02, 56969.48, 0.00, 0.00, 0.00, 0.00, 0.00, 0.00
30, -187500.02, 187500.00, -187500.02, -187500.02, 61389.38, 0.00, 0.00, 0.00, 0.00, 0.00, 0.00
31, -187500.02, 187500.00, -187500.02, -187500.02, 71738.73, 0.00, 0.00, 0.00, 0.00, 0.00, 0.00
32, -187500.02, 187500.00, -187500.02, -187500.02, 68366.92, 0.00, 0.00, 0.00, 0.00, 0.00, 0.00
33, -187500.02, 187500.00, -187500.02, -187500.02, 57620.47, 0.00, 0.00, 0.00, 0.00, 0.00, 0.00
34, -187500.02, 187500.00, -187500.02, -187500.02, 59295.22, 0.00, 0.00, 0.00, 0.00, 0.00, 0.00
35, -187500.02, 187500.00, -187500.02, -187500.02, 70336.00, 0.00, 0.00, 0.00, 0.00, 0.00, 0.00
36, -187500.02, 187500.00, -187500.02, -187500.02, 69960.02, 0.00, 0.00, 0.00, 0.00, 0.00, 0.00
37, -187500.02, 187500.00, -187500.02, -187500.02, 58907.04, 0.00, 0.00, 0.00, 0.00, 0.00, 0.00
38, -187500.02, 187500.00, -187500.02, -187500.02, 57771.68, 0.00, 0.00, 0.00, 0.00, 0.00, 0.00
39, -187500.02, 187500.00, -187500.02, -187500.02, 68720.41, 0.00, 0.00, 0.00, 0.00, 0.00, 0.00
40, -187500.02, 187500.00, -187500.02, -187500.02, 71330.41, 0.00, 0.00, 0.00, 0.00, 0.00, 0.00
41, -187500.02, 187500.00, -187500.02, -187500.02, 60675.62, 0.00, 0.00, 0.00, 0.00, 0.00, 0.00
42, -187500.02, 187500.00, -187500.02, -187500.02, 56787.11, 0.00, 0.00, 0.00, 0.00, 0.00, 0.00
43, -187500.02, 187500.00, -187500.02, -187500.02, 66844.32, 0.00, 0.00, 0.00, 0.00, 0.00, 0.00
44, -187500.02, 187500.00, -187500.02, -187500.02, 72215.98, 0.00, 0.00, 0.00, 0.00, 0.00, 0.00
45, -187500.02, 187500.00, -187500.02, -187500.02, 62687.66, 0.00, 0.00, 0.00, 0.00, 0.00, 0.00
46, -187500.02, 187500.00, -187500.02, -187500.02, 56330.89, 0.00, 0.00, 0.00, 0.00, 0.00, 0.00
47, -187500.02, 187500.00, -187500.02, -187500.02, 64830.20, 0.00, 0.00, 0.00, 0.00, 0.00, 0.00
48, -187500.02, 187500.00, -187500.02, -187500.02, 72616.32, 0.00, 0.00, 0.00, 0.00, 0.00, 0.00
49, -187500.02, 187500.00, -187500.02, -187500.02, 65012.13, 0.00, 0.00, 0.00, 0.00, 0.00, 0.00
50, -187500.02, 187500.00, -187500.02, -187500.02, 56465.45, 0.00, 0.00, 0.00, 0.00, 0.00, 0.00
51, -187500.02, 187500.00, -187500.02, -187500.02, 62648.68, 0.00, 0.00, 0.00, 0.00, 0.00, 0.00
52, -187500.02, 187500.00, -187500.02, -187500.02, 72275.05, 0.00, 0.00, 0.00, 0.00, 0.00, 0.00
53, -187500.02, 187500.00, -187500.02, -187500.02, 67117.93, 0.00, 0.00, 0.00, 0.00, 0.00, 0.00
54, -187500.02, 187500.00, -187500.02, -187500.02, 57089.32, 0.00, 0.00, 0.00, 0.00, 0.00, 0.00
55, -187500.02, 187500.00, -187500.02, -187500.02, 60671.89, 0.00, 0.00, 0.00, 0.00, 0.00, 0.00
56, -187500.02, 187500.00, -187500.02, -187500.02, 71391.63, 0.00, 0.00, 0.00, 0.00, 0.00, 0.00
57, -187500.02, 187500.00, -187500.02, -187500.02, 69023.34, 0.00, 0.00, 0.00, 0.00, 0.00, 0.00
58, -187500.02, 187500.00, -187500.02, -187500.02, 58105.44, 0.00, 0.00, 0.00, 0.00, 0.00, 0.00
59, -187500.02, 187500.00, -187500.02, -187500.02, 58849.08, 0.00, 0.00, 0.00, 0.00, 0.00, 0.00
60, -187500.02, 187500.00, -187500.02, -187500.02, 69927.50, 0.00, 0.00, 0.00, 0.00, 0.00, 0.00
61, -187500.02, 187500.00, -187500.02, -187500.02, 70503.21, 0.00, 0.00, 0.00, 0.00, 0.00, 0.00
62, -187500.02, 187500.00, -187500.02, -187500.02, 59499.92, 0.00, 0.00, 0.00, 0.00, 0.00, 0.00
63, -187500.02, 187500.00, -187500.02, -187500.02, 57363.89, 0.00, 0.00, 0.00, 0.00, 0.00, 0.00
64, -187500.02, 187500.00, -187500.02, -187500.02, 67996.64, 0.00, 0.00, 0.00, 0.00, 0.00, 0.00
65, -187500.02, 187500.00, -187500.02, -187500.02, 71549.25, 0.00, 0.00, 0.00, 0.00, 0.00, 0.00
66, -187500.02, 187500.00, -187500.02, -187500.02, 61213.74, 0.00, 0.00, 0.00, 0.00, 0.00, 0.00
67, -187500.02, 187500.00, -187500.02, -187500.02, 56308.02, 0.00, 0.00, 0.00, 0.00, 0.00, 0.00
68, -187500.02, 187500.00, -187500.02, -187500.02, 65831.65, 0.00, 0.00, 0.00, 0.00, 0.00, 0.00
69, -187500.02, 187500.00, -187500.02, -187500.02, 72032.80, 0.00, 0.00, 0.00, 0.00, 0.00, 0.00
70, -187500.02, 187500.00, -187500.02, -187500.02, 63046.63, 0.00, 0.00, 0.00, 0.00, 0.00, 0.00
71, -187500.02, 187500.00, -187500.02, -187500.02, 55778.87, 0.00, 0.00, 0.00, 0.00, 0.00, 0.00
72, -187500.02, 187500.00, -187500.02, -187500.02, 63623.64, 0.00, 0.00, 0.00, 0.00, 0.00, 0.00
73, -187500.02, 187500.00, -187500.02, -187500.02, 71988.73, 0.00, 0.00, 0.00, 0.00, 0.00, 0.00
74, -187500.02, 187500.00, -187500.02, -187500.02, 64990.36, 0.00, 0.00, 0.00, 0.00, 0.00, 0.00
75, -187500.02, 187500.00, -187500.02, -187500.02, 55840.02, 0.00, 0.00, 0.00, 0.00, 0.00, 0.00
76, -187500.02, 187500.00, -187500.02, -187500.02, 61317.27, 0.00, 0.00, 0.00, 0.00, 0.00, 0.00
77, -187500.02, 187500.00, -187500.02, -187500.02, 71299.07, 0.00, 0.00, 0.00, 0.00, 0.00, 0.00
78, -187500.02, 187500.00, -187500.02, -187500.02, 66966.96, 0.00, 0.00, 0.00, 0.00, 0.00, 0.00
79, -187500.02, 187500.00, -187500.02, -187500.02, 56501.54, 0.00, 0.00, 0.00, 0.00, 0.00, 0.00
80, -187500.02, 187500.00, -187500.02, -187500.02, 59137.82, 0.00, 0.00, 0.00, 0.00, 0.00, 0.00
81, -187500.02, 187500.00, -187500.02, -187500.02, 70026.56, 0.00, 0.00, 0.00, 0.00, 0.00, 0.00
82, -187500.02, 187500.00, -187500.02, -187500.02, 68566.74, 0.00, 0.00, 0.00, 0.00, 0.00, 0.00
83, -187500.02, 187500.00, -187500.02, -187500.02, 57509.14, 0.00, 0.00, 0.00, 0.00, 0.00, 0.00
84, -187500.02, 187500.00, -187500.02, -187500.02, 57281.24, 0.00, 0.00, 0.00, 0.00, 0.00, 0.00
85, -187500.02, 187500.00, -187500.02, -187500.02, 68257.09, 0.00, 0.00, 0.00, 0.00, 0.00, 0.00
86, -187500.02, 187500.00, -187500.02, -187500.02, 69779.71, 0.00, 0.00, 0.00, 0.00, 0.00, 0.00
87, -187500.02, 187500.00, -187500.02, -187500.02, 58886.09, 0.00, 0.00, 0.00, 0.00, 0.00, 0.00
88, -187500.02, 187500.00, -187500.02, -187500.02, 55773.03, 0.00, 0.00, 0.00, 0.00, 0.00, 0.00
89, -187500.02, 187500.00, -187500.02, -187500.02, 66034.90, 0.00, 0.00, 0.00, 0.00, 0.00, 0.00
90, -187500.02, 187500.00, -187500.02, -187500.02, 70258.82, 0.00, 0.00, 0.00, 0.00, 0.00, 0.00
91, -187500.02, 187500.00, -187500.02, -187500.02, 57075.27, 0.00, 0.00, 0.00, 0.00, 0.00, 0.00
92, -168505.58, 187500.00, -187500.02, -187500.02, 35534.24, 0.00, 0.00, 0.00, 0.00, 0.00, 0.00
93, -140858.55, 187500.00, -187500.02, -187500.02, 24523.53, 0.00, 0.00, 0.00, 0.00, 0.00, 0.00
94, -122129.77, 187500.00, -187500.02, -187500.02, 18670.05, 0.00, 0.00, 0.00, 0.00, 0.00, 0.00
95, -111572.35, 187500.00, -187500.02, -187500.02, 4015.69, 0.00, 0.00, 0.00, 0.00, 0.00, 0.00
96, -105106.68, 187500.00, -187500.02, -187500.02, -7055.13, 0.00, 0.00, 0.00, 0.00, 0.00, 0.00
97, -97981.33, 187500.00, -187500.02, -187500.02, -4143.07, 0.00, 0.00, 0.00, 0.00, 0.00, 0.00
98, -90441.77, 187500.00, -187500.02, -187500.02, 338.81, 0.00, 0.00, 0.00, 0.00, 0.00, 0.00
99, -86070.69, 187500.00, -187500.02, -187500.02, -7644.61, 0.00, 0.00, 0.00, 0.00, 0.00, 0.00
100, -84259.44, 187500.00, -187500.02, -187500.02, -17229.73, 0.00, 0.00, 0.00, 0.00, 0.00, 0.00
101, -80939.55, 187500.00, -187500.02, -187500.02, -13981.51, 0.00, 0.00, 0.00, 0.00, 0.00, 0.00
102, -75889.00, 187500.00, -187500.02, -187500.02, -6523.65, 0.00, 0.00, 0.00, 0.00, 0.00, 0.00
103, -72958.93, 187500.00, -187500.02, -187500.02, -11085.68, 0.00, 0.00, 0.00, 0.00, 0.00, 0.00
104, -72669.70, 187500.00, -187500.02, -187500.02, -20802.32, 0.00, 0.00, 0.00, 0.00, 0.00, 0.00
105, -71167.15, 187500.00, -187500.02, -187500.02, -19079.36, 0.00, 0.00, 0.00, 0.00, 0.00, 0.00
106, -67263.98, 187500.00, -187500.02, -187500.02, -10256.46, 0.00, 0.00, 0.00, 0.00, 0.00, 0.00
107, -64618.73, 187500.00, -187500.02, -187500.02, -11839.94, 0.00, 0.00, 0.00, 0.00, 0.00, 0.00
108, -64881.39, 187500.00, -187500.02, -187500.02, -21612.44, 0.00, 0.00, 0.00, 0.00, 0.00, 0.00
109, -65213.49, 187500.00, -187500.02, -187500.02, -21530.36, 0.00, 0.00, 0.00, 0.00, 0.00, 0.00
110, -63692.12, 187500.00, -187500.02, -187500.02, -11202.47, 0.00, 0.00, 0.00, 0.00, 0.00, 0.00
111, -61153.75, 187500.00, -187500.02, -187500.02, -9987.03, 0.00, 0.00, 0.00, 0.00, 0.00, 0.00
112, -60812.88, 187500.00, -187500.02, -187500.02, -19928.01, 0.00, 0.00, 0.00, 0.00, 0.00, 0.00
113, -60995.85, 187500.00, -187500.02, -187500.02, -22854.01, 0.00, 0.00, 0.00, 0.00, 0.00, 0.00
114, -58695.03, 187500.00, -187500.02, -187500.02, -14078.36, 0.00, 0.00, 0.00, 0.00, 0.00, 0.00
115, -56032.65, 187500.00, -187500.02, -187500.02, -10248.65, 0.00, 0.00, 0.00, 0.00, 0.00, 0.00
116, -56183.84, 187500.00, -187500.02, -187500.02, -18848.80, 0.00, 0.00, 0.00, 0.00, 0.00, 0.00
117, -57183.85, 187500.00, -187500.02, -187500.02, -23760.51, 0.00, 0.00, 0.00, 0.00, 0.00, 0.00
118, -55579.76, 187500.00, -187500.02, -187500.02, -16138.96, 0.00, 0.00, 0.00, 0.00, 0.00, 0.00
119, -52876.83, 187500.00, -187500.02, -187500.02, -10152.70, 0.00, 0.00, 0.00, 0.00, 0.00, 0.00
120, -52240.20, 187500.00, -187500.02, -187500.02, -17693.13, 0.00, 0.00, 0.00, 0.00, 0.00, 0.00
121, -52768.15, 187500.00, -187500.02, -187500.02, -25090.95, 0.00, 0.00, 0.00, 0.00, 0.00, 0.00
122, -52768.15, 187500.00, -187500.02, -187500.02, -18409.66, 0.00, 0.00, 0.00, 0.00, 0.00, 0.00
123, -51404.81, 187500.00, -187500.02, -187500.02, -9564.69, 0.00, 0.00, 0.00, 0.00, 0.00, 0.00
124, -50409.48, 187500.00, -187500.02, -187500.02, -15027.43, 0.00, 0.00, 0.00, 0.00, 0.00, 0.00
125, -50853.97, 187500.00, -187500.02, -187500.02, -24006.38, 0.00, 0.00, 0.00, 0.00, 0.00, 0.00
126, -50950.51, 187500.00, -187500.02, -187500.02, -19811.22, 0.00, 0.00, 0.00, 0.00, 0.00, 0.00
127, -49348.83, 187500.00, -187500.02, -187500.02, -10083.12, 0.00, 0.00, 0.00, 0.00, 0.00, 0.00
128, -48089.26, 187500.00, -187500.02, -187500.02, -13068.17, 0.00, 0.00, 0.00, 0.00, 0.00, 0.00
129, -48859.28, 187500.00, -187500.02, -187500.02, -22712.66, 0.00, 0.00, 0.00, 0.00, 0.00, 0.00
130, -49151.66, 187500.00, -187500.02, -187500.02, -21216.81, 0.00, 0.00, 0.00, 0.00, 0.00, 0.00
131, -47078.16, 187500.00, -187500.02, -187500.02, -11550.02, 0.00, 0.00, 0.00, 0.00, 0.00, 0.00
132, -45555.07, 187500.00, -187500.02, -187500.02, -11878.83, 0.00, 0.00, 0.00, 0.00, 0.00, 0.00
133, -46301.61, 187500.00, -187500.02, -187500.02, -21761.59, 0.00, 0.00, 0.00, 0.00, 0.00, 0.00
134, -47074.45, 187500.00, -187500.02, -187500.02, -22640.57, 0.00, 0.00, 0.00, 0.00, 0.00, 0.00
135, -45953.24, 187500.00, -187500.02, -187500.02, -12665.30, 0.00, 0.00, 0.00, 0.00, 0.00, 0.00
136, -44314.95, 187500.00, -187500.02, -187500.02, -10216.42, 0.00, 0.00, 0.00, 0.00, 0.00, 0.00
137, -44658.29, 187500.00, -187500.02, -187500.02, -19808.92, 0.00, 0.00, 0.00, 0.00, 0.00, 0.00
138, -45690.88, 187500.00, -187500.02, -187500.02, -23162.08, 0.00, 0.00, 0.00, 0.00, 0.00, 0.00
139, -44437.93, 187500.00, -187500.02, -187500.02, -14284.71, 0.00, 0.00, 0.00, 0.00, 0.00, 0.00
140, -42419.27, 187500.00, -187500.02, -187500.02, -9467.73, 0.00, 0.00, 0.00, 0.00, 0.00, 0.00
141, -43170.07, 187500.00, -187500.02, -187500.02, -17384.47, 0.00, 0.00, 0.00, 0.00, 0.00, 0.00
142, -44852.77, 187500.00, -187500.02, -187500.02, -22769.03, 0.00, 0.00, 0.00, 0.00, 0.00, 0.00
143, -43938.30, 187500.00, -187500.02, -187500.02, -15531.80, 0.00, 0.00, 0.00, 0.00, 0.00, 0.00
144, -41683.48, 187500.00, -187500.02, -187500.02, -8756.50, 0.00, 0.00, 0.00, 0.00, 0.00, 0.00
145, -41841.97, 187500.00, -187500.02, -187500.02, -15128.46, 0.00, 0.00, 0.00, 0.00, 0.00, 0.00
146, -43645.38, 187500.00, -187500.02, -187500.02, -22319.98, 0.00, 0.00, 0.00, 0.00, 0.00, 0.00
147, -43289.80, 187500.00, -187500.02, -187500.02, -16925.01, 0.00, 0.00, 0.00, 0.00, 0.00, 0.00
148, -40936.30, 187500.00, -187500.02, -187500.02, -8615.17, 0.00, 0.00, 0.00, 0.00, 0.00, 0.00
149, -40538.71, 187500.00, -187500.02, -187500.02, -12910.23, 0.00, 0.00, 0.00, 0.00, 0.00, 0.00
150, -42342.23, 187500.00, -187500.02, -187500.02, -21359.37, 0.00, 0.00, 0.00, 0.00, 0.00, 0.00
151, -42568.02, 187500.00, -187500.02, -187500.02, -18204.98, 0.00, 0.00, 0.00, 0.00, 0.00, 0.00
152, -40307.39, 187500.00, -187500.02, -187500.02, -8923.73, 0.00, 0.00, 0.00, 0.00, 0.00, 0.00
153, -39387.21, 187500.00, -187500.02, -187500.02, -10786.48, 0.00, 0.00, 0.00, 0.00, 0.00, 0.00
154, -41081.86, 187500.00, -187500.02, -187500.02, -19942.20, 0.00, 0.00, 0.00, 0.00, 0.00, 0.00
155, -41812.69, 187500.00, -187500.02, -187500.02, -19161.37, 0.00, 0.00, 0.00, 0.00, 0.00, 0.00
156, -39807.27, 187500.00, -187500.02, -187500.02, -9592.61, 0.00, 0.00, 0.00, 0.00, 0.00, 0.00
157, -38391.82, 187500.00, -187500.02, -187500.02, -8905.47, 0.00, 0.00, 0.00, 0.00, 0.00, 0.00
158, -39818.31, 187500.00, -187500.02, -187500.02, -18163.47, 0.00, 0.00, 0.00, 0.00, 0.00, 0.00
159, -41007.38, 187500.00, -187500.02, -187500.02, -19831.52, 0.00, 0.00, 0.00, 0.00, 0.00, 0.00
160, -39371.99, 187500.00, -187500.02, -187500.02, -10568.17, 0.00, 0.00, 0.00, 0.00, 0.00, 0.00
161, -37571.29, 187500.00, -187500.02, -187500.02, -7359.04, 0.00, 0.00, 0.00, 0.00, 0.00, 0.00
162, -38633.36, 187500.00, -187500.02, -187500.02, -16076.87, 0.00, 0.00, 0.00, 0.00, 0.00, 0.00
163, -40179.92, 187500.00, -187500.02, -187500.02, -20079.94, 0.00, 0.00, 0.00, 0.00, 0.00, 0.00
164, -38996.51, 187500.00, -187500.02, -187500.02, -11777.96, 0.00, 0.00, 0.00, 0.00, 0.00, 0.00
165, -36927.41, 187500.00, -187500.02, -187500.02, -6345.26, 0.00, 0.00, 0.00, 0.00, 0.00, 0.00
166, -37540.45, 187500.00, -187500.02, -187500.02, -13920.93, 0.00, 0.00, 0.00, 0.00, 0.00, 0.00
167, -39328.50, 187500.00, -187500.02, -187500.02, -19983.51, 0.00, 0.00, 0.00, 0.00, 0.00, 0.00
168, -38667.09, 187500.00, -187500.02, -187500.02, -13192.25, 0.00, 0.00, 0.00, 0.00, 0.00, 0.00
169, -36397.80, 187500.00, -187500.02, -187500.02, -5810.72, 0.00, 0.00, 0.00, 0.00, 0.00, 0.00
170, -36441.25, 187500.00, -187500.02, -187500.02, -11571.21, 0.00, 0.00, 0.00, 0.00, 0.00, 0.00
171, -38388.49, 187500.00, -187500.02, -187500.02, -19186.76, 0.00, 0.00, 0.00, 0.00, 0.00, 0.00
172, -39490.52, 187500.00, -187500.02, -187500.02, -13564.02, 0.00, 0.00, 0.00, 0.00, 0.00, 0.00
173, -40223.93, 187500.00, -187500.02, -187500.02, -2642.76, 0.00, 0.00, 0.00, 0.00, 0.00, 0.00
174, -40758.49, 187500.00, -187500.02, -187500.02, -5494.91, 0.00, 0.00, 0.00, 0.00, 0.00, 0.00
175, -40873.36, 187500.00, -187500.02, -187500.02, -15718.57, 0.00, 0.00, 0.00, 0.00, 0.00, 0.00
176, -41129.15, 187500.00, -187500.02, -187500.02, -13537.20, 0.00, 0.00, 0.00, 0.00, 0.00, 0.00
177, -41819.84, 187500.00, -187500.02, -187500.02, -2066.33, 0.00, 0.00, 0.00, 0.00, 0.00, 0.00
178, -42406.40, 187500.00, -187500.02, -187500.02, -1993.10, 0.00, 0.00, 0.00, 0.00, 0.00, 0.00
179, -42561.41, 187500.00, -187500.02, -187500.02, -12569.59, 0.00, 0.00, 0.00, 0.00, 0.00, 0.00
180, -42747.17, 187500.00, -187500.02, -187500.02, -13313.57, 0.00, 0.00, 0.00, 0.00, 0.00, 0.00
181, -43371.50, 187500.00, -187500.02, -187500.02, -2025.74, 0.00, 0.00, 0.00, 0.00, 0.00, 0.00
182, -44049.03, 187500.00, -187500.02, -187500.02, 989.36, 0.00, 0.00, 0.00, 0.00, 0.00, 0.00
183, -44274.91, 187500.00, -187500.02, -187500.02, -9238.51, 0.00, 0.00, 0.00, 0.00, 0.00, 0.00
184, -44362.63, 187500.00, -187500.02, -187500.02, -12799.55, 0.00, 0.00, 0.00, 0.00, 0.00, 0.00
185, -44894.35, 187500.00, -187500.02, -187500.02, -2459.36, 0.00, 0.00, 0.00, 0.00, 0.00, 0.00
186, -45628.38, 187500.00, -187500.02, -187500.02, 3264.81, 0.00, 0.00, 0.00, 0.00, 0.00, 0.00
187, -45900.07, 187500.00, -187500.02, -187500.02, -5803.09, 0.00, 0.00, 0.00, 0.00, 0.00, 0.00
188, -45941.57, 187500.00, -187500.02, -187500.02, -11878.34, 0.00, 0.00, 0.00, 0.00, 0.00, 0.00
189, -46388.96, 187500.00, -187500.02, -187500.02, -3163.82, 0.00, 0.00, 0.00, 0.00, 0.00, 0.00
190, -47115.06, 187500.00, -187500.02, -187500.02, 5005.29, 0.00, 0.00, 0.00, 0.00, 0.00, 0.00
191, -47463.88, 187500.00, -187500.02, -187500.02, -2171.40, 0.00, 0.00, 0.00, 0.00, 0.00, 0.00
192, -47502.29, 187500.00, -187500.02, -187500.02, -10324.92, 0.00, 0.00, 0.00, 0.00, 0.00, 0.00
193, -47849.70, 187500.00, -187500.02, -187500.02, -3771.01, 0.00, 0.00, 0.00, 0.00, 0.00, 0.00
194, -48570.36, 187500.00, -187500.02, -187500.02, 6200.13, 0.00, 0.00, 0.00, 0.00, 0.00, 0.00
195, -49006.71, 187500.00, -187500.02, -187500.02, 1439.12, 0.00, 0.00, 0.00, 0.00, 0.00, 0.00
196, -49036.20, 187500.00, -187500.02, -187500.02, -8259.80, 0.00, 0.00, 0.00, 0.00, 0.00, 0.00
197, -49283.94, 187500.00, -187500.02, -187500.02, -4235.10, 0.00, 0.00, 0.00, 0.00, 0.00, 0.00
198, -49985.94, 187500.00, -187500.02, -187500.02, 6808.32, 0.00, 0.00, 0.00, 0.00, 0.00, 0.00
199, -50521.40, 187500.00, -187500.02, -187500.02, 4772.46, 0.00, 0.00, 0.00, 0.00, 0.00, 0.00
200, -50596.95, 187500.00, -187500.02, -187500.02, -5835.86, 0.00, 0.00, 0.00, 0.00, 0.00, 0.00
201, -50765.04, 187500.00, -187500.02, -187500.02, -4604.95, 0.00, 0.00, 0.00, 0.00, 0.00, 0.00
202, -51428.41, 187500.00, -187500.02, -187500.02, 6771.13, 0.00, 0.00, 0.00, 0.00, 0.00, 0.00
203, -52085.04, 187500.00, -187500.02, -187500.02, 7681.91, 0.00, 0.00, 0.00, 0.00, 0.00, 0.00
204, -52253.26, 187500.00, -187500.02, -187500.02, -2995.63, 0.00, 0.00, 0.00, 0.00, 0.00, 0.00
205, -52394.50, 187500.00, -187500.02, -187500.02, -4693.13, 0.00, 0.00, 0.00, 0.00, 0.00, 0.00
206, -52975.02, 187500.00, -187500.02, -187500.02, 6289.22, 0.00, 0.00, 0.00, 0.00, 0.00, 0.00
207, -53665.73, 187500.00, -187500.02, -187500.02, 10183.10, 0.00, 0.00, 0.00, 0.00, 0.00, 0.00
208, -53856.68, 187500.00, -187500.02, -187500.02, 219.40, 0.00, 0.00, 0.00, 0.00, 0.00, 0.00
209, -52870.70, 187500.00, -187500.02, -187500.02, -5116.11, 0.00, 0.00, 0.00, 0.00, 0.00, 0.00
210, -47653.09, 187500.00, -187500.02, -187500.02, 418.00, 0.00, 0.00, 0.00, 0.00, 0.00, 0.00
211, -42275.11, 187500.00, -187500.02, -187500.02, 2665.29, 0.00, 0.00, 0.00, 0.00, 0.00, 0.00
212, -41204.99, 187500.00, -187500.02, -187500.02, -6624.48, 0.00, 0.00, 0.00, 0.00, 0.00, 0.00
213, -41667.45, 187500.00, -187500.02, -187500.02, -12936.67, 0.00, 0.00, 0.00, 0.00, 0.00, 0.00
214, -39828.50, 187500.00, -187500.02, -187500.02, -6433.97, 0.00, 0.00, 0.00, 0.00, 0.00, 0.00
215, -36820.90, 187500.00, -187500.02, -187500.02, -174.03, 0.00, 0.00, 0.00, 0.00, 0.00, 0.00
216, -36490.68, 187500.00, -187500.02, -187500.02, -6857.09, 0.00, 0.00, 0.00, 0.00, 0.00, 0.00
217, -37963.25, 187500.00, -187500.02, -187500.02, -14368.17, 0.00, 0.00, 0.00, 0.00, 0.00, 0.00
218, -37246.63, 187500.00, -187500.02, -187500.02, -9319.65, 0.00, 0.00, 0.00, 0.00, 0.00, 0.00
219, -34593.61, 187500.00, -187500.02, -187500.02, -1284.20, 0.00, 0.00, 0.00, 0.00, 0.00, 0.00
220, -34044.72, 187500.00, -187500.02, -187500.02, -5704.75, 0.00, 0.00, 0.00, 0.00, 0.00, 0.00
221, -35758.03, 187500.00, -187500.02, -187500.02, -14301.81, 0.00, 0.00, 0.00, 0.00, 0.00, 0.00
222, -35797.82, 187500.00, -187500.02, -187500.02, -11302.03, 0.00, 0.00, 0.00, 0.00, 0.00, 0.00
223, -33355.84, 187500.00, -187500.02, -187500.02, -2210.68, 0.00, 0.00, 0.00, 0.00, 0.00, 0.00
224, -32370.04, 187500.00, -187500.02, -187500.02, -4165.96, 0.00, 0.00, 0.00, 0.00, 0.00, 0.00
225, -34084.20, 187500.00, -187500.02, -187500.02, -13427.30, 0.00, 0.00, 0.00, 0.00, 0.00, 0.00
226, -34777.86, 187500.00, -187500.02, -187500.02, -12784.26, 0.00, 0.00, 0.00, 0.00, 0.00, 0.00
227, -32628.34, 187500.00, -187500.02, -187500.02, -3337.03, 0.00, 0.00, 0.00, 0.00, 0.00, 0.00
228, -31177.20, 187500.00, -187500.02, -187500.02, -2685.05, 0.00, 0.00, 0.00, 0.00, 0.00, 0.00
229, -32697.00, 187500.00, -187500.02, -187500.02, -12004.07, 0.00, 0.00, 0.00, 0.00, 0.00, 0.00
230, -33896.22, 187500.00, -187500.02, -187500.02, -13715.70, 0.00, 0.00, 0.00, 0.00, 0.00, 0.00
231, -32152.60, 187500.00, -187500.02, -187500.02, -4612.60, 0.00, 0.00, 0.00, 0.00, 0.00, 0.00
232, -30310.22, 187500.00, -187500.02, -187500.02, -1468.04, 0.00, 0.00, 0.00, 0.00, 0.00, 0.00
233, -31464.01, 187500.00, -187500.02, -187500.02, -10183.25, 0.00, 0.00, 0.00, 0.00, 0.00, 0.00
234, -33073.83, 187500.00, -187500.02, -187500.02, -14193.80, 0.00, 0.00, 0.00, 0.00, 0.00, 0.00
235, -31845.78, 187500.00, -187500.02, -187500.02, -6086.36, 0.00, 0.00, 0.00, 0.00, 0.00, 0.00
236, -29708.96, 187500.00, -187500.02, -187500.02, -680.79, 0.00, 0.00, 0.00, 0.00, 0.00, 0.00
237, -30401.97, 187500.00, -187500.02, -187500.02, -8134.38, 0.00, 0.00, 0.00, 0.00, 0.00, 0.00
238, -32310.07, 187500.00, -187500.02, -187500.02, -14242.78, 0.00, 0.00, 0.00, 0.00, 0.00, 0.00
239, -31653.09, 187500.00, -187500.02, -187500.02, -7740.88, 0.00, 0.00, 0.00, 0.00, 0.00, 0.00
240, -29361.72, 187500.00, -187500.02, -187500.02, -448.76, 0.00, 0.00, 0.00, 0.00, 0.00, 0.00
241, -29535.48, 187500.00, -187500.02, -187500.02, -6122.34, 0.00, 0.00, 0.00, 0.00, 0.00, 0.00
242, -31563.37, 187500.00, -187500.02, -187500.02, -13828.62, 0.00, 0.00, 0.00, 0.00, 0.00, 0.00
243, -31479.21, 187500.00, -187500.02, -187500.02, -9313.77, 0.00, 0.00, 0.00, 0.00, 0.00, 0.00
244, -29202.64, 187500.00, -187500.02, -187500.02, -734.86, 0.00, 0.00, 0.00, 0.00, 0.00, 0.00
245, -28810.48, 187500.00, -187500.02, -187500.02, -4232.48, 0.00, 0.00, 0.00, 0.00, 0.00, 0.00
246, -30875.04, 187500.00, -187500.02, -187500.02, -13073.36, 0.00, 0.00, 0.00, 0.00, 0.00, 0.00
247, -31408.18, 187500.00, -187500.02, -187500.02, -10883.53, 0.00, 0.00, 0.00, 0.00, 0.00, 0.00
248, -29288.12, 187500.00, -187500.02, -187500.02, -1618.65, 0.00, 0.00, 0.00, 0.00, 0.00, 0.00
249, -28375.67, 187500.00, -187500.02, -187500.02, -2686.93, 0.00, 0.00, 0.00, 0.00, 0.00, 0.00
250, -30245.69, 187500.00, -187500.02, -187500.02, -11984.16, 0.00, 0.00, 0.00, 0.00, 0.00, 0.00
251, -31303.93, 187500.00, -187500.02, -187500.02, -12209.10, 0.00, 0.00, 0.00, 0.00, 0.00, 0.00
252, -29477.44, 187500.00, -187500.02, -187500.02, -2899.16, 0.00, 0.00, 0.00, 0.00, 0.00, 0.00
253, -28060.85, 187500.00, -187500.02, -187500.02, -1403.89, 0.00, 0.00, 0.00, 0.00, 0.00, 0.00
254, -29601.98, 187500.00, -187500.02, -187500.02, -10507.02, 0.00, 0.00, 0.00, 0.00, 0.00, 0.00
255, -31087.79, 187500.00, -187500.02, -187500.02, -13103.35, 0.00, 0.00, 0.00, 0.00, 0.00, 0.00
0, -29565.59, 187500.00, -187500.02, -187500.02, -4262.90, 0.00, 0.00, 0.00, 0.00, 0.00, 0.00
1, -27685.81, 187500.00, -187500.02, -187500.02, -294.26, 0.00, 0.00, 0.00, 0.00, 0.00, 0.00
2, -28777.78, 187500.00, -187500.02, -187500.02, -8604.71, 0.00, 0.00, 0.00, 0.00, 0.00, 0.00
3, -30593.21, 187500.00, -187500.02, -187500.02, -13393.48, 0.00, 0.00, 0.00, 0.00, 0.00, 0.00
4, -29551.78, 187500.00, -187500.02, -187500.02, -5664.87, 0.00, 0.00, 0.00, 0.00, 0.00, 0.00
5, -27397.45, 187500.00, -187500.02, -187500.02, 390.15, 0.00, 0.00, 0.00, 0.00, 0.00, 0.00
6, -28003.61, 187500.00, -187500.02, -187500.02, -6578.10, 0.00, 0.00, 0.00, 0.00, 0.00, 0.00
7, -30011.87, 187500.00, -187500.02, -187500.02, -13191.46, 0.00, 0.00, 0.00, 0.00, 0.00, 0.00
8, -29531.26, 187500.00, -187500.02, -187500.02, -7175.11, 0.00, 0.00, 0.00, 0.00, 0.00, 0.00
9, -27228.98, 187500.00, -187500.02, -187500.02, 572.14, 0.00, 0.00, 0.00, 0.00, 0.00, 0.00
10, -27240.34, 187500.00, -187500.02, -187500.02, -4407.36, 0.00, 0.00, 0.00, 0.00, 0.00, 0.00
11, -29325.89, 187500.00, -187500.02, -187500.02, -12510.16, 0.00, 0.00, 0.00, 0.00, 0.00, 0.00
12, -29462.37, 187500.00, -187500.02, -187500.02, -8706.38, 0.00, 0.00, 0.00, 0.00, 0.00, 0.00
13, -27215.17, 187500.00, -187500.02, -187500.02, 181.29, 0.00, 0.00, 0.00, 0.00, 0.00, 0.00
14, -26642.54, 187500.00, -187500.02, -187500.02, -2477.78, 0.00, 0.00, 0.00, 0.00, 0.00, 0.00
15, -28649.46, 187500.00, -187500.02, -187500.02, -11466.71, 0.00, 0.00, 0.00, 0.00, 0.00, 0.00
16, -29346.79, 187500.00, -187500.02, -187500.02, -10024.53, 0.00, 0.00, 0.00, 0.00, 0.00, 0.00
17, -27251.11, 187500.00, -187500.02, -187500.02, -601.82, 0.00, 0.00, 0.00, 0.00, 0.00, 0.00
18, -26138.04, 187500.00, -187500.02, -187500.02, -759.87, 0.00, 0.00, 0.00, 0.00, 0.00, 0.00
19, -27953.47, 187500.00, -187500.02, -187500.02, -10057.46, 0.00, 0.00, 0.00, 0.00, 0.00, 0.00
20, -29142.34, 187500.00, -187500.02, -187500.02, -11040.35, 0.00, 0.00, 0.00, 0.00, 0.00, 0.00
21, -27380.66, 187500.00, -187500.02, -187500.02, -1796.90, 0.00, 0.00, 0.00, 0.00, 0.00, 0.00
22, -25782.13, 187500.00, -187500.02, -187500.02, 577.81, 0.00, 0.00, 0.00, 0.00, 0.00, 0.00
23, -27253.19, 187500.00, -187500.02, -187500.02, -8346.81, 0.00, 0.00, 0.00, 0.00, 0.00, 0.00
24, -28870.32, 187500.00, -187500.02, -187500.02, -11716.69, 0.00, 0.00, 0.00, 0.00, 0.00, 0.00
25, -27528.90, 187500.00, -187500.02, -187500.02, -3270.71, 0.00, 0.00, 0.00, 0.00, 0.00, 0.00
26, -25572.16, 187500.00, -187500.02, -187500.02, 1432.08, 0.00, 0.00, 0.00, 0.00, 0.00, 0.00
27, -26612.05, 187500.00, -187500.02, -187500.02, -6532.05, 0.00, 0.00, 0.00, 0.00, 0.00, 0.00
28, -28546.44, 187500.00, -187500.02, -187500.02, -12022.82, 0.00, 0.00, 0.00, 0.00, 0.00, 0.00
29, -27749.38, 187500.00, -187500.02, -187500.02, -4971.99, 0.00, 0.00, 0.00, 0.00, 0.00, 0.00
30, -25605.93, 187500.00, -187500.02, -187500.02, 1668.89, 0.00, 0.00, 0.00, 0.00, 0.00, 0.00
31, -26082.67, 187500.00, -187500.02, -187500.02, -4696.68, 0.00, 0.00, 0.00, 0.00, 0.00, 0.00
32, -28231.71, 187500.00, -187500.02, -187500.02, -12011.29, 0.00, 0.00, 0.00, 0.00, 0.00, 0.00
33, -28031.37, 187500.00, -187500.02, -187500.02, -6785.72, 0.00, 0.00, 0.00, 0.00, 0.00, 0.00
34, -25827.28, 187500.00, -187500.02, -187500.02, 1323.02, 0.00, 0.00, 0.00, 0.00, 0.00, 0.00
35, -25715.61, 187500.00, -187500.02, -187500.02, -2968.62, 0.00, 0.00, 0.00, 0.00, 0.00, 0.00
36, -27904.27, 187500.00, -187500.02, -187500.02, -11579.63, 0.00, 0.00, 0.00, 0.00, 0.00, 0.00
37, -28278.06, 187500.00, -187500.02, -187500.02, -8522.81, 0.00, 0.00, 0.00, 0.00, 0.00, 0.00
38, -26139.07, 187500.00, -187500.02, -187500.02, 516.41, 0.00, 0.00, 0.00, 0.00, 0.00, 0.00
39, -25476.09, 187500.00, -187500.02, -187500.02, -1437.62, 0.00, 0.00, 0.00, 0.00, 0.00, 0.00
40, -27486.52, 187500.00, -187500.02, -187500.02, -10660.35, 0.00, 0.00, 0.00, 0.00, 0.00, 0.00
41, -28388.32, 187500.00, -187500.02, -187500.02, -9944.67, 0.00, 0.00, 0.00, 0.00, 0.00, 0.00
42, -26434.76, 187500.00, -187500.02, -187500.02, -576.32, 0.00, 0.00, 0.00, 0.00, 0.00, 0.00
43, -25174.19, 187500.00, -187500.02, -187500.02, 77.65, 0.00, 0.00, 0.00, 0.00, 0.00, 0.00
44, -26875.42, 187500.00, -187500.02, -187500.02, -9145.37, 0.00, 0.00, 0.00, 0.00, 0.00, 0.00
45, -28280.01, 187500.00, -187500.02, -187500.02, -11003.58, 0.00, 0.00, 0.00, 0.00, 0.00, 0.00
46, -26698.73, 187500.00, -187500.02, -187500.02, -1998.40, 0.00, 0.00, 0.00, 0.00, 0.00, 0.00
47, -25006.97, 187500.00, -187500.02, -187500.02, 1180.26, 0.00, 0.00, 0.00, 0.00, 0.00, 0.00
48, -26330.64, 187500.00, -187500.02, -187500.02, -7470.91, 0.00, 0.00, 0.00, 0.00, 0.00, 0.00
49, -28094.51, 187500.00, -187500.02, -187500.02, -11594.32, 0.00, 0.00, 0.00, 0.00, 0.00, 0.00
50, -26991.27, 187500.00, -187500.02, -187500.02, -3603.37, 0.00, 0.00, 0.00, 0.00, 0.00, 0.00
51, -24946.40, 187500.00, -187500.02, -187500.02, 1827.32, 0.00, 0.00, 0.00, 0.00, 0.00, 0.00
52, -25741.88, 187500.00, -187500.02, -187500.02, -5583.13, 0.00, 0.00, 0.00, 0.00, 0.00, 0.00
53, -27758.50, 187500.00, -187500.02, -187500.02, -11694.57, 0.00, 0.00, 0.00, 0.00, 0.00, 0.00
54, -27195.50, 187500.00, -187500.02, -187500.02, -5248.28, 0.00, 0.00, 0.00, 0.00, 0.00, 0.00
55, -25002.19, 187500.00, -187500.02, -187500.02, 1979.00, 0.00, 0.00, 0.00, 0.00, 0.00, 0.00
56, -25240.10, 187500.00, -187500.02, -187500.02, -3671.77, 0.00, 0.00, 0.00, 0.00, 0.00, 0.00
57, -27374.87, 187500.00, -187500.02, -187500.02, -11395.12, 0.00, 0.00, 0.00, 0.00, 0.00, 0.00
58, -27345.17, 187500.00, -187500.02, -187500.02, -6871.24, 0.00, 0.00, 0.00, 0.00, 0.00, 0.00
59, -25122.94, 187500.00, -187500.02, -187500.02, 1691.54, 0.00, 0.00, 0.00, 0.00, 0.00, 0.00
60, -24773.64, 187500.00, -187500.02, -187500.02, -1758.95, 0.00, 0.00, 0.00, 0.00, 0.00, 0.00
61, -26876.90, 187500.00, -187500.02, -187500.02, -10593.09, 0.00, 0.00, 0.00, 0.00, 0.00, 0.00
62, -27475.75, 187500.00, -187500.02, -187500.02, -8373.77, 0.00, 0.00, 0.00, 0.00, 0.00, 0.00
63, -25392.45, 187500.00, -187500.02, -187500.02, 905.34, 0.00, 0.00, 0.00, 0.00, 0.00, 0.00
64, -24479.32, 187500.00, -187500.02, -187500.02, -115.69, 0.00, 0.00, 0.00, 0.00, 0.00, 0.00
65, -26399.78, 187500.00, -187500.02, -187500.02, -9459.77, 0.00, 0.00, 0.00, 0.00, 0.00, 0.00
66, -27467.77, 187500.00, -187500.02, -187500.02, -9558.48, 0.00, 0.00, 0.00, 0.00, 0.00, 0.00
67, -25653.77, 187500.00, -187500.02, -187500.02, -200.96, 0.00, 0.00, 0.00, 0.00, 0.00, 0.00
68, -24247.04, 187500.00, -187500.02, -187500.02, 1282.83, 0.00, 0.00, 0.00, 0.00, 0.00, 0.00
69, -25842.30, 187500.00, -187500.02, -187500.02, -7897.39, 0.00, 0.00, 0.00, 0.00, 0.00, 0.00
70, -27374.27, 187500.00, -187500.02, -187500.02, -10452.84, 0.00, 0.00, 0.00, 0.00, 0.00, 0.00
71, -25987.37, 187500.00, -187500.02, -187500.02, -1722.00, 0.00, 0.00, 0.00, 0.00, 0.00, 0.00
72, -24208.95, 187500.00, -187500.02, -187500.02, 2170.11, 0.00, 0.00, 0.00, 0.00, 0.00, 0.00
73, -25369.05, 187500.00, -187500.02, -187500.02, -6182.87, 0.00, 0.00, 0.00, 0.00, 0.00, 0.00
74, -27278.89, 187500.00, -187500.02, -187500.02, -11069.83, 0.00, 0.00, 0.00, 0.00, 0.00, 0.00
75, -26390.86, 187500.00, -187500.02, -187500.02, -3550.08, 0.00, 0.00, 0.00, 0.00, 0.00, 0.00
76, -24334.46, 187500.00, -187500.02, -187500.02, 2522.35, 0.00, 0.00, 0.00, 0.00, 0.00, 0.00
77, -24978.61, 187500.00, -187500.02, -187500.02, -4392.14, 0.00, 0.00, 0.00, 0.00, 0.00, 0.00
78, -27035.71, 187500.00, -187500.02, -187500.02, -11087.98, 0.00, 0.00, 0.00, 0.00, 0.00, 0.00
79, -26699.09, 187500.00, -187500.02, -187500.02, -5250.67, 0.00, 0.00, 0.00, 0.00, 0.00, 0.00
80, -24496.77, 187500.00, -187500.02, -187500.02, 2513.65, 0.00, 0.00, 0.00, 0.00, 0.00, 0.00
81, -24518.30, 187500.00, -187500.02, -187500.02, -2441.91, 0.00, 0.00, 0.00, 0.00, 0.00, 0.00
82, -26637.60, 187500.00, -187500.02, -187500.02, -10593.56, 0.00, 0.00, 0.00, 0.00, 0.00, 0.00
83, -26849.32, 187500.00, -187500.02, -187500.02, -6877.83, 0.00, 0.00, 0.00, 0.00, 0.00, 0.00
84, -24668.05, 187500.00, -187500.02, -187500.02, 2001.35, 0.00, 0.00, 0.00, 0.00, 0.00, 0.00
85, -24113.40, 187500.00, -187500.02, -187500.02, -671.31, 0.00, 0.00, 0.00, 0.00, 0.00, 0.00
86, -26146.31, 187500.00, -187500.02, -187500.02, -9722.61, 0.00, 0.00, 0.00, 0.00, 0.00, 0.00
87, -26884.88, 187500.00, -187500.02, -187500.02, -8306.76, 0.00, 0.00, 0.00, 0.00, 0.00, 0.00
88, -24889.49, 187500.00, -187500.02, -187500.02, 1108.22, 0.00, 0.00, 0.00, 0.00, 0.00, 0.00
89, -23757.36, 187500.00, -187500.02, -187500.02, 1015.46, 0.00, 0.00, 0.00, 0.00, 0.00, 0.00
90, -25495.29, 187500.00, -187500.02, -187500.02, -8259.24, 0.00, 0.00, 0.00, 0.00, 0.00, 0.00
91, -26740.49, 187500.00, -187500.02, -187500.02, -9275.93, 0.00, 0.00, 0.00, 0.00, 0.00, 0.00
92, -25086.14, 187500.00, -187500.02, -187500.02, 9.68, 0.00, 0.00, 0.00, 0.00, 0.00, 0.00
93, -23530.48, 187500.00, -187500.02, -187500.02, 2382.79, 0.00, 0.00, 0.00, 0.00, 0.00, 0.00
94, -24909.95, 187500.00, -187500.02, -187500.02, -6627.85, 0.00, 0.00, 0.00, 0.00, 0.00, 0.00
95, -26565.70, 187500.00, -187500.02, -187500.02, -10019.64, 0.00, 0.00, 0.00, 0.00, 0.00, 0.00
96, -25395.87, 187500.00, -187500.02, -187500.02, -1498.17, 0.00, 0.00, 0.00, 0.00, 0.00, 0.00
97, -23528.54, 187500.00, -187500.02, -187500.02, 3153.25, 0.00, 0.00, 0.00, 0.00, 0.00, 0.00
98, -24314.03, 187500.00, -187500.02, -187500.02, -4999.84, 0.00, 0.00, 0.00, 0.00, 0.00, 0.00
99, -26275.30, 187500.00, -187500.02, -187500.02, -10587.73, 0.00, 0.00, 0.00, 0.00, 0.00, 0.00
100, -25683.90, 187500.00, -187500.02, -187500.02, -3430.95, 0.00, 0.00, 0.00, 0.00, 0.00, 0.00
101, -23654.58, 187500.00, -187500.02, -187500.02, 3282.80, 0.00, 0.00, 0.00, 0.00, 0.00, 0.00
102, -23990.48, 187500.00, -187500.02, -187500.02, -3098.29, 0.00, 0.00, 0.00, 0.00, 0.00, 0.00
103, -26004.82, 187500.00, -187500.02, -187500.02, -10447.07, 0.00, 0.00, 0.00, 0.00, 0.00, 0.00
104, -25909.89, 187500.00, -187500.02, -187500.02, -5243.99, 0.00, 0.00, 0.00, 0.00, 0.00, 0.00
105, -23786.84, 187500.00, -187500.02, -187500.02, 3049.81, 0.00, 0.00, 0.00, 0.00, 0.00, 0.00
106, -23563.74, 187500.00, -187500.02, -187500.02, -1211.62, 0.00, 0.00, 0.00, 0.00, 0.00, 0.00
107, -25557.23, 187500.00, -187500.02, -187500.02, -9806.31, 0.00, 0.00, 0.00, 0.00, 0.00, 0.00
108, -26019.08, 187500.00, -187500.02, -187500.02, -6870.34, 0.00, 0.00, 0.00, 0.00, 0.00, 0.00
109, -24023.25, 187500.00, -187500.02, -187500.02, 2284.19, 0.00, 0.00, 0.00, 0.00, 0.00, 0.00
110, -23278.51, 187500.00, -187500.02, -187500.02, 417.26, 0.00, 0.00, 0.00, 0.00, 0.00, 0.00
111, -25130.45, 187500.00, -187500.02, -187500.02, -8858.17, 0.00, 0.00, 0.00, 0.00, 0.00, 0.00
112, -26092.89, 187500.00, -187500.02, -187500.02, -8317.40, 0.00, 0.00, 0.00, 0.00, 0.00, 0.00
113, -24332.69, 187500.00, -187500.02, -187500.02, 1105.99, 0.00, 0.00, 0.00, 0.00, 0.00, 0.00
114, -23111.39, 187500.00, -187500.02, -187500.02, 1789.48, 0.00, 0.00, 0.00, 0.00, 0.00, 0.00
115, -24666.04, 187500.00, -187500.02, -187500.02, -7489.89, 0.00, 0.00, 0.00, 0.00, 0.00, 0.00
116, -26047.25, 187500.00, -187500.02, -187500.02, -9353.53, 0.00, 0.00, 0.00, 0.00, 0.00, 0.00
117, -24617.12, 187500.00, -187500.02, -187500.02, -259.55, 0.00, 0.00, 0.00, 0.00, 0.00, 0.00
118, -22992.61, 187500.00, -187500.02, -187500.02, 2915.18, 0.00, 0.00, 0.00, 0.00, 0.00, 0.00
119, -24187.98, 187500.00, -187500.02, -187500.02, -5840.04, 0.00, 0.00, 0.00, 0.00, 0.00, 0.00
120, -25913.74, 187500.00, -187500.02, -187500.02, -10041.79, 0.00, 0.00, 0.00, 0.00, 0.00, 0.00
121, -25087.40, 187500.00, -187500.02, -187500.02, -1939.42, 0.00, 0.00, 0.00, 0.00, 0.00, 0.00
122, -23254.89, 187500.00, -187500.02, -187500.02, 3615.04, 0.00, 0.00, 0.00, 0.00, 0.00, 0.00
123, -23876.83, 187500.00, -187500.02, -187500.02, -3989.79, 0.00, 0.00, 0.00, 0.00, 0.00, 0.00
124, -25687.72, 187500.00, -187500.02, -187500.02, -10291.03, 0.00, 0.00, 0.00, 0.00, 0.00, 0.00
125, -25319.83, 187500.00, -187500.02, -187500.02, -3611.17, 0.00, 0.00, 0.00, 0.00, 0.00, 0.00
126, -23400.51, 187500.00, -187500.02, -187500.02, 3804.49, 0.00, 0.00, 0.00, 0.00, 0.00, 0.00
127, -23459.07, 187500.00, -187500.02, -187500.02, -2032.18, 0.00, 0.00, 0.00, 0.00, 0.00, 0.00
128, -25274.57, 187500.00, -187500.02, -187500.02, -10036.31, 0.00, 0.00, 0.00, 0.00, 0.00, 0.00
129, -25347.86, 187500.00, -187500.02, -187500.02, -5305.61, 0.00, 0.00, 0.00, 0.00, 0.00, 0.00
130, -23419.46, 187500.00, -187500.02, -187500.02, 3537.34, 0.00, 0.00, 0.00, 0.00, 0.00, 0.00
131, -22898.74, 187500.00, -187500.02, -187500.02, 8.65, 0.00, 0.00, 0.00, 0.00, 0.00, 0.00
132, -24550.95, 187500.00, -187500.02, -187500.02, -9108.27, 0.00, 0.00, 0.00, 0.00, 0.00, 0.00
133, -25193.90, 187500.00, -187500.02, -187500.02, -6856.73, 0.00, 0.00, 0.00, 0.00, 0.00, 0.00
134, -23585.16, 187500.00, -187500.02, -187500.02, 2796.40, 0.00, 0.00, 0.00, 0.00, 0.00, 0.00
135, -22588.22, 187500.00, -187500.02, -187500.02, 1779.04, 0.00, 0.00, 0.00, 0.00, 0.00, 0.00
136, -23839.81, 187500.00, -187500.02, -187500.02, -7941.04, 0.00, 0.00, 0.00, 0.00, 0.00, 0.00
137, -24828.70, 187500.00, -187500.02, -187500.02, -8276.29, 0.00, 0.00, 0.00, 0.00, 0.00, 0.00
138, -23593.99, 187500.00, -187500.02, -187500.02, 1478.48, 0.00, 0.00, 0.00, 0.00, 0.00, 0.00
139, -22237.68, 187500.00, -187500.02, -187500.02, 3109.89, 0.00, 0.00, 0.00, 0.00, 0.00, 0.00
140, -22278.61, 187500.00, -187500.02, -187500.02, -7107.72, 0.00, 0.00, 0.00, 0.00, 0.00, 0.00
141, -22458.72, 187500.00, -187500.02, -187500.02, -10764.44, 0.00, 0.00, 0.00, 0.00, 0.00, 0.00
142, -23002.25, 187500.00, -187500.02, -187500.02, -585.26, 0.00, 0.00, 0.00, 0.00, 0.00, 0.00
143, -23686.95, 187500.00, -187500.02, -187500.02, 5290.93, 0.00, 0.00, 0.00, 0.00, 0.00, 0.00
144, -23978.32, 187500.00, -187500.02, -187500.02, -3699.86, 0.00, 0.00, 0.00, 0.00, 0.00, 0.00
145, -24106.89, 187500.00, -187500.02, -187500.02, -9881.08, 0.00, 0.00, 0.00, 0.00, 0.00, 0.00
146, -23587.15, 187500.00, -187500.02, -187500.02, -2054.04, 0.00, 0.00, 0.00, 0.00, 0.00, 0.00
147, -22067.59, 187500.00, -187500.02, -187500.02, 4454.57, 0.00, 0.00, 0.00, 0.00, 0.00, 0.00
148, -22146.04, 187500.00, -187500.02, -187500.02, -2774.50, 0.00, 0.00, 0.00, 0.00, 0.00, 0.00
149, -23564.46, 187500.00, -187500.02, -187500.02, -9992.88, 0.00, 0.00, 0.00, 0.00, 0.00, 0.00
150, -23536.65, 187500.00, -187500.02, -187500.02, -3959.28, 0.00, 0.00, 0.00, 0.00, 0.00, 0.00
151, -21954.38, 187500.00, -187500.02, -187500.02, 4258.59, 0.00, 0.00, 0.00, 0.00, 0.00, 0.00
152, -21679.98, 187500.00, -187500.02, -187500.02, -903.61, 0.00, 0.00, 0.00, 0.00, 0.00, 0.00
153, -23089.37, 187500.00, -187500.02, -187500.02, -9597.19, 0.00, 0.00, 0.00, 0.00, 0.00, 0.00
154, -23595.35, 187500.00, -187500.02, -187500.02, -5627.54, 0.00, 0.00, 0.00, 0.00, 0.00, 0.00
155, -23494.88, 187500.00, -187500.02, -187500.02, 4845.50, 0.00, 0.00, 0.00, 0.00, 0.00, 0.00
156, -23925.96, 187500.00, -187500.02, -187500.02, 2931.30, 0.00, 0.00, 0.00, 0.00, 0.00, 0.00
157, -24005.59, 187500.00, -187500.02, -187500.02, -7623.53, 0.00, 0.00, 0.00, 0.00, 0.00, 0.00
158, -24165.32, 187500.00, -187500.02, -187500.02, -6517.52, 0.00, 0.00, 0.00, 0.00, 0.00, 0.00
159, -24789.71, 187500.00, -187500.02, -187500.02, 4856.32, 0.00, 0.00, 0.00, 0.00, 0.00, 0.00
160, -25383.24, 187500.00, -187500.02, -187500.02, 5963.40, 0.00, 0.00, 0.00, 0.00, 0.00, 0.00
161, -25494.22, 187500.00, -187500.02, -187500.02, -4649.90, 0.00, 0.00, 0.00, 0.00, 0.00, 0.00
162, -25643.35, 187500.00, -187500.02, -187500.02, -6479.37, 0.00, 0.00, 0.00, 0.00, 0.00, 0.00
163, -26229.01, 187500.00, -187500.02, -187500.02, 4385.73, 0.00, 0.00, 0.00, 0.00, 0.00, 0.00
164, -26892.37, 187500.00, -187500.02, -187500.02, 8362.79, 0.00, 0.00, 0.00, 0.00, 0.00, 0.00
165, -27099.57, 187500.00, -187500.02, -187500.02, -1519.85, 0.00, 0.00, 0.00, 0.00, 0.00, 0.00
166, -27195.79, 187500.00, -187500.02, -187500.02, -6190.94, 0.00, 0.00, 0.00, 0.00, 0.00, 0.00
167, -27708.99, 187500.00, -187500.02, -187500.02, 3421.43, 0.00, 0.00, 0.00, 0.00, 0.00, 0.00
168, -28420.71, 187500.00, -187500.02, -187500.02, 10069.71, 0.00, 0.00, 0.00, 0.00, 0.00, 0.00
169, -28732.76, 187500.00, -187500.02, -187500.02, 1624.37, 0.00, 0.00, 0.00, 0.00, 0.00, 0.00
170, -28802.55, 187500.00, -187500.02, -187500.02, -5371.01, 0.00, 0.00, 0.00, 0.00, 0.00, 0.00
171, -29228.17, 187500.00, -187500.02, -187500.02, 2440.43, 0.00, 0.00, 0.00, 0.00, 0.00, 0.00
172, -29948.43, 187500.00, -187500.02, -187500.02, 11277.10, 0.00, 0.00, 0.00, 0.00, 0.00, 0.00
173, -30348.13, 187500.00, -187500.02, -187500.02, 4926.73, 0.00, 0.00, 0.00, 0.00, 0.00, 0.00
174, -30384.13, 187500.00, -187500.02, -187500.02, -3868.80, 0.00, 0.00, 0.00, 0.00, 0.00, 0.00
175, -30291.02, 187500.00, -187500.02, -187500.02, 1351.57, 0.00, 0.00, 0.00, 0.00, 0.00, 0.00
176, -27867.06, 187500.00, -187500.02, -187500.02, 9392.22, 0.00, 0.00, 0.00, 0.00, 0.00, 0.00
177, -25830.50, 187500.00, -187500.02, -187500.02, 3848.25, 0.00, 0.00, 0.00, 0.00, 0.00, 0.00
178, -25660.76, 187500.00, -187500.02, -187500.02, -6268.17, 0.00, 0.00, 0.00, 0.00, 0.00, 0.00
179, -25868.61, 187500.00, -187500.02, -187500.02, -3350.55, 0.00, 0.00, 0.00, 0.00, 0.00, 0.00
180, -26004.00, 187500.00, -187500.02, -187500.02, 7482.60, 0.00, 0.00, 0.00, 0.00, 0.00, 0.00
181, -24674.89, 187500.00, -187500.02, -187500.02, 5295.87, 0.00, 0.00, 0.00, 0.00, 0.00, 0.00
182, -24849.86, 187500.00, -187500.02, -187500.02, -5130.08, 0.00, 0.00, 0.00, 0.00, 0.00, 0.00
183, -25034.71, 187500.00, -187500.02, -187500.02, -5081.49, 0.00, 0.00, 0.00, 0.00, 0.00, 0.00
184, -23344.43, 187500.00, -187500.02, -187500.02, 4526.65, 0.00, 0.00, 0.00, 0.00, 0.00, 0.00
185, -21962.73, 187500.00, -187500.02, -187500.02, 5253.80, 0.00, 0.00, 0.00, 0.00, 0.00, 0.00
186, -22705.17, 187500.00, -187500.02, -187500.02, -4568.25, 0.00, 0.00, 0.00, 0.00, 0.00, 0.00
187, -23581.29, 187500.00, -187500.02, -187500.02, -6808.43, 0.00, 0.00, 0.00, 0.00, 0.00, 0.00
188, -22396.16, 187500.00, -187500.02, -187500.02, 2532.92, 0.00, 0.00, 0.00, 0.00, 0.00, 0.00
189, -20901.25, 187500.00, -187500.02, -187500.02, 5951.04, 0.00, 0.00, 0.00, 0.00, 0.00, 0.00
190, -21529.24, 187500.00, -187500.02, -187500.02, -3193.06, 0.00, 0.00, 0.00, 0.00, 0.00, 0.00
191, -22730.92, 187500.00, -187500.02, -187500.02, -7741.15, 0.00, 0.00, 0.00, 0.00, 0.00, 0.00
192, -21976.90, 187500.00, -187500.02, -187500.02, 577.68, 0.00, 0.00, 0.00, 0.00, 0.00, 0.00
193, -20363.98, 187500.00, -187500.02, -187500.02, 6304.26, 0.00, 0.00, 0.00, 0.00, 0.00, 0.00
194, -20628.69, 187500.00, -187500.02, -187500.02, -1460.51, 0.00, 0.00, 0.00, 0.00, 0.00, 0.00
195, -21985.53, 187500.00, -187500.02, -187500.02, -8001.86, 0.00, 0.00, 0.00, 0.00, 0.00, 0.00
196, -21657.95, 187500.00, -187500.02, -187500.02, -1332.10, 0.00, 0.00, 0.00, 0.00, 0.00, 0.00
197, -20020.95, 187500.00, -187500.02, -187500.02, 6295.44, 0.00, 0.00, 0.00, 0.00, 0.00, 0.00
198, -19933.29, 187500.00, -187500.02, -187500.02, 513.44, 0.00, 0.00, 0.00, 0.00, 0.00, 0.00
199, -21356.40, 187500.00, -187500.02, -187500.02, -7699.62, 0.00, 0.00, 0.00, 0.00, 0.00, 0.00
200, -21444.31, 187500.00, -187500.02, -187500.02, -3223.50, 0.00, 0.00, 0.00, 0.00, 0.00, 0.00
201, -19846.31, 187500.00, -187500.02, -187500.02, 5794.35, 0.00, 0.00, 0.00, 0.00, 0.00, 0.00
202, -19387.68, 187500.00, -187500.02, -187500.02, 2370.47, 0.00, 0.00, 0.00, 0.00, 0.00, 0.00
203, -20727.69, 187500.00, -187500.02, -187500.02, -6860.35, 0.00, 0.00, 0.00, 0.00, 0.00, 0.00
204, -21231.43, 187500.00, -187500.02, -187500.02, -4783.68, 0.00, 0.00, 0.00, 0.00, 0.00, 0.00
205, -19784.76, 187500.00, -187500.02, -187500.02, 4921.88, 0.00, 0.00, 0.00, 0.00, 0.00, 0.00
206, -18978.49, 187500.00, -187500.02, -187500.02, 4061.27, 0.00, 0.00, 0.00, 0.00, 0.00, 0.00
207, -20195.27, 187500.00, -187500.02, -187500.02, -5640.66, 0.00, 0.00, 0.00, 0.00, 0.00, 0.00
208, -21020.09, 187500.00, -187500.02, -187500.02, -6076.39, 0.00, 0.00, 0.00, 0.00, 0.00, 0.00
209, -19795.69, 187500.00, -187500.02, -187500.02, 3624.69, 0.00, 0.00, 0.00, 0.00, 0.00, 0.00
210, -18635.19, 187500.00, -187500.02, -187500.02, 5452.26, 0.00, 0.00, 0.00, 0.00, 0.00, 0.00
211, -19607.53, 187500.00, -187500.02, -187500.02, -4009.17, 0.00, 0.00, 0.00, 0.00, 0.00, 0.00
212, -20799.35, 187500.00, -187500.02, -187500.02, -7026.74, 0.00, 0.00, 0.00, 0.00, 0.00, 0.00
213, -19946.96, 187500.00, -187500.02, -187500.02, 1928.53, 0.00, 0.00, 0.00, 0.00, 0.00, 0.00
214, -18579.57, 187500.00, -187500.02, -187500.02, 6207.86, 0.00, 0.00, 0.00, 0.00, 0.00, 0.00
215, -19285.35, 187500.00, -187500.02, -187500.02, -2413.30, 0.00, 0.00, 0.00, 0.00, 0.00, 0.00
216, -20712.29, 187500.00, -187500.02, -187500.02, -7723.56, 0.00, 0.00, 0.00, 0.00, 0.00, 0.00
217, -20188.86, 187500.00, -187500.02, -187500.02, -47.59, 0.00, 0.00, 0.00, 0.00, 0.00, 0.00
218, -18641.94, 187500.00, -187500.02, -187500.02, 6447.36, 0.00, 0.00, 0.00, 0.00, 0.00, 0.00
219, -18946.77, 187500.00, -187500.02, -187500.02, -622.32, 0.00, 0.00, 0.00, 0.00, 0.00, 0.00
220, -20464.00, 187500.00, -187500.02, -187500.02, -7858.90, 0.00, 0.00, 0.00, 0.00, 0.00, 0.00
221, -20372.41, 187500.00, -187500.02, -187500.02, -1949.90, 0.00, 0.00, 0.00, 0.00, 0.00, 0.00
222, -18804.83, 187500.00, -187500.02, -187500.02, 6199.23, 0.00, 0.00, 0.00, 0.00, 0.00, 0.00
223, -18669.21, 187500.00, -187500.02, -187500.02, 1234.87, 0.00, 0.00, 0.00, 0.00, 0.00, 0.00
224, -20138.70, 187500.00, -187500.02, -187500.02, -7382.80, 0.00, 0.00, 0.00, 0.00, 0.00, 0.00
225, -20386.62, 187500.00, -187500.02, -187500.02, -3585.15, 0.00, 0.00, 0.00, 0.00, 0.00, 0.00
226, -18808.12, 187500.00, -187500.02, -187500.02, 5737.54, 0.00, 0.00, 0.00, 0.00, 0.00, 0.00
227, -18274.43, 187500.00, -187500.02, -187500.02, 3161.97, 0.00, 0.00, 0.00, 0.00, 0.00, 0.00
228, -19639.90, 187500.00, -187500.02, -187500.02, -6312.87, 0.00, 0.00, 0.00, 0.00, 0.00, 0.00
229, -20248.04, 187500.00, -187500.02, -187500.02, -4942.35, 0.00, 0.00, 0.00, 0.00, 0.00, 0.00
230, -18846.32, 187500.00, -187500.02, -187500.02, 4812.35, 0.00, 0.00, 0.00, 0.00, 0.00, 0.00
231, -17927.78, 187500.00, -187500.02, -187500.02, 4858.13, 0.00, 0.00, 0.00, 0.00, 0.00, 0.00
232, -19110.43, 187500.00, -187500.02, -187500.02, -4793.17, 0.00, 0.00, 0.00, 0.00, 0.00, 0.00
233, -20105.64, 187500.00, -187500.02, -187500.02, -6138.88, 0.00, 0.00, 0.00, 0.00, 0.00, 0.00
234, -18970.04, 187500.00, -187500.02, -187500.02, 3370.49, 0.00, 0.00, 0.00, 0.00, 0.00, 0.00
235, -17717.13, 187500.00, -187500.02, -187500.02, 6098.92, 0.00, 0.00, 0.00, 0.00, 0.00, 0.00
236, -18587.13, 187500.00, -187500.02, -187500.02, -3052.62, 0.00, 0.00, 0.00, 0.00, 0.00, 0.00
237, -19811.80, 187500.00, -187500.02, -187500.02, -6799.42, 0.00, 0.00, 0.00, 0.00, 0.00, 0.00
238, -18995.81, 187500.00, -187500.02, -187500.02, 1812.26, 0.00, 0.00, 0.00, 0.00, 0.00, 0.00
239, -17525.80, 187500.00, -187500.02, -187500.02, 6946.12, 0.00, 0.00, 0.00, 0.00, 0.00, 0.00
240, -18104.29, 187500.00, -187500.02, -187500.02, -1137.88, 0.00, 0.00, 0.00, 0.00, 0.00, 0.00
241, -19546.82, 187500.00, -187500.02, -187500.02, -7085.95, 0.00, 0.00, 0.00, 0.00, 0.00, 0.00
242, -19142.28, 187500.00, -187500.02, -187500.02, -0.67, 0.00, 0.00, 0.00, 0.00, 0.00, 0.00
243, -17566.73, 187500.00, -187500.02, -187500.02, 7126.12, 0.00, 0.00, 0.00, 0.00, 0.00, 0.00
244, -17706.36, 187500.00, -187500.02, -187500.02, 792.44, 0.00, 0.00, 0.00, 0.00, 0.00, 0.00
245, -19213.20, 187500.00, -187500.02, -187500.02, -6909.46, 0.00, 0.00, 0.00, 0.00, 0.00, 0.00
246, -19238.06, 187500.00, -187500.02, -187500.02, -1821.31, 0.00, 0.00, 0.00, 0.00, 0.00, 0.00
247, -17631.88, 187500.00, -187500.02, -187500.02, 6788.52, 0.00, 0.00, 0.00, 0.00, 0.00, 0.00
248, -17372.67, 187500.00, -187500.02, -187500.02, 2650.72, 0.00, 0.00, 0.00, 0.00, 0.00, 0.00
249, -18854.23, 187500.00, -187500.02, -187500.02, -6277.98, 0.00, 0.00, 0.00, 0.00, 0.00, 0.00
250, -19255.51, 187500.00, -187500.02, -187500.02, -3494.34, 0.00, 0.00, 0.00, 0.00, 0.00, 0.00
251, -17770.69, 187500.00, -187500.02, -187500.02, 5954.04, 0.00, 0.00, 0.00, 0.00, 0.00, 0.00
252, -17135.29, 187500.00, -187500.02, -187500.02, 4296.41, 0.00, 0.00, 0.00, 0.00, 0.00, 0.00
253, -18509.93, 187500.00, -187500.02, -187500.02, -5296.76, 0.00, 0.00, 0.00, 0.00, 0.00, 0.00
254, -19302.38, 187500.00, -187500.02, -187500.02, -4979.79, 0.00, 0.00, 0.00, 0.00, 0.00, 0.00
255, -18014.83, 187500.00, -187500.02, -187500.02, 4684.46, 0.00, 0.00, 0.00, 0.00, 0.00, 0.00
0, -17013.12, 187500.00, -187500.02, -187500.02, 5637.20, 0.00, 0.00, 0.00, 0.00, 0.00, 0.00
1, -18161.80, 187500.00, -187500.02, -187500.02, -3958.96, 0.00, 0.00, 0.00, 0.00, 0.00, 0.00
2, -19286.54, 187500.00, -187500.02, -187500.02, -6116.35, 0.00, 0.00, 0.00, 0.00, 0.00, 0.00
3, -18240.32, 187500.00, -187500.02, -187500.02, 3132.19, 0.00, 0.00, 0.00, 0.00, 0.00, 0.00
4, -16956.30, 187500.00, -187500.02, -187500.02, 6599.71, 0.00, 0.00, 0.00, 0.00, 0.00, 0.00
5, -17817.16, 187500.00, -187500.02, -187500.02, -2327.42, 0.00, 0.00, 0.00, 0.00, 0.00, 0.00
6, -19179.67, 187500.00, -187500.02, -187500.02, -6787.06, 0.00, 0.00, 0.00, 0.00, 0.00, 0.00
7, -18519.13, 187500.00, -187500.02, -187500.02, 1328.54, 0.00, 0.00, 0.00, 0.00, 0.00, 0.00
8, -17039.45, 187500.00, -187500.02, -187500.02, 7061.92, 0.00, 0.00, 0.00, 0.00, 0.00, 0.00
9, -17576.70, 187500.00, -187500.02, -187500.02, -531.08, 0.00, 0.00, 0.00, 0.00, 0.00, 0.00
10, -19102.49, 187500.00, -187500.02, -187500.02, -7092.23, 0.00, 0.00, 0.00, 0.00, 0.00, 0.00
11, -18835.46, 187500.00, -187500.02, -187500.02, -652.89, 0.00, 0.00, 0.00, 0.00, 0.00, 0.00
12, -17251.10, 187500.00, -187500.02, -187500.02, 6954.34, 0.00, 0.00, 0.00, 0.00, 0.00, 0.00
13, -17332.79, 187500.00, -187500.02, -187500.02, 1290.54, 0.00, 0.00, 0.00, 0.00, 0.00, 0.00
14, -18906.11, 187500.00, -187500.02, -187500.02, -6849.87, 0.00, 0.00, 0.00, 0.00, 0.00, 0.00
15, -19058.08, 187500.00, -187500.02, -187500.02, -2513.54, 0.00, 0.00, 0.00, 0.00, 0.00, 0.00
16, -17479.69, 187500.00, -187500.02, -187500.02, 6403.82, 0.00, 0.00, 0.00, 0.00, 0.00, 0.00
17, -17138.60, 187500.00, -187500.02, -187500.02, 3067.75, 0.00, 0.00, 0.00, 0.00, 0.00, 0.00
18, -18630.54, 187500.00, -187500.02, -187500.02, -6087.83, 0.00, 0.00, 0.00, 0.00, 0.00, 0.00
19, -19160.12, 187500.00, -187500.02, -187500.02, -4101.81, 0.00, 0.00, 0.00, 0.00, 0.00, 0.00
20, -17668.07, 187500.00, -187500.02, -187500.02, 5502.31, 0.00, 0.00, 0.00, 0.00, 0.00, 0.00
21, -16898.57, 187500.00, -187500.02, -187500.02, 4748.25, 0.00, 0.00, 0.00, 0.00, 0.00, 0.00
22, -18214.93, 187500.00, -187500.02, -187500.02, -4808.73, 0.00, 0.00, 0.00, 0.00, 0.00, 0.00
23, -19107.54, 187500.00, -187500.02, -187500.02, -5329.01, 0.00, 0.00, 0.00, 0.00, 0.00, 0.00
24, -17833.52, 187500.00, -187500.02, -187500.02, 4260.91, 0.00, 0.00, 0.00, 0.00, 0.00, 0.00
25, -16702.88, 187500.00, -187500.02, -187500.02, 6137.65, 0.00, 0.00, 0.00, 0.00, 0.00, 0.00
26, -17805.24, 187500.00, -187500.02, -187500.02, -3235.48, 0.00, 0.00, 0.00, 0.00, 0.00, 0.00
27, -19017.69, 187500.00, -187500.02, -187500.02, -6214.28, 0.00, 0.00, 0.00, 0.00, 0.00, 0.00
28, -18036.76, 187500.00, -187500.02, -187500.02, 2759.93, 0.00, 0.00, 0.00, 0.00, 0.00, 0.00
29, -16601.51, 187500.00, -187500.02, -187500.02, 7133.72, 0.00, 0.00, 0.00, 0.00, 0.00, 0.00
30, -17350.36, 187500.00, -187500.02, -187500.02, -1322.93, 0.00, 0.00, 0.00, 0.00, 0.00, 0.00
31, -18764.15, 187500.00, -187500.02, -187500.02, -6545.86, 0.00, 0.00, 0.00, 0.00, 0.00, 0.00
32, -18131.22, 187500.00, -187500.02, -187500.02, 1183.39, 0.00, 0.00, 0.00, 0.00, 0.00, 0.00
33, -16526.68, 187500.00, -187500.02, -187500.02, 7658.11, 0.00, 0.00, 0.00, 0.00, 0.00, 0.00
34, -16879.93, 187500.00, -187500.02, -187500.02, 646.05, 0.00, 0.00, 0.00, 0.00, 0.00, 0.00
35, -18440.17, 187500.00, -187500.02, -187500.02, -6458.85, 0.00, 0.00, 0.00, 0.00, 0.00, 0.00
36, -18237.70, 187500.00, -187500.02, -187500.02, -558.26, 0.00, 0.00, 0.00, 0.00, 0.00, 0.00
37, -16587.63, 187500.00, -187500.02, -187500.02, 7540.20, 0.00, 0.00, 0.00, 0.00, 0.00, 0.00
38, -16520.04, 187500.00, -187500.02, -187500.02, 2636.59, 0.00, 0.00, 0.00, 0.00, 0.00, 0.00
39, -18058.71, 187500.00, -187500.02, -187500.02, -5880.99, 0.00, 0.00, 0.00, 0.00, 0.00, 0.00
40, -18325.14, 187500.00, -187500.02, -187500.02, -2328.74, 0.00, 0.00, 0.00, 0.00, 0.00, 0.00
41, -16739.06, 187500.00, -187500.02, -187500.02, 6899.13, 0.00, 0.00, 0.00, 0.00, 0.00, 0.00
42, -16216.08, 187500.00, -187500.02, -187500.02, 4475.67, 0.00, 0.00, 0.00, 0.00, 0.00, 0.00
43, -17674.73, 187500.00, -187500.02, -187500.02, -4872.19, 0.00, 0.00, 0.00, 0.00, 0.00, 0.00
44, -18326.33, 187500.00, -187500.02, -187500.02, -3724.67, 0.00, 0.00, 0.00, 0.00, 0.00, 0.00
45, -16834.82, 187500.00, -187500.02, -187500.02, 5996.15, 0.00, 0.00, 0.00, 0.00, 0.00, 0.00
46, -15905.10, 187500.00, -187500.02, -187500.02, 6164.97, 0.00, 0.00, 0.00, 0.00, 0.00, 0.00
47, -17204.07, 187500.00, -187500.02, -187500.02, -3440.07, 0.00, 0.00, 0.00, 0.00, 0.00, 0.00
48, -18195.19, 187500.00, -187500.02, -187500.02, -4817.18, 0.00, 0.00, 0.00, 0.00, 0.00, 0.00
49, -17004.80, 187500.00, -187500.02, -187500.02, 4586.38, 0.00, 0.00, 0.00, 0.00, 0.00, 0.00
50, -15793.85, 187500.00, -187500.02, -187500.02, 7267.13, 0.00, 0.00, 0.00, 0.00, 0.00, 0.00
51, -16797.63, 187500.00, -187500.02, -187500.02, -1846.30, 0.00, 0.00, 0.00, 0.00, 0.00, 0.00
52, -18083.03, 187500.00, -187500.02, -187500.02, -5607.72, 0.00, 0.00, 0.00, 0.00, 0.00, 0.00
53, -17213.57, 187500.00, -187500.02, -187500.02, 2920.37, 0.00, 0.00, 0.00, 0.00, 0.00, 0.00
54, -15737.77, 187500.00, -187500.02, -187500.02, 8044.73, 0.00, 0.00, 0.00, 0.00, 0.00, 0.00
55, -16389.44, 187500.00, -187500.02, -187500.02, 67.88, 0.00, 0.00, 0.00, 0.00, 0.00, 0.00
56, -17869.66, 187500.00, -187500.02, -187500.02, -5849.50, 0.00, 0.00, 0.00, 0.00, 0.00, 0.00
57, -17395.04, 187500.00, -187500.02, -187500.02, 1211.38, 0.00, 0.00, 0.00, 0.00, 0.00, 0.00
58, -15813.81, 187500.00, -187500.02, -187500.02, 8258.46, 0.00, 0.00, 0.00, 0.00, 0.00, 0.00
59, -16069.14, 187500.00, -187500.02, -187500.02, 1944.78, 0.00, 0.00, 0.00, 0.00, 0.00, 0.00
60, -17736.02, 187500.00, -187500.02, -187500.02, -5836.08, 0.00, 0.00, 0.00, 0.00, 0.00, 0.00
61, -17736.91, 187500.00, -187500.02, -187500.02, -745.16, 0.00, 0.00, 0.00, 0.00, 0.00, 0.00
62, -16066.41, 187500.00, -187500.02, -187500.02, 7779.99, 0.00, 0.00, 0.00, 0.00, 0.00, 0.00
63, -15927.20, 187500.00, -187500.02, -187500.02, 3569.28, 0.00, 0.00, 0.00, 0.00, 0.00, 0.00
64, -17593.82, 187500.00, -187500.02, -187500.02, -5442.29, 0.00, 0.00, 0.00, 0.00, 0.00, 0.00
65, -17993.20, 187500.00, -187500.02, -187500.02, -2585.29, 0.00, 0.00, 0.00, 0.00, 0.00, 0.00
66, -16439.89, 187500.00, -187500.02, -187500.02, 6778.08, 0.00, 0.00, 0.00, 0.00, 0.00, 0.00
67, -15853.96, 187500.00, -187500.02, -187500.02, 5138.46, 0.00, 0.00, 0.00, 0.00, 0.00, 0.00
68, -17325.19, 187500.00, -187500.02, -187500.02, -4380.23, 0.00, 0.00, 0.00, 0.00, 0.00, 0.00
69, -18114.03, 187500.00, -187500.02, -187500.02, -4123.81, 0.00, 0.00, 0.00, 0.00, 0.00, 0.00
70, -16726.53, 187500.00, -187500.02, -187500.02, 5500.23, 0.00, 0.00, 0.00, 0.00, 0.00, 0.00
71, -15721.64, 187500.00, -187500.02, -187500.02, 6521.43, 0.00, 0.00, 0.00, 0.00, 0.00, 0.00
72, -16950.45, 187500.00, -187500.02, -187500.02, -2961.32, 0.00, 0.00, 0.00, 0.00, 0.00, 0.00
73, -18085.00, 187500.00, -187500.02, -187500.02, -5182.97, 0.00, 0.00, 0.00, 0.00, 0.00, 0.00
74, -16968.46, 187500.00, -187500.02, -187500.02, 3965.71, 0.00, 0.00, 0.00, 0.00, 0.00, 0.00
75, -15625.57, 187500.00, -187500.02, -187500.02, 7533.52, 0.00, 0.00, 0.00, 0.00, 0.00, 0.00
76, -16553.46, 187500.00, -187500.02, -187500.02, -1270.63, 0.00, 0.00, 0.00, 0.00, 0.00, 0.00
77, -17944.34, 187500.00, -187500.02, -187500.02, -5813.93, 0.00, 0.00, 0.00, 0.00, 0.00, 0.00
78, -17214.17, 187500.00, -187500.02, -187500.02, 2211.95, 0.00, 0.00, 0.00, 0.00, 0.00, 0.00
79, -15662.81, 187500.00, -187500.02, -187500.02, 8035.54, 0.00, 0.00, 0.00, 0.00, 0.00, 0.00
80, -16228.51, 187500.00, -187500.02, -187500.02, 546.12, 0.00, 0.00, 0.00, 0.00, 0.00, 0.00
81, -17778.42, 187500.00, -187500.02, -187500.02, -5987.83, 0.00, 0.00, 0.00, 0.00, 0.00, 0.00
82, -17429.40, 187500.00, -187500.02, -187500.02, 419.79, 0.00, 0.00, 0.00, 0.00, 0.00, 0.00
83, -15745.24, 187500.00, -187500.02, -187500.02, 8088.96, 0.00, 0.00, 0.00, 0.00, 0.00, 0.00
84, -15837.75, 187500.00, -187500.02, -187500.02, 2522.26, 0.00, 0.00, 0.00, 0.00, 0.00, 0.00
85, -17447.46, 187500.00, -187500.02, -187500.02, -5593.88, 0.00, 0.00, 0.00, 0.00, 0.00, 0.00
86, -17546.50, 187500.00, -187500.02, -187500.02, -1253.04, 0.00, 0.00, 0.00, 0.00, 0.00, 0.00
87, -15879.24, 187500.00, -187500.02, -187500.02, 7671.19, 0.00, 0.00, 0.00, 0.00, 0.00, 0.00
88, -15537.19, 187500.00, -187500.02, -187500.02, 4392.59, 0.00, 0.00, 0.00, 0.00, 0.00, 0.00
89, -17123.25, 187500.00, -187500.02, -187500.02, -4809.27, 0.00, 0.00, 0.00, 0.00, 0.00, 0.00
90, -17624.33, 187500.00, -187500.02, -187500.02, -2773.56, 0.00, 0.00, 0.00, 0.00, 0.00, 0.00
91, -16049.69, 187500.00, -187500.02, -187500.02, 6834.18, 0.00, 0.00, 0.00, 0.00, 0.00, 0.00
92, -15293.49, 187500.00, -187500.02, -187500.02, 6104.51, 0.00, 0.00, 0.00, 0.00, 0.00, 0.00
93, -16687.61, 187500.00, -187500.02, -187500.02, -3501.27, 0.00, 0.00, 0.00, 0.00, 0.00, 0.00
94, -17572.27, 187500.00, -187500.02, -187500.02, -3944.46, 0.00, 0.00, 0.00, 0.00, 0.00, 0.00
95, -16240.69, 187500.00, -187500.02, -187500.02, 5623.70, 0.00, 0.00, 0.00, 0.00, 0.00, 0.00
96, -15135.64, 187500.00, -187500.02, -187500.02, 7450.93, 0.00, 0.00, 0.00, 0.00, 0.00, 0.00
97, -16275.44, 187500.00, -187500.02, -187500.02, -1929.11, 0.00, 0.00, 0.00, 0.00, 0.00, 0.00
98, -17503.81, 187500.00, -187500.02, -187500.02, -4846.60, 0.00, 0.00, 0.00, 0.00, 0.00, 0.00
99, -16498.65, 187500.00, -187500.02, -187500.02, 4018.84, 0.00, 0.00, 0.00, 0.00, 0.00, 0.00
100, -15064.65, 187500.00, -187500.02, -187500.02, 8341.04, 0.00, 0.00, 0.00, 0.00, 0.00, 0.00
101, -15885.09, 187500.00, -187500.02, -187500.02, -100.81, 0.00, 0.00, 0.00, 0.00, 0.00, 0.00
102, -17351.77, 187500.00, -187500.02, -187500.02, -5361.78, 0.00, 0.00, 0.00, 0.00, 0.00, 0.00
103, -16740.83, 187500.00, -187500.02, -187500.02, 2165.46, 0.00, 0.00, 0.00, 0.00, 0.00, 0.00
104, -15129.49, 187500.00, -187500.02, -187500.02, 8647.15, 0.00, 0.00, 0.00, 0.00, 0.00, 0.00
105, -15544.50, 187500.00, -187500.02, -187500.02, 1749.38, 0.00, 0.00, 0.00, 0.00, 0.00, 0.00
106, -17141.08, 187500.00, -187500.02, -187500.02, -5395.64, 0.00, 0.00, 0.00, 0.00, 0.00, 0.00
107, -16954.42, 187500.00, -187500.02, -187500.02, 328.64, 0.00, 0.00, 0.00, 0.00, 0.00, 0.00
108, -15283.61, 187500.00, -187500.02, -187500.02, 8447.75, 0.00, 0.00, 0.00, 0.00, 0.00, 0.00
109, -15298.54, 187500.00, -187500.02, -187500.02, 3534.73, 0.00, 0.00, 0.00, 0.00, 0.00, 0.00
110, -16968.33, 187500.00, -187500.02, -187500.02, -5066.72, 0.00, 0.00, 0.00, 0.00, 0.00, 0.00
111, -17255.93, 187500.00, -187500.02, -187500.02, -1589.75, 0.00, 0.00, 0.00, 0.00, 0.00, 0.00
112, -15668.44, 187500.00, -187500.02, -187500.02, 7557.88, 0.00, 0.00, 0.00, 0.00, 0.00, 0.00
113, -15229.07, 187500.00, -187500.02, -187500.02, 5064.19, 0.00, 0.00, 0.00, 0.00, 0.00, 0.00
114, -16785.98, 187500.00, -187500.02, -187500.02, -4350.63, 0.00, 0.00, 0.00, 0.00, 0.00, 0.00
115, -17480.09, 187500.00, -187500.02, -187500.02, -3294.02, 0.00, 0.00, 0.00, 0.00, 0.00, 0.00
116, -16051.48, 187500.00, -187500.02, -187500.02, 6274.18, 0.00, 0.00, 0.00, 0.00, 0.00, 0.00
117, -15204.75, 187500.00, -187500.02, -187500.02, 6398.70, 0.00, 0.00, 0.00, 0.00, 0.00, 0.00
118, -16567.31, 187500.00, -187500.02, -187500.02, -3199.34, 0.00, 0.00, 0.00, 0.00, 0.00, 0.00
119, -17586.15, 187500.00, -187500.02, -187500.02, -4583.94, 0.00, 0.00, 0.00, 0.00, 0.00, 0.00
120, -16347.13, 187500.00, -187500.02, -187500.02, 4843.56, 0.00, 0.00, 0.00, 0.00, 0.00, 0.00
121, -15114.38, 187500.00, -187500.02, -187500.02, 7583.90, 0.00, 0.00, 0.00, 0.00, 0.00, 0.00
122, -16179.78, 187500.00, -187500.02, -187500.02, -1544.73, 0.00, 0.00, 0.00, 0.00, 0.00, 0.00
123, -17520.88, 187500.00, -187500.02, -187500.02, -5349.73, 0.00, 0.00, 0.00, 0.00, 0.00, 0.00
124, -16609.71, 187500.00, -187500.02, -187500.02, 3225.22, 0.00, 0.00, 0.00, 0.00, 0.00, 0.00
125, -15093.95, 187500.00, -187500.02, -187500.02, 8313.60, 0.00, 0.00, 0.00, 0.00, 0.00, 0.00
126, -15746.42, 187500.00, -187500.02, -187500.02, 325.42, 0.00, 0.00, 0.00, 0.00, 0.00, 0.00
127, -17283.84, 187500.00, -187500.02, -187500.02, -5587.11, 0.00, 0.00, 0.00, 0.00, 0.00, 0.00
128, -16774.00, 187500.00, -187500.02, -187500.02, 1499.38, 0.00, 0.00, 0.00, 0.00, 0.00, 0.00
129, -15119.52, 187500.00, -187500.02, -187500.02, 8573.59, 0.00, 0.00, 0.00, 0.00, 0.00, 0.00
130, -15372.84, 187500.00, -187500.02, -187500.02, 2354.85, 0.00, 0.00, 0.00, 0.00, 0.00, 0.00
131, -17002.59, 187500.00, -187500.02, -187500.02, -5297.81, 0.00, 0.00, 0.00, 0.00, 0.00, 0.00
132, -16950.13, 187500.00, -187500.02, -187500.02, -288.52, 0.00, 0.00, 0.00, 0.00, 0.00, 0.00
133, -15238.57, 187500.00, -187500.02, -187500.02, 8300.97, 0.00, 0.00, 0.00, 0.00, 0.00, 0.00
134, -15040.62, 187500.00, -187500.02, -187500.02, 4293.61, 0.00, 0.00, 0.00, 0.00, 0.00, 0.00
135, -16648.25, 187500.00, -187500.02, -187500.02, -4554.26, 0.00, 0.00, 0.00, 0.00, 0.00, 0.00
136, -17027.65, 187500.00, -187500.02, -187500.02, -1824.22, 0.00, 0.00, 0.00, 0.00, 0.00, 0.00
137, -15383.95, 187500.00, -187500.02, -187500.02, 7620.51, 0.00, 0.00, 0.00, 0.00, 0.00, 0.00
138, -14755.39, 187500.00, -187500.02, -187500.02, 6084.68, 0.00, 0.00, 0.00, 0.00, 0.00, 0.00
139, -16261.99, 187500.00, -187500.02, -187500.02, -3398.40, 0.00, 0.00, 0.00, 0.00, 0.00, 0.00
140, -17043.76, 187500.00, -187500.02, -187500.02, -3146.10, 0.00, 0.00, 0.00, 0.00, 0.00, 0.00
141, -15559.52, 187500.00, -187500.02, -187500.02, 6499.53, 0.00, 0.00, 0.00, 0.00, 0.00, 0.00
142, -14494.06, 187500.00, -187500.02, -187500.02, 7604.24, 0.00, 0.00, 0.00, 0.00, 0.00, 0.00
143, -15803.82, 187500.00, -187500.02, -187500.02, -1858.12, 0.00, 0.00, 0.00, 0.00, 0.00, 0.00
144, -16961.73, 187500.00, -187500.02, -187500.02, -4125.66, 0.00, 0.00, 0.00, 0.00, 0.00, 0.00
145, -15799.42, 187500.00, -187500.02, -187500.02, 4998.36, 0.00, 0.00, 0.00, 0.00, 0.00, 0.00
146, -14461.76, 187500.00, -187500.02, -187500.02, 8562.15, 0.00, 0.00, 0.00, 0.00, 0.00, 0.00
147, -15421.97, 187500.00, -187500.02, -187500.02, -176.87, 0.00, 0.00, 0.00, 0.00, 0.00, 0.00
148, -16846.55, 187500.00, -187500.02, -187500.02, -4738.21, 0.00, 0.00, 0.00, 0.00, 0.00, 0.00
149, -16054.16, 187500.00, -187500.02, -187500.02, 3269.68, 0.00, 0.00, 0.00, 0.00, 0.00, 0.00
150, -14442.87, 187500.00, -187500.02, -187500.02, 9127.67, 0.00, 0.00, 0.00, 0.00, 0.00, 0.00
151, -15003.85, 187500.00, -187500.02, -187500.02, 1715.25, 0.00, 0.00, 0.00, 0.00, 0.00, 0.00
152, -16612.20, 187500.00, -187500.02, -187500.02, -4886.87, 0.00, 0.00, 0.00, 0.00, 0.00, 0.00
153, -16244.71, 187500.00, -187500.02, -187500.02, 1516.63, 0.00, 0.00, 0.00, 0.00, 0.00, 0.00
154, -14555.57, 187500.00, -187500.02, -187500.02, 9119.20, 0.00, 0.00, 0.00, 0.00, 0.00, 0.00
155, -14714.31, 187500.00, -187500.02, -187500.02, 3543.18, 0.00, 0.00, 0.00, 0.00, 0.00, 0.00
156, -16380.59, 187500.00, -187500.02, -187500.02, -4631.19, 0.00, 0.00, 0.00, 0.00, 0.00, 0.00
157, -16468.70, 187500.00, -187500.02, -187500.02, -289.50, 0.00, 0.00, 0.00, 0.00, 0.00, 0.00
158, -14798.29, 187500.00, -187500.02, -187500.02, 8531.39, 0.00, 0.00, 0.00, 0.00, 0.00, 0.00
159, -14500.69, 187500.00, -187500.02, -187500.02, 5250.22, 0.00, 0.00, 0.00, 0.00, 0.00, 0.00
160, -16165.67, 187500.00, -187500.02, -187500.02, -3940.81, 0.00, 0.00, 0.00, 0.00, 0.00, 0.00
161, -16719.24, 187500.00, -187500.02, -187500.02, -2046.68, 0.00, 0.00, 0.00, 0.00, 0.00, 0.00
162, -15152.47, 187500.00, -187500.02, -187500.02, 7439.29, 0.00, 0.00, 0.00, 0.00, 0.00, 0.00
163, -14415.11, 187500.00, -187500.02, -187500.02, 6703.58, 0.00, 0.00, 0.00, 0.00, 0.00, 0.00
164, -15946.23, 187500.00, -187500.02, -187500.02, -2895.24, 0.00, 0.00, 0.00, 0.00, 0.00, 0.00
165, -16938.53, 187500.00, -187500.02, -187500.02, -3573.02, 0.00, 0.00, 0.00, 0.00, 0.00, 0.00
166, -15615.69, 187500.00, -187500.02, -187500.02, 5868.81, 0.00, 0.00, 0.00, 0.00, 0.00, 0.00
167, -14501.70, 187500.00, -187500.02, -187500.02, 7752.46, 0.00, 0.00, 0.00, 0.00, 0.00, 0.00
168, -15731.13, 187500.00, -187500.02, -187500.02, -1531.74, 0.00, 0.00, 0.00, 0.00, 0.00, 0.00
169, -17006.57, 187500.00, -187500.02, -187500.02, -4575.04, 0.00, 0.00, 0.00, 0.00, 0.00, 0.00
170, -15969.07, 187500.00, -187500.02, -187500.02, 4208.68, 0.00, 0.00, 0.00, 0.00, 0.00, 0.00
171, -14501.23, 187500.00, -187500.02, -187500.02, 8587.56, 0.00, 0.00, 0.00, 0.00, 0.00, 0.00
172, -15369.37, 187500.00, -187500.02, -187500.02, 214.49, 0.00, 0.00, 0.00, 0.00, 0.00, 0.00
173, -16884.80, 187500.00, -187500.02, -187500.02, -5049.50, 0.00, 0.00, 0.00, 0.00, 0.00, 0.00
174, -16214.87, 187500.00, -187500.02, -187500.02, 2445.55, 0.00, 0.00, 0.00, 0.00, 0.00, 0.00
175, -14578.50, 187500.00, -187500.02, -187500.02, 8904.89, 0.00, 0.00, 0.00, 0.00, 0.00, 0.00
176, -15038.28, 187500.00, -187500.02, -187500.02, 2053.37, 0.00, 0.00, 0.00, 0.00, 0.00, 0.00
177, -16706.79, 187500.00, -187500.02, -187500.02, -5080.69, 0.00, 0.00, 0.00, 0.00, 0.00, 0.00
178, -16499.81, 187500.00, -187500.02, -187500.02, 577.64, 0.00, 0.00, 0.00, 0.00, 0.00, 0.00
179, -14748.06, 187500.00, -187500.02, -187500.02, 8697.91, 0.00, 0.00, 0.00, 0.00, 0.00, 0.00
180, -14733.69, 187500.00, -187500.02, -187500.02, 3927.13, 0.00, 0.00, 0.00, 0.00, 0.00, 0.00
181, -16429.98, 187500.00, -187500.02, -187500.02, -4603.48, 0.00, 0.00, 0.00, 0.00, 0.00, 0.00
182, -16651.87, 187500.00, -187500.02, -187500.02, -1080.84, 0.00, 0.00, 0.00, 0.00, 0.00, 0.00
183, -14928.75, 187500.00, -187500.02, -187500.02, 8113.82, 0.00, 0.00, 0.00, 0.00, 0.00, 0.00
184, -14440.08, 187500.00, -187500.02, -187500.02, 5749.11, 0.00, 0.00, 0.00, 0.00, 0.00, 0.00
185, -16082.46, 187500.00, -187500.02, -187500.02, -3642.17, 0.00, 0.00, 0.00, 0.00, 0.00, 0.00
186, -16738.08, 187500.00, -187500.02, -187500.02, -2474.87, 0.00, 0.00, 0.00, 0.00, 0.00, 0.00
187, -15130.61, 187500.00, -187500.02, -187500.02, 7158.35, 0.00, 0.00, 0.00, 0.00, 0.00, 0.00
188, -14203.17, 187500.00, -187500.02, -187500.02, 7364.85, 0.00, 0.00, 0.00, 0.00, 0.00, 0.00
189, -15623.18, 187500.00, -187500.02, -187500.02, -2173.62, 0.00, 0.00, 0.00, 0.00, 0.00, 0.00
190, -16660.19, 187500.00, -187500.02, -187500.02, -3485.51, 0.00, 0.00, 0.00, 0.00, 0.00, 0.00
191, -15322.41, 187500.00, -187500.02, -187500.02, 5894.09, 0.00, 0.00, 0.00, 0.00, 0.00, 0.00
192, -14017.56, 187500.00, -187500.02, -187500.02, 8647.46, 0.00, 0.00, 0.00, 0.00, 0.00, 0.00
193, -15144.31, 187500.00, -187500.02, -187500.02, -418.51, 0.00, 0.00, 0.00, 0.00, 0.00, 0.00
194, -16479.76, 187500.00, -187500.02, -187500.02, -4084.76, 0.00, 0.00, 0.00, 0.00, 0.00, 0.00
195, -15480.50, 187500.00, -187500.02, -187500.02, 4401.13, 0.00, 0.00, 0.00, 0.00, 0.00, 0.00
196, -13905.38, 187500.00, -187500.02, -187500.02, 9502.58, 0.00, 0.00, 0.00, 0.00, 0.00, 0.00
197, -14631.27, 187500.00, -187500.02, -187500.02, 1637.35, 0.00, 0.00, 0.00, 0.00, 0.00, 0.00
198, -16223.99, 187500.00, -187500.02, -187500.02, -4272.36, 0.00, 0.00, 0.00, 0.00, 0.00, 0.00
199, -15663.74, 187500.00, -187500.02, -187500.02, 2681.20, 0.00, 0.00, 0.00, 0.00, 0.00, 0.00
200, -13879.67, 187500.00, -187500.02, -187500.02, 9797.91, 0.00, 0.00, 0.00, 0.00, 0.00, 0.00
201, -14169.71, 187500.00, -187500.02, -187500.02, 3630.68, 0.00, 0.00, 0.00, 0.00, 0.00, 0.00
202, -15890.86, 187500.00, -187500.02, -187500.02, -4013.86, 0.00, 0.00, 0.00, 0.00, 0.00, 0.00
203, -15804.22, 187500.00, -187500.02, -187500.02, 935.47, 0.00, 0.00, 0.00, 0.00, 0.00, 0.00
204, -14004.93, 187500.00, -187500.02, -187500.02, 9473.09, 0.00, 0.00, 0.00, 0.00, 0.00, 0.00
205, -13823.75, 187500.00, -187500.02, -187500.02, 5494.37, 0.00, 0.00, 0.00, 0.00, 0.00, 0.00
206, -15501.47, 187500.00, -187500.02, -187500.02, -3306.02, 0.00, 0.00, 0.00, 0.00, 0.00, 0.00
207, -15876.13, 187500.00, -187500.02, -187500.02, -645.61, 0.00, 0.00, 0.00, 0.00, 0.00, 0.00
208, -14175.63, 187500.00, -187500.02, -187500.02, 8704.46, 0.00, 0.00, 0.00, 0.00, 0.00, 0.00
209, -13583.53, 187500.00, -187500.02, -187500.02, 7146.48, 0.00, 0.00, 0.00, 0.00, 0.00, 0.00
210, -15243.49, 187500.00, -187500.02, -187500.02, -2369.93, 0.00, 0.00, 0.00, 0.00, 0.00, 0.00
211, -16089.72, 187500.00, -187500.02, -187500.02, -2213.58, 0.00, 0.00, 0.00, 0.00, 0.00, 0.00
212, -14614.22, 187500.00, -187500.02, -187500.02, 7274.13, 0.00, 0.00, 0.00, 0.00, 0.00, 0.00
213, -13588.74, 187500.00, -187500.02, -187500.02, 8315.81, 0.00, 0.00, 0.00, 0.00, 0.00, 0.00
214, -15004.26, 187500.00, -187500.02, -187500.02, -1152.59, 0.00, 0.00, 0.00, 0.00, 0.00, 0.00
215, -16219.79, 187500.00, -187500.02, -187500.02, -3465.88, 0.00, 0.00, 0.00, 0.00, 0.00, 0.00
216, -15045.25, 187500.00, -187500.02, -187500.02, 5550.92, 0.00, 0.00, 0.00, 0.00, 0.00, 0.00
217, -13704.39, 187500.00, -187500.02, -187500.02, 9078.92, 0.00, 0.00, 0.00, 0.00, 0.00, 0.00
218, -14773.83, 187500.00, -187500.02, -187500.02, 326.25, 0.00, 0.00, 0.00, 0.00, 0.00, 0.00
219, -16236.33, 187500.00, -187500.02, -187500.02, -4247.10, 0.00, 0.00, 0.00, 0.00, 0.00, 0.00
220, -15385.38, 187500.00, -187500.02, -187500.02, 3759.45, 0.00, 0.00, 0.00, 0.00, 0.00, 0.00
221, -13753.50, 187500.00, -187500.02, -187500.02, 9537.27, 0.00, 0.00, 0.00, 0.00, 0.00, 0.00
222, -14404.98, 187500.00, -187500.02, -187500.02, 2101.42, 0.00, 0.00, 0.00, 0.00, 0.00, 0.00
223, -16094.35, 187500.00, -187500.02, -187500.02, -4465.90, 0.00, 0.00, 0.00, 0.00, 0.00, 0.00
224, -15674.54, 187500.00, -187500.02, -187500.02, 1933.69, 0.00, 0.00, 0.00, 0.00, 0.00, 0.00
225, -13908.15, 187500.00, -187500.02, -187500.02, 9473.16, 0.00, 0.00, 0.00, 0.00, 0.00, 0.00
226, -14083.30, 187500.00, -187500.02, -187500.02, 3963.43, 0.00, 0.00, 0.00, 0.00, 0.00, 0.00
227, -15863.12, 187500.00, -187500.02, -187500.02, -4165.27, 0.00, 0.00, 0.00, 0.00, 0.00, 0.00
228, -15933.31, 187500.00, -187500.02, -187500.02, 53.40, 0.00, 0.00, 0.00, 0.00, 0.00, 0.00
229, -14144.43, 187500.00, -187500.02, -187500.02, 8910.12, 0.00, 0.00, 0.00, 0.00, 0.00, 0.00
230, -13849.43, 187500.00, -187500.02, -187500.02, 5726.72, 0.00, 0.00, 0.00, 0.00, 0.00, 0.00
231, -15596.51, 187500.00, -187500.02, -187500.02, -3406.54, 0.00, 0.00, 0.00, 0.00, 0.00, 0.00
232, -16149.49, 187500.00, -187500.02, -187500.02, -1602.98, 0.00, 0.00, 0.00, 0.00, 0.00, 0.00
233, -14448.14, 187500.00, -187500.02, -187500.02, 7914.48, 0.00, 0.00, 0.00, 0.00, 0.00, 0.00
234, -13686.06, 187500.00, -187500.02, -187500.02, 7284.46, 0.00, 0.00, 0.00, 0.00, 0.00, 0.00
235, -15229.52, 187500.00, -187500.02, -187500.02, -2195.63, 0.00, 0.00, 0.00, 0.00, 0.00, 0.00
236, -16167.60, 187500.00, -187500.02, -187500.02, -2824.19, 0.00, 0.00, 0.00, 0.00, 0.00, 0.00
237, -14731.01, 187500.00, -187500.02, -187500.02, 6620.01, 0.00, 0.00, 0.00, 0.00, 0.00, 0.00
238, -13589.77, 187500.00, -187500.02, -187500.02, 8521.80, 0.00, 0.00, 0.00, 0.00, 0.00, 0.00
239, -14884.27, 187500.00, -187500.02, -187500.02, -710.49, 0.00, 0.00, 0.00, 0.00, 0.00, 0.00
240, -16192.99, 187500.00, -187500.02, -187500.02, -3792.13, 0.00, 0.00, 0.00, 0.00, 0.00, 0.00
241, -15098.18, 187500.00, -187500.02, -187500.02, 4912.58, 0.00, 0.00, 0.00, 0.00, 0.00, 0.00
242, -13604.41, 187500.00, -187500.02, -187500.02, 9292.58, 0.00, 0.00, 0.00, 0.00, 0.00, 0.00
243, -14524.74, 187500.00, -187500.02, -187500.02, 1001.29, 0.00, 0.00, 0.00, 0.00, 0.00, 0.00
244, -16106.42, 187500.00, -187500.02, -187500.02, -4283.29, 0.00, 0.00, 0.00, 0.00, 0.00, 0.00
245, -15414.52, 187500.00, -187500.02, -187500.02, 3128.95, 0.00, 0.00, 0.00, 0.00, 0.00, 0.00
246, -13679.13, 187500.00, -187500.02, -187500.02, 9659.71, 0.00, 0.00, 0.00, 0.00, 0.00, 0.00
247, -14134.24, 187500.00, -187500.02, -187500.02, 2947.17, 0.00, 0.00, 0.00, 0.00, 0.00, 0.00
248, -15879.15, 187500.00, -187500.02, -187500.02, -4204.23, 0.00, 0.00, 0.00, 0.00, 0.00, 0.00
249, -15625.77, 187500.00, -187500.02, -187500.02, 1490.28, 0.00, 0.00, 0.00, 0.00, 0.00, 0.00
250, -13790.06, 187500.00, -187500.02, -187500.02, 9634.65, 0.00, 0.00, 0.00, 0.00, 0.00, 0.00
251, -13775.49, 187500.00, -187500.02, -187500.02, 4940.96, 0.00, 0.00, 0.00, 0.00, 0.00, 0.00
252, -15536.34, 187500.00, -187500.02, -187500.02, -3608.02, 0.00, 0.00, 0.00, 0.00, 0.00, 0.00
253, -15728.63, 187500.00, -187500.02, -187500.02, -86.64, 0.00, 0.00, 0.00, 0.00, 0.00, 0.00
254, -13946.33, 187500.00, -187500.02, -187500.02, 9003.91, 0.00, 0.00, 0.00, 0.00, 0.00, 0.00
255, -13499.04, 187500.00, -187500.02, -187500.02, 6610.44, 0.00, 0.00, 0.00, 0.00, 0.00, 0.00
0, -15218.01, 187500.00, -187500.02, -187500.02, -2772.58, 0.00, 0.00, 0.00, 0.00, 0.00, 0.00
1, -15855.48, 187500.00, -187500.02, -187500.02, -1631.59, 0.00, 0.00, 0.00, 0.00, 0.00, 0.00
2, -14208.18, 187500.00, -187500.02, -187500.02, 7931.09, 0.00, 0.00, 0.00, 0.00, 0.00, 0.00
3, -13305.84, 187500.00, -187500.02, -187500.02, 8183.51, 0.00, 0.00, 0.00, 0.00, 0.00, 0.00
4, -14808.28, 187500.00, -187500.02, -187500.02, -1255.07, 0.00, 0.00, 0.00, 0.00, 0.00, 0.00
5, -15886.03, 187500.00, -187500.02, -187500.02, -2691.35, 0.00, 0.00, 0.00, 0.00, 0.00, 0.00
6, -14509.61, 187500.00, -187500.02, -187500.02, 6620.94, 0.00, 0.00, 0.00, 0.00, 0.00, 0.00
7, -13179.91, 187500.00, -187500.02, -187500.02, 9505.55, 0.00, 0.00, 0.00, 0.00, 0.00, 0.00
8, -14334.98, 187500.00, -187500.02, -187500.02, 617.33, 0.00, 0.00, 0.00, 0.00, 0.00, 0.00
9, -15751.43, 187500.00, -187500.02, -187500.02, -3196.32, 0.00, 0.00, 0.00, 0.00, 0.00, 0.00
10, -14770.84, 187500.00, -187500.02, -187500.02, 5134.55, 0.00, 0.00, 0.00, 0.00, 0.00, 0.00
11, -13148.17, 187500.00, -187500.02, -187500.02, 10297.87, 0.00, 0.00, 0.00, 0.00, 0.00, 0.00
12, -13937.52, 187500.00, -187500.02, -187500.02, 2468.37, 0.00, 0.00, 0.00, 0.00, 0.00, 0.00
13, -15584.44, 187500.00, -187500.02, -187500.02, -3477.69, 0.00, 0.00, 0.00, 0.00, 0.00, 0.00
14, -15016.08, 187500.00, -187500.02, -187500.02, 3357.59, 0.00, 0.00, 0.00, 0.00, 0.00, 0.00
15, -13214.89, 187500.00, -187500.02, -187500.02, 10430.51, 0.00, 0.00, 0.00, 0.00, 0.00, 0.00
16, -13541.98, 187500.00, -187500.02, -187500.02, 4333.51, 0.00, 0.00, 0.00, 0.00, 0.00, 0.00
17, -15286.27, 187500.00, -187500.02, -187500.02, -3263.29, 0.00, 0.00, 0.00, 0.00, 0.00, 0.00
18, -15174.91, 187500.00, -187500.02, -187500.02, 1654.39, 0.00, 0.00, 0.00, 0.00, 0.00, 0.00
19, -13313.06, 187500.00, -187500.02, -187500.02, 10168.97, 0.00, 0.00, 0.00, 0.00, 0.00, 0.00
20, -13150.56, 187500.00, -187500.02, -187500.02, 6234.75, 0.00, 0.00, 0.00, 0.00, 0.00, 0.00
21, -14993.64, 187500.00, -187500.02, -187500.02, -2684.56, 0.00, 0.00, 0.00, 0.00, 0.00, 0.00
22, -15368.70, 187500.00, -187500.02, -187500.02, -37.64, 0.00, 0.00, 0.00, 0.00, 0.00, 0.00
23, -13589.88, 187500.00, -187500.02, -187500.02, 9285.21, 0.00, 0.00, 0.00, 0.00, 0.00, 0.00
24, -12977.11, 187500.00, -187500.02, -187500.02, 7758.80, 0.00, 0.00, 0.00, 0.00, 0.00, 0.00
25, -14672.47, 187500.00, -187500.02, -187500.02, -1794.11, 0.00, 0.00, 0.00, 0.00, 0.00, 0.00
26, -15526.97, 187500.00, -187500.02, -187500.02, -1618.85, 0.00, 0.00, 0.00, 0.00, 0.00, 0.00
27, -13957.59, 187500.00, -187500.02, -187500.02, 7836.92, 0.00, 0.00, 0.00, 0.00, 0.00, 0.00
28, -12896.08, 187500.00, -187500.02, -187500.02, 8883.81, 0.00, 0.00, 0.00, 0.00, 0.00, 0.00
29, -14372.66, 187500.00, -187500.02, -187500.02, -610.69, 0.00, 0.00, 0.00, 0.00, 0.00, 0.00
30, -15614.68, 187500.00, -187500.02, -187500.02, -2854.38, 0.00, 0.00, 0.00, 0.00, 0.00, 0.00
31, -14372.64, 187500.00, -187500.02, -187500.02, 6111.44, 0.00, 0.00, 0.00, 0.00, 0.00, 0.00
32, -12980.04, 187500.00, -187500.02, -187500.02, 9631.84, 0.00, 0.00, 0.00, 0.00, 0.00, 0.00
33, -14108.87, 187500.00, -187500.02, -187500.02, 944.56, 0.00, 0.00, 0.00, 0.00, 0.00, 0.00
34, -15668.59, 187500.00, -187500.02, -187500.02, -3659.07, 0.00, 0.00, 0.00, 0.00, 0.00, 0.00
35, -14807.83, 187500.00, -187500.02, -187500.02, 4198.02, 0.00, 0.00, 0.00, 0.00, 0.00, 0.00
36, -13111.17, 187500.00, -187500.02, -187500.02, 10036.58, 0.00, 0.00, 0.00, 0.00, 0.00, 0.00
37, -13790.00, 187500.00, -187500.02, -187500.02, 2767.17, 0.00, 0.00, 0.00, 0.00, 0.00, 0.00
38, -15563.05, 187500.00, -187500.02, -187500.02, -3789.76, 0.00, 0.00, 0.00, 0.00, 0.00, 0.00
39, -15139.08, 187500.00, -187500.02, -187500.02, 2465.20, 0.00, 0.00, 0.00, 0.00, 0.00, 0.00
40, -13245.06, 187500.00, -187500.02, -187500.02, 10148.94, 0.00, 0.00, 0.00, 0.00, 0.00, 0.00
41, -13413.88, 187500.00, -187500.02, -187500.02, 4778.56, 0.00, 0.00, 0.00, 0.00, 0.00, 0.00
42, -15226.16, 187500.00, -187500.02, -187500.02, -3252.60, 0.00, 0.00, 0.00, 0.00, 0.00, 0.00
43, -15251.24, 187500.00, -187500.02, -187500.02, 958.91, 0.00, 0.00, 0.00, 0.00, 0.00, 0.00
44, -13397.30, 187500.00, -187500.02, -187500.02, 9804.75, 0.00, 0.00, 0.00, 0.00, 0.00, 0.00
45, -13048.01, 187500.00, -187500.02, -187500.02, 6723.00, 0.00, 0.00, 0.00, 0.00, 0.00, 0.00
46, -14796.34, 187500.00, -187500.02, -187500.02, -2299.46, 0.00, 0.00, 0.00, 0.00, 0.00, 0.00
47, -15309.49, 187500.00, -187500.02, -187500.02, -472.63, 0.00, 0.00, 0.00, 0.00, 0.00, 0.00
48, -13548.24, 187500.00, -187500.02, -187500.02, 8978.76, 0.00, 0.00, 0.00, 0.00, 0.00, 0.00
49, -12749.77, 187500.00, -187500.02, -187500.02, 8374.95, 0.00, 0.00, 0.00, 0.00, 0.00, 0.00
50, -14361.11, 187500.00, -187500.02, -187500.02, -1058.18, 0.00, 0.00, 0.00, 0.00, 0.00, 0.00
51, -15310.36, 187500.00, -187500.02, -187500.02, -1695.16, 0.00, 0.00, 0.00, 0.00, 0.00, 0.00
52, -13777.30, 187500.00, -187500.02, -187500.02, 7699.24, 0.00, 0.00, 0.00, 0.00, 0.00, 0.00
53, -12565.10, 187500.00, -187500.02, -187500.02, 9652.49, 0.00, 0.00, 0.00, 0.00, 0.00, 0.00
54, -13883.81, 187500.00, -187500.02, -187500.02, 513.51, 0.00, 0.00, 0.00, 0.00, 0.00, 0.00
55, -15224.35, 187500.00, -187500.02, -187500.02, -2534.20, 0.00, 0.00, 0.00, 0.00, 0.00, 0.00
56, -14023.69, 187500.00, -187500.02, -187500.02, 6224.87, 0.00, 0.00, 0.00, 0.00, 0.00, 0.00
57, -12468.00, 187500.00, -187500.02, -187500.02, 10563.95, 0.00, 0.00, 0.00, 0.00, 0.00, 0.00
58, -13455.48, 187500.00, -187500.02, -187500.02, 2274.74, 0.00, 0.00, 0.00, 0.00, 0.00, 0.00
59, -15132.26, 187500.00, -187500.02, -187500.02, -3023.50, 0.00, 0.00, 0.00, 0.00, 0.00, 0.00
60, -14385.60, 187500.00, -187500.02, -187500.02, 4420.77, 0.00, 0.00, 0.00, 0.00, 0.00, 0.00
61, -12583.83, 187500.00, -187500.02, -187500.02, 10851.66, 0.00, 0.00, 0.00, 0.00, 0.00, 0.00
62, -13154.92, 187500.00, -187500.02, -187500.02, 4022.31, 0.00, 0.00, 0.00, 0.00, 0.00, 0.00
63, -14979.47, 187500.00, -187500.02, -187500.02, -3116.39, 0.00, 0.00, 0.00, 0.00, 0.00, 0.00
64, -14706.22, 187500.00, -187500.02, -187500.02, 2526.26, 0.00, 0.00, 0.00, 0.00, 0.00, 0.00
65, -12835.62, 187500.00, -187500.02, -187500.02, 10530.82, 0.00, 0.00, 0.00, 0.00, 0.00, 0.00
66, -12924.23, 187500.00, -187500.02, -187500.02, 5784.61, 0.00, 0.00, 0.00, 0.00, 0.00, 0.00
67, -14788.00, 187500.00, -187500.02, -187500.02, -2689.97, 0.00, 0.00, 0.00, 0.00, 0.00, 0.00
68, -15002.89, 187500.00, -187500.02, -187500.02, 696.23, 0.00, 0.00, 0.00, 0.00, 0.00, 0.00
69, -13080.67, 187500.00, -187500.02, -187500.02, 9861.46, 0.00, 0.00, 0.00, 0.00, 0.00, 0.00
70, -12593.64, 187500.00, -187500.02, -187500.02, 7594.54, 0.00, 0.00, 0.00, 0.00, 0.00, 0.00
71, -14329.55, 187500.00, -187500.02, -187500.02, -1623.23, 0.00, 0.00, 0.00, 0.00, 0.00, 0.00
72, -14993.53, 187500.00, -187500.02, -187500.02, -610.98, 0.00, 0.00, 0.00, 0.00, 0.00, 0.00
73, -13254.09, 187500.00, -187500.02, -187500.02, 8916.09, 0.00, 0.00, 0.00, 0.00, 0.00, 0.00
74, -12281.97, 187500.00, -187500.02, -187500.02, 9210.15, 0.00, 0.00, 0.00, 0.00, 0.00, 0.00
75, -13851.00, 187500.00, -187500.02, -187500.02, -203.67, 0.00, 0.00, 0.00, 0.00, 0.00, 0.00
76, -14985.88, 187500.00, -187500.02, -187500.02, -1723.23, 0.00, 0.00, 0.00, 0.00, 0.00, 0.00
77, -13535.75, 187500.00, -187500.02, -187500.02, 7494.83, 0.00, 0.00, 0.00, 0.00, 0.00, 0.00
78, -12178.15, 187500.00, -187500.02, -187500.02, 10271.27, 0.00, 0.00, 0.00, 0.00, 0.00, 0.00
79, -13434.11, 187500.00, -187500.02, -187500.02, 1325.82, 0.00, 0.00, 0.00, 0.00, 0.00, 0.00
80, -14919.50, 187500.00, -187500.02, -187500.02, -2541.97, 0.00, 0.00, 0.00, 0.00, 0.00, 0.00
81, -13875.25, 187500.00, -187500.02, -187500.02, 5722.69, 0.00, 0.00, 0.00, 0.00, 0.00, 0.00
82, -12237.00, 187500.00, -187500.02, -187500.02, 10809.91, 0.00, 0.00, 0.00, 0.00, 0.00, 0.00
83, -13079.17, 187500.00, -187500.02, -187500.02, 3007.65, 0.00, 0.00, 0.00, 0.00, 0.00, 0.00
84, -14811.36, 187500.00, -187500.02, -187500.02, -2932.64, 0.00, 0.00, 0.00, 0.00, 0.00, 0.00
85, -14216.42, 187500.00, -187500.02, -187500.02, 3851.47, 0.00, 0.00, 0.00, 0.00, 0.00, 0.00
86, -12373.75, 187500.00, -187500.02, -187500.02, 10874.62, 0.00, 0.00, 0.00, 0.00, 0.00, 0.00
87, -12737.48, 187500.00, -187500.02, -187500.02, 4789.60, 0.00, 0.00, 0.00, 0.00, 0.00, 0.00
88, -14592.07, 187500.00, -187500.02, -187500.02, -2858.50, 0.00, 0.00, 0.00, 0.00, 0.00, 0.00
89, -14477.94, 187500.00, -187500.02, -187500.02, 2033.58, 0.00, 0.00, 0.00, 0.00, 0.00, 0.00
90, -12591.09, 187500.00, -187500.02, -187500.02, 10452.59, 0.00, 0.00, 0.00, 0.00, 0.00, 0.00
91, -12481.10, 187500.00, -187500.02, -187500.02, 6490.01, 0.00, 0.00, 0.00, 0.00, 0.00, 0.00
92, -14379.28, 187500.00, -187500.02, -187500.02, -2403.42, 0.00, 0.00, 0.00, 0.00, 0.00, 0.00
93, -14763.08, 187500.00, -187500.02, -187500.02, 286.30, 0.00, 0.00, 0.00, 0.00, 0.00, 0.00
94, -12928.85, 187500.00, -187500.02, -187500.02, 9530.34, 0.00, 0.00, 0.00, 0.00, 0.00, 0.00
95, -12343.39, 187500.00, -187500.02, -187500.02, 7955.90, 0.00, 0.00, 0.00, 0.00, 0.00, 0.00
96, -14121.54, 187500.00, -187500.02, -187500.02, -1527.72, 0.00, 0.00, 0.00, 0.00, 0.00, 0.00
97, -14985.26, 187500.00, -187500.02, -187500.02, -1285.16, 0.00, 0.00, 0.00, 0.00, 0.00, 0.00
98, -13354.14, 187500.00, -187500.02, -187500.02, 8133.75, 0.00, 0.00, 0.00, 0.00, 0.00, 0.00
99, -12261.45, 187500.00, -187500.02, -187500.02, 9198.01, 0.00, 0.00, 0.00, 0.00, 0.00, 0.00
100, -13794.42, 187500.00, -187500.02, -187500.02, -181.65, 0.00, 0.00, 0.00, 0.00, 0.00, 0.00
101, -15118.85, 187500.00, -187500.02, -187500.02, -2551.72, 0.00, 0.00, 0.00, 0.00, 0.00, 0.00
102, -13848.83, 187500.00, -187500.02, -187500.02, 6314.73, 0.00, 0.00, 0.00, 0.00, 0.00, 0.00
103, -12400.52, 187500.00, -187500.02, -187500.02, 9837.00, 0.00, 0.00, 0.00, 0.00, 0.00, 0.00
104, -13571.91, 187500.00, -187500.02, -187500.02, 1195.44, 0.00, 0.00, 0.00, 0.00, 0.00, 0.00
105, -15196.71, 187500.00, -187500.02, -187500.02, -3404.37, 0.00, 0.00, 0.00, 0.00, 0.00, 0.00
106, -14310.46, 187500.00, -187500.02, -187500.02, 4404.14, 0.00, 0.00, 0.00, 0.00, 0.00, 0.00
107, -12564.25, 187500.00, -187500.02, -187500.02, 10199.97, 0.00, 0.00, 0.00, 0.00, 0.00, 0.00
108, -13314.38, 187500.00, -187500.02, -187500.02, 2890.37, 0.00, 0.00, 0.00, 0.00, 0.00, 0.00
109, -15140.54, 187500.00, -187500.02, -187500.02, -3649.41, 0.00, 0.00, 0.00, 0.00, 0.00, 0.00
110, -14737.87, 187500.00, -187500.02, -187500.02, 2501.50, 0.00, 0.00, 0.00, 0.00, 0.00, 0.00
111, -12880.55, 187500.00, -187500.02, -187500.02, 10010.45, 0.00, 0.00, 0.00, 0.00, 0.00, 0.00
112, -13177.34, 187500.00, -187500.02, -187500.02, 4539.17, 0.00, 0.00, 0.00, 0.00, 0.00, 0.00
113, -15143.13, 187500.00, -187500.02, -187500.02, -3578.83, 0.00, 0.00, 0.00, 0.00, 0.00, 0.00
114, -15225.45, 187500.00, -187500.02, -187500.02, 519.37, 0.00, 0.00, 0.00, 0.00, 0.00, 0.00
115, -13382.75, 187500.00, -187500.02, -187500.02, 9227.49, 0.00, 0.00, 0.00, 0.00, 0.00, 0.00
116, -13154.27, 187500.00, -187500.02, -187500.02, 6039.13, 0.00, 0.00, 0.00, 0.00, 0.00, 0.00
117, -15067.60, 187500.00, -187500.02, -187500.02, -3072.45, 0.00, 0.00, 0.00, 0.00, 0.00, 0.00
118, -15656.08, 187500.00, -187500.02, -187500.02, -1319.71, 0.00, 0.00, 0.00, 0.00, 0.00, 0.00
119, -13877.68, 187500.00, -187500.02, -187500.02, 8053.24, 0.00, 0.00, 0.00, 0.00, 0.00, 0.00
120, -13110.57, 187500.00, -187500.02, -187500.02, 7415.33, 0.00, 0.00, 0.00, 0.00, 0.00, 0.00
121, -14832.75, 187500.00, -187500.02, -187500.02, -2069.55, 0.00, 0.00, 0.00, 0.00, 0.00, 0.00
122, -15860.75, 187500.00, -187500.02, -187500.02, -2728.72, 0.00, 0.00, 0.00, 0.00, 0.00, 0.00
123, -14318.01, 187500.00, -187500.02, -187500.02, 6606.97, 0.00, 0.00, 0.00, 0.00, 0.00, 0.00
124, -13089.25, 187500.00, -187500.02, -187500.02, 8526.68, 0.00, 0.00, 0.00, 0.00, 0.00, 0.00
125, -14538.60, 187500.00, -187500.02, -187500.02, -714.23, 0.00, 0.00, 0.00, 0.00, 0.00, 0.00
126, -15974.23, 187500.00, -187500.02, -187500.02, -3775.12, 0.00, 0.00, 0.00, 0.00, 0.00, 0.00
127, -14766.95, 187500.00, -187500.02, -187500.02, 4884.50, 0.00, 0.00, 0.00, 0.00, 0.00, 0.00
128, -13216.12, 187500.00, -187500.02, -187500.02, 9168.22, 0.00, 0.00, 0.00, 0.00, 0.00, 0.00
129, -14256.55, 187500.00, -187500.02, -187500.02, 928.11, 0.00, 0.00, 0.00, 0.00, 0.00, 0.00
130, -15951.08, 187500.00, -187500.02, -187500.02, -4327.23, 0.00, 0.00, 0.00, 0.00, 0.00, 0.00
131, -15219.44, 187500.00, -187500.02, -187500.02, 2970.28, 0.00, 0.00, 0.00, 0.00, 0.00, 0.00
132, -13395.67, 187500.00, -187500.02, -187500.02, 9378.55, 0.00, 0.00, 0.00, 0.00, 0.00, 0.00
133, -13954.62, 187500.00, -187500.02, -187500.02, 2688.20, 0.00, 0.00, 0.00, 0.00, 0.00, 0.00
134, -15854.25, 187500.00, -187500.02, -187500.02, -4407.90, 0.00, 0.00, 0.00, 0.00, 0.00, 0.00
135, -15576.37, 187500.00, -187500.02, -187500.02, 1126.95, 0.00, 0.00, 0.00, 0.00, 0.00, 0.00
136, -13658.52, 187500.00, -187500.02, -187500.02, 9131.09, 0.00, 0.00, 0.00, 0.00, 0.00, 0.00
137, -13726.54, 187500.00, -187500.02, -187500.02, 4446.75, 0.00, 0.00, 0.00, 0.00, 0.00, 0.00
138, -15647.58, 187500.00, -187500.02, -187500.02, -3983.84, 0.00, 0.00, 0.00, 0.00, 0.00, 0.00
139, -15872.38, 187500.00, -187500.02, -187500.02, -624.11, 0.00, 0.00, 0.00, 0.00, 0.00, 0.00
140, -13967.34, 187500.00, -187500.02, -187500.02, 8403.25, 0.00, 0.00, 0.00, 0.00, 0.00, 0.00
141, -13524.17, 187500.00, -187500.02, -187500.02, 6077.44, 0.00, 0.00, 0.00, 0.00, 0.00, 0.00
142, -15374.04, 187500.00, -187500.02, -187500.02, -3151.95, 0.00, 0.00, 0.00, 0.00, 0.00, 0.00
143, -16101.79, 187500.00, -187500.02, -187500.02, -2196.73, 0.00, 0.00, 0.00, 0.00, 0.00, 0.00
144, -14327.85, 187500.00, -187500.02, -187500.02, 7235.26, 0.00, 0.00, 0.00, 0.00, 0.00, 0.00
145, -13382.35, 187500.00, -187500.02, -187500.02, 7466.29, 0.00, 0.00, 0.00, 0.00, 0.00, 0.00
146, -15042.17, 187500.00, -187500.02, -187500.02, -1927.95, 0.00, 0.00, 0.00, 0.00, 0.00, 0.00
147, -16201.80, 187500.00, -187500.02, -187500.02, -3407.30, 0.00, 0.00, 0.00, 0.00, 0.00, 0.00
148, -14751.95, 187500.00, -187500.02, -187500.02, 5725.09, 0.00, 0.00, 0.00, 0.00, 0.00, 0.00
149, -13388.11, 187500.00, -187500.02, -187500.02, 8488.10, 0.00, 0.00, 0.00, 0.00, 0.00, 0.00
150, -14697.68, 187500.00, -187500.02, -187500.02, -389.52, 0.00, 0.00, 0.00, 0.00, 0.00, 0.00
151, -16209.80, 187500.00, -187500.02, -187500.02, -4230.45, 0.00, 0.00, 0.00, 0.00, 0.00, 0.00
152, -15128.64, 187500.00, -187500.02, -187500.02, 4037.35, 0.00, 0.00, 0.00, 0.00, 0.00, 0.00
153, -13436.66, 187500.00, -187500.02, -187500.02, 9101.43, 0.00, 0.00, 0.00, 0.00, 0.00, 0.00
154, -14356.91, 187500.00, -187500.02, -187500.02, 1288.44, 0.00, 0.00, 0.00, 0.00, 0.00, 0.00
155, -16162.93, 187500.00, -187500.02, -187500.02, -4633.49, 0.00, 0.00, 0.00, 0.00, 0.00, 0.00
156, -15523.40, 187500.00, -187500.02, -187500.02, 2221.63, 0.00, 0.00, 0.00, 0.00, 0.00, 0.00
157, -13622.36, 187500.00, -187500.02, -187500.02, 9191.57, 0.00, 0.00, 0.00, 0.00, 0.00, 0.00
158, -14040.43, 187500.00, -187500.02, -187500.02, 3071.78, 0.00, 0.00, 0.00, 0.00, 0.00, 0.00
159, -15969.45, 187500.00, -187500.02, -187500.02, -4505.75, 0.00, 0.00, 0.00, 0.00, 0.00, 0.00
160, -15870.99, 187500.00, -187500.02, -187500.02, 396.48, 0.00, 0.00, 0.00, 0.00, 0.00, 0.00
161, -13948.09, 187500.00, -187500.02, -187500.02, 8726.70, 0.00, 0.00, 0.00, 0.00, 0.00, 0.00
162, -13888.70, 187500.00, -187500.02, -187500.02, 4756.12, 0.00, 0.00, 0.00, 0.00, 0.00, 0.00
163, -15864.42, 187500.00, -187500.02, -187500.02, -4048.44, 0.00, 0.00, 0.00, 0.00, 0.00, 0.00
164, -16278.04, 187500.00, -187500.02, -187500.02, -1491.04, 0.00, 0.00, 0.00, 0.00, 0.00, 0.00
165, -14429.93, 187500.00, -187500.02, -187500.02, 7684.10, 0.00, 0.00, 0.00, 0.00, 0.00, 0.00
166, -13850.73, 187500.00, -187500.02, -187500.02, 6176.19, 0.00, 0.00, 0.00, 0.00, 0.00, 0.00
167, -15716.58, 187500.00, -187500.02, -187500.02, -3221.60, 0.00, 0.00, 0.00, 0.00, 0.00, 0.00
168, -16636.07, 187500.00, -187500.02, -187500.02, -3113.24, 0.00, 0.00, 0.00, 0.00, 0.00, 0.00
169, -14976.83, 187500.00, -187500.02, -187500.02, 6261.24, 0.00, 0.00, 0.00, 0.00, 0.00, 0.00
170, -13879.34, 187500.00, -187500.02, -187500.02, 7341.03, 0.00, 0.00, 0.00, 0.00, 0.00, 0.00
171, -15457.19, 187500.00, -187500.02, -187500.02, -1958.77, 0.00, 0.00, 0.00, 0.00, 0.00, 0.00
172, -16752.97, 187500.00, -187500.02, -187500.02, -4242.67, 0.00, 0.00, 0.00, 0.00, 0.00, 0.00
173, -15393.98, 187500.00, -187500.02, -187500.02, 4644.49, 0.00, 0.00, 0.00, 0.00, 0.00, 0.00
174, -13899.70, 187500.00, -187500.02, -187500.02, 8225.89, 0.00, 0.00, 0.00, 0.00, 0.00, 0.00
175, -15112.19, 187500.00, -187500.02, -187500.02, -358.54, 0.00, 0.00, 0.00, 0.00, 0.00, 0.00
176, -16752.05, 187500.00, -187500.02, -187500.02, -4924.92, 0.00, 0.00, 0.00, 0.00, 0.00, 0.00
177, -15828.03, 187500.00, -187500.02, -187500.02, 2838.74, 0.00, 0.00, 0.00, 0.00, 0.00, 0.00
178, -14018.08, 187500.00, -187500.02, -187500.02, 8644.83, 0.00, 0.00, 0.00, 0.00, 0.00, 0.00
179, -14774.23, 187500.00, -187500.02, -187500.02, 1401.14, 0.00, 0.00, 0.00, 0.00, 0.00, 0.00
180, -16620.69, 187500.00, -187500.02, -187500.02, -5094.61, 0.00, 0.00, 0.00, 0.00, 0.00, 0.00
181, -16147.37, 187500.00, -187500.02, -187500.02, 1073.35, 0.00, 0.00, 0.00, 0.00, 0.00, 0.00
182, -14173.06, 187500.00, -187500.02, -187500.02, 8658.46, 0.00, 0.00, 0.00, 0.00, 0.00, 0.00
183, -14412.72, 187500.00, -187500.02, -187500.02, 3304.55, 0.00, 0.00, 0.00, 0.00, 0.00, 0.00
184, -16391.29, 187500.00, -187500.02, -187500.02, -4782.96, 0.00, 0.00, 0.00, 0.00, 0.00, 0.00
185, -16451.42, 187500.00, -187500.02, -187500.02, -658.37, 0.00, 0.00, 0.00, 0.00, 0.00, 0.00
186, -14468.69, 187500.00, -187500.02, -187500.02, 8122.15, 0.00, 0.00, 0.00, 0.00, 0.00, 0.00
187, -14154.73, 187500.00, -187500.02, -187500.02, 5062.25, 0.00, 0.00, 0.00, 0.00, 0.00, 0.00
188, -16096.76, 187500.00, -187500.02, -187500.02, -4051.66, 0.00, 0.00, 0.00, 0.00, 0.00, 0.00
189, -16633.27, 187500.00, -187500.02, -187500.02, -2196.48, 0.00, 0.00, 0.00, 0.00, 0.00, 0.00
190, -14766.37, 187500.00, -187500.02, -187500.02, 7175.69, 0.00, 0.00, 0.00, 0.00, 0.00, 0.00
191, -13947.49, 187500.00, -187500.02, -187500.02, 6613.50, 0.00, 0.00, 0.00, 0.00, 0.00, 0.00
192, -15710.46, 187500.00, -187500.02, -187500.02, -2846.25, 0.00, 0.00, 0.00, 0.00, 0.00, 0.00
193, -16701.71, 187500.00, -187500.02, -187500.02, -3375.09, 0.00, 0.00, 0.00, 0.00, 0.00, 0.00
194, -15054.50, 187500.00, -187500.02, -187500.02, 6001.20, 0.00, 0.00, 0.00, 0.00, 0.00, 0.00
195, -13767.87, 187500.00, -187500.02, -187500.02, 8014.20, 0.00, 0.00, 0.00, 0.00, 0.00, 0.00
196, -15186.33, 187500.00, -187500.02, -187500.02, -1045.61, 0.00, 0.00, 0.00, 0.00, 0.00, 0.00
197, -16603.30, 187500.00, -187500.02, -187500.02, -4080.85, 0.00, 0.00, 0.00, 0.00, 0.00, 0.00
198, -15351.29, 187500.00, -187500.02, -187500.02, 4517.82, 0.00, 0.00, 0.00, 0.00, 0.00, 0.00
199, -13681.86, 187500.00, -187500.02, -187500.02, 8922.24, 0.00, 0.00, 0.00, 0.00, 0.00, 0.00
200, -14725.04, 187500.00, -187500.02, -187500.02, 752.29, 0.00, 0.00, 0.00, 0.00, 0.00, 0.00
201, -16463.51, 187500.00, -187500.02, -187500.02, -4517.04, 0.00, 0.00, 0.00, 0.00, 0.00, 0.00
202, -15642.42, 187500.00, -187500.02, -187500.02, 2792.47, 0.00, 0.00, 0.00, 0.00, 0.00, 0.00
203, -13740.94, 187500.00, -187500.02, -187500.02, 9263.46, 0.00, 0.00, 0.00, 0.00, 0.00, 0.00
204, -14300.24, 187500.00, -187500.02, -187500.02, 2654.07, 0.00, 0.00, 0.00, 0.00, 0.00, 0.00
205, -16201.53, 187500.00, -187500.02, -187500.02, -4368.85, 0.00, 0.00, 0.00, 0.00, 0.00, 0.00
206, -15834.65, 187500.00, -187500.02, -187500.02, 1245.64, 0.00, 0.00, 0.00, 0.00, 0.00, 0.00
207, -13804.24, 187500.00, -187500.02, -187500.02, 9303.15, 0.00, 0.00, 0.00, 0.00, 0.00, 0.00
208, -13805.24, 187500.00, -187500.02, -187500.02, 4729.79, 0.00, 0.00, 0.00, 0.00, 0.00, 0.00
209, -15765.47, 187500.00, -187500.02, -187500.02, -3666.16, 0.00, 0.00, 0.00, 0.00, 0.00, 0.00
210, -15936.30, 187500.00, -187500.02, -187500.02, -271.86, 0.00, 0.00, 0.00, 0.00, 0.00, 0.00
211, -13942.26, 187500.00, -187500.02, -187500.02, 8741.68, 0.00, 0.00, 0.00, 0.00, 0.00, 0.00
212, -13452.40, 187500.00, -187500.02, -187500.02, 6469.73, 0.00, 0.00, 0.00, 0.00, 0.00, 0.00
213, -15365.30, 187500.00, -187500.02, -187500.02, -2766.70, 0.00, 0.00, 0.00, 0.00, 0.00, 0.00
214, -16131.97, 187500.00, -187500.02, -187500.02, -1867.80, 0.00, 0.00, 0.00, 0.00, 0.00, 0.00
215, -14373.87, 187500.00, -187500.02, -187500.02, 7450.13, 0.00, 0.00, 0.00, 0.00, 0.00, 0.00
216, -13436.84, 187500.00, -187500.02, -187500.02, 7665.55, 0.00, 0.00, 0.00, 0.00, 0.00, 0.00
217, -15161.05, 187500.00, -187500.02, -187500.02, -1750.03, 0.00, 0.00, 0.00, 0.00, 0.00, 0.00
218, -16378.22, 187500.00, -187500.02, -187500.02, -3224.55, 0.00, 0.00, 0.00, 0.00, 0.00, 0.00
219, -14848.87, 187500.00, -187500.02, -187500.02, 5959.40, 0.00, 0.00, 0.00, 0.00, 0.00, 0.00
220, -13449.16, 187500.00, -187500.02, -187500.02, 8743.40, 0.00, 0.00, 0.00, 0.00, 0.00, 0.00
221, -14861.70, 187500.00, -187500.02, -187500.02, -186.57, 0.00, 0.00, 0.00, 0.00, 0.00, 0.00
222, -16426.12, 187500.00, -187500.02, -187500.02, -3950.04, 0.00, 0.00, 0.00, 0.00, 0.00, 0.00
223, -15245.72, 187500.00, -187500.02, -187500.02, 4363.31, 0.00, 0.00, 0.00, 0.00, 0.00, 0.00
224, -13499.78, 187500.00, -187500.02, -187500.02, 9386.88, 0.00, 0.00, 0.00, 0.00, 0.00, 0.00
225, -14436.03, 187500.00, -187500.02, -187500.02, 1587.93, 0.00, 0.00, 0.00, 0.00, 0.00, 0.00
226, -16243.17, 187500.00, -187500.02, -187500.02, -4240.08, 0.00, 0.00, 0.00, 0.00, 0.00, 0.00
227, -15551.94, 187500.00, -187500.02, -187500.02, 2572.64, 0.00, 0.00, 0.00, 0.00, 0.00, 0.00
228, -13600.05, 187500.00, -187500.02, -187500.02, 9490.24, 0.00, 0.00, 0.00, 0.00, 0.00, 0.00
229, -14006.99, 187500.00, -187500.02, -187500.02, 3455.33, 0.00, 0.00, 0.00, 0.00, 0.00, 0.00
