%OpenBCI Raw EEG Data
%
%Sample Rate = 250.0 Hz
%First Column = SampleIndex
%Other Columns = EEG data in microvolts followed by Accel Data (in G) interleaved with Aux Data
0, 137205.52, -91491.61, 187500.00, 171007.17, 138183.58, 187500.00, 187500.00, 187500.00, -0.00, -0.00, -0.00
1, 136187.59, -91019.25, 187500.00, 171076.77, 137334.75, 187500.00, 187500.00, 187500.00, -0.00, -0.00, -0.00
2, 135294.55, -89547.70, 187500.00, 171937.14, 136533.80, 187500.00, 187500.00, 187500.00, -0.00, -0.00, -0.00
3, 136383.81, -90009.73, 187500.00, 171520.53, 137441.97, 187500.00, 187500.00, 187500.00, -0.00, -0.00, -0.00
4, 137345.63, -91718.46, 187500.00, 170298.03, 138299.22, 187500.00, 187500.00, 187500.00, -0.00, -0.00, -0.00
5, 136500.22, -91656.43, 187500.00, 170215.81, 137600.69, 187500.00, 187500.00, 187500.00, -0.00, -0.00, -0.00
6, 135441.42, -90130.10, 187500.00, 170987.27, 136676.95, 187500.00, 187500.00, 187500.00, -0.00, -0.00, -0.00
7, 136185.11, -90152.00, 187500.00, 170880.98, 137282.05, 187500.00, 187500.00, 187500.00, -0.00, -0.00, -0.00
8, 137436.38, -91869.82, 187500.00, 169543.88, 138393.84, 187500.00, 187500.00, 187500.00, -0.00, -0.00, -0.00
9, 136812.16, -92233.58, 187500.00, 169025.97, 137888.08, 187500.00, 187500.00, 187500.00, -0.00, -0.00, -0.00
10, 135660.20, -90765.13, 187500.00, 170114.50, 136887.64, 187500.00, 187500.00, 187500.00, -0.00, -0.00, -0.00
11, 136009.59, -90345.99, 187500.00, 170261.44, 137143.91, 187500.00, 187500.00, 187500.00, -0.00, -0.00, -0.00
12, 137455.00, -91961.42, 187500.00, 168584.27, 138412.25, 187500.00, 187500.00, 187500.00, -0.00, -0.00, -0.00
13, 137110.33, -92736.80, 187500.00, 167666.55, 138154.36, 187500.00, 187500.00, 187500.00, -0.00, -0.00, -0.00
14, 135919.23, -91431.13, 187500.00, 168611.39, 137143.39, 187500.00, 187500.00, 187500.00, -0.00, -0.00, -0.00
15, 135860.27, -90610.77, 187500.00, 169118.56, 137045.06, 187500.00, 187500.00, 187500.00, -0.00, -0.00, -0.00
16, 137382.52, -92016.18, 187500.00, 167630.09, 138349.30, 187500.00, 187500.00, 187500.00, -0.00, -0.00, -0.00
17, 137369.48, -93155.12, 187500.00, 166388.64, 138366.64, 187500.00, 187500.00, 187500.00, -0.00, -0.00, -0.00
18, 136190.69, -92105.99, 187500.00, 167107.06, 137381.73, 187500.00, 187500.00, 187500.00, -0.00, -0.00, -0.00
19, 135752.22, -90957.76, 187500.00, 167911.75, 136978.02, 187500.00, 187500.00, 187500.00, -0.00, -0.00, -0.00
20, 137201.22, -92059.01, 187500.00, 166697.36, 138215.05, 187500.00, 187500.00, 187500.00, -0.00, -0.00, -0.00
21, 137551.92, -93492.70, 187500.00, 165191.20, 138534.70, 187500.00, 187500.00, 187500.00, -0.00, -0.00, -0.00
22, 136453.33, -92779.54, 187500.00, 165611.28, 137598.42, 187500.00, 187500.00, 187500.00, -0.00, -0.00, -0.00
23, 135704.97, -91395.37, 187500.00, 166630.22, 136913.23, 187500.00, 187500.00, 187500.00, -0.00, -0.00, -0.00
24, 136945.47, -92113.80, 187500.00, 165761.41, 137968.69, 187500.00, 187500.00, 187500.00, -0.00, -0.00, -0.00
25, 137651.52, -93746.52, 187500.00, 164078.78, 138611.61, 187500.00, 187500.00, 187500.00, -0.00, -0.00, -0.00
26, 136667.66, -93416.09, 187500.00, 164157.48, 137789.36, 187500.00, 187500.00, 187500.00, -0.00, -0.00, -0.00
27, 135681.25, -91901.34, 187500.00, 165293.36, 136926.09, 187500.00, 187500.00, 187500.00, -0.00, -0.00, -0.00
28, 136620.39, -92191.11, 187500.00, 164808.38, 137713.08, 187500.00, 187500.00, 187500.00, -0.00, -0.00, -0.00
29, 137670.11, -93909.78, 187500.00, 163049.67, 138633.19, 187500.00, 187500.00, 187500.00, -0.00, -0.00, -0.00
30, 136872.73, -93996.32, 187500.00, 162758.78, 137962.86, 187500.00, 187500.00, 187500.00, -0.00, -0.00, -0.00
31, 135753.89, -92469.19, 187500.00, 163906.98, 136987.44, 187500.00, 187500.00, 187500.00, -0.00, -0.00, -0.00
32, 136337.44, -92314.31, 187500.00, 163820.36, 137448.78, 187500.00, 187500.00, 187500.00, -0.00, -0.00, -0.00
33, 137648.03, -94001.33, 187500.00, 162087.67, 138597.27, 187500.00, 187500.00, 187500.00, -0.00, -0.00, -0.00
34, 137098.05, -94513.48, 187500.00, 161414.92, 138160.55, 187500.00, 187500.00, 187500.00, -0.00, -0.00, -0.00
35, 135917.52, -93086.79, 187500.00, 162475.73, 137143.17, 187500.00, 187500.00, 187500.00, -0.00, -0.00, -0.00
36, 136096.14, -92507.48, 187500.00, 162775.19, 137247.19, 187500.00, 187500.00, 187500.00, -0.00, -0.00, -0.00
37, 137542.59, -94050.75, 187500.00, 161169.69, 138517.36, 187500.00, 187500.00, 187500.00, -0.00, -0.00, -0.00
38, 137290.53, -94957.38, 187500.00, 160143.20, 138333.95, 187500.00, 187500.00, 187500.00, -0.00, -0.00, -0.00
39, 136097.39, -93727.84, 187500.00, 161029.22, 137311.64, 187500.00, 187500.00, 187500.00, -0.00, -0.00, -0.00
40, 135893.59, -92769.28, 187500.00, 161667.81, 137079.22, 187500.00, 187500.00, 187500.00, -0.00, -0.00, -0.00
41, 137383.78, -94064.16, 187500.00, 160285.20, 138364.06, 187500.00, 187500.00, 187500.00, -0.00, -0.00, -0.00
42, 137497.02, -95313.89, 187500.00, 158950.17, 138495.53, 187500.00, 187500.00, 187500.00, -0.00, -0.00, -0.00
43, 136361.23, -94374.72, 187500.00, 159575.58, 137532.47, 187500.00, 187500.00, 187500.00, -0.00, -0.00, -0.00
44, 135807.78, -93122.66, 187500.00, 160479.86, 137020.86, 187500.00, 187500.00, 187500.00, -0.00, -0.00, -0.00
45, 137186.58, -94082.38, 187500.00, 159396.81, 138200.23, 187500.00, 187500.00, 187500.00, -0.00, -0.00, -0.00
46, 137662.13, -95594.66, 187500.00, 157826.64, 138639.19, 187500.00, 187500.00, 187500.00, -0.00, -0.00, -0.00
47, 136601.75, -95009.48, 187500.00, 158139.55, 137748.64, 187500.00, 187500.00, 187500.00, -0.00, -0.00, -0.00
48, 135771.67, -93557.94, 187500.00, 159225.75, 137002.42, 187500.00, 187500.00, 187500.00, -0.00, -0.00, -0.00
49, 136932.44, -94119.48, 187500.00, 158501.27, 137975.34, 187500.00, 187500.00, 187500.00, -0.00, -0.00, -0.00
50, 137781.05, -95792.48, 187500.00, 156787.58, 138740.78, 187500.00, 187500.00, 187500.00, -0.00, -0.00, -0.00
51, 136886.70, -95608.04, 187500.00, 156742.63, 137985.98, 187500.00, 187500.00, 187500.00, -0.00, -0.00, -0.00
52, 135876.94, -94074.00, 187500.00, 157901.33, 137088.97, 187500.00, 187500.00, 187500.00, -0.00, -0.00, -0.00
53, 136704.00, -94202.32, 187500.00, 157569.47, 137778.42, 187500.00, 187500.00, 187500.00, -0.00, -0.00, -0.00
54, 137846.83, -95921.70, 187500.00, 155814.66, 138798.31, 187500.00, 187500.00, 187500.00, -0.00, -0.00, -0.00
55, 137131.50, -96163.02, 187500.00, 155388.06, 138212.55, 187500.00, 187500.00, 187500.00, -0.00, -0.00, -0.00
56, 135997.59, -94659.99, 187500.00, 156520.48, 137227.48, 187500.00, 187500.00, 187500.00, -0.00, -0.00, -0.00
57, 136449.22, -94348.03, 187500.00, 156582.48, 137578.73, 187500.00, 187500.00, 187500.00, -0.00, -0.00, -0.00
58, 137835.25, -95993.61, 187500.00, 154891.84, 138804.23, 187500.00, 187500.00, 187500.00, -0.00, -0.00, -0.00
59, 137420.38, -96654.46, 187500.00, 154092.03, 138460.02, 187500.00, 187500.00, 187500.00, -0.00, -0.00, -0.00
60, 136247.63, -95291.59, 187500.00, 155103.94, 137455.25, 187500.00, 187500.00, 187500.00, -0.00, -0.00, -0.00
61, 136304.23, -94568.77, 187500.00, 155537.83, 137460.77, 187500.00, 187500.00, 187500.00, -0.00, -0.00, -0.00
62, 137804.84, -96032.37, 187500.00, 154009.39, 138763.67, 187500.00, 187500.00, 187500.00, -0.00, -0.00, -0.00
63, 137687.88, -97073.65, 187500.00, 152868.31, 138705.95, 187500.00, 187500.00, 187500.00, -0.00, -0.00, -0.00
64, 136527.77, -95939.43, 187500.00, 153672.97, 137722.39, 187500.00, 187500.00, 187500.00, -0.00, -0.00, -0.00
65, 136208.58, -94861.63, 187500.00, 154424.75, 137396.30, 187500.00, 187500.00, 187500.00, -0.00, -0.00, -0.00
66, 137691.91, -96042.70, 187500.00, 153149.88, 138676.14, 187500.00, 187500.00, 187500.00, -0.00, -0.00, -0.00
67, 137951.56, -97400.30, 187500.00, 151725.20, 138935.28, 187500.00, 187500.00, 187500.00, -0.00, -0.00, -0.00
68, 136848.17, -96584.23, 187500.00, 152248.19, 138003.22, 187500.00, 187500.00, 187500.00, -0.00, -0.00, -0.00
69, 136195.56, -95246.21, 187500.00, 153236.25, 137401.94, 187500.00, 187500.00, 187500.00, -0.00, -0.00, -0.00
70, 137519.86, -96067.10, 187500.00, 152285.20, 138531.03, 187500.00, 187500.00, 187500.00, -0.00, -0.00, -0.00
71, 138151.02, -97651.86, 187500.00, 150656.77, 139109.25, 187500.00, 187500.00, 187500.00, -0.00, -0.00, -0.00
72, 137155.53, -97210.64, 187500.00, 150845.91, 138276.52, 187500.00, 187500.00, 187500.00, -0.00, -0.00, -0.00
73, 136251.45, -95716.70, 187500.00, 151974.75, 137472.48, 187500.00, 187500.00, 187500.00, -0.00, -0.00, -0.00
74, 137307.72, -96122.96, 187500.00, 151396.61, 138349.78, 187500.00, 187500.00, 187500.00, -0.00, -0.00, -0.00
75, 138286.70, -97830.43, 187500.00, 149656.41, 139228.44, 187500.00, 187500.00, 187500.00, -0.00, -0.00, -0.00
76, 137455.98, -97805.30, 187500.00, 149471.67, 138539.39, 187500.00, 187500.00, 187500.00, -0.00, -0.00, -0.00
77, 136389.25, -96271.17, 187500.00, 150633.83, 137605.00, 187500.00, 187500.00, 187500.00, -0.00, -0.00, -0.00
78, 137088.66, -96235.09, 187500.00, 150451.67, 138175.69, 187500.00, 187500.00, 187500.00, -0.00, -0.00, -0.00
79, 138350.00, -97940.00, 187500.00, 148711.89, 139295.70, 187500.00, 187500.00, 187500.00, -0.00, -0.00, -0.00
80, 137751.66, -98337.88, 187500.00, 148150.06, 138805.52, 187500.00, 187500.00, 187500.00, -0.00, -0.00, -0.00
81, 136589.52, -96873.64, 187500.00, 149253.55, 137804.94, 187500.00, 187500.00, 187500.00, -0.00, -0.00, -0.00
82, 136896.39, -96403.79, 187500.00, 149462.73, 138017.19, 187500.00, 187500.00, 187500.00, -0.00, -0.00, -0.00
83, 138349.20, -97994.27, 187500.00, 147825.52, 139284.27, 187500.00, 187500.00, 187500.00, -0.00, -0.00, -0.00
84, 138031.03, -98802.22, 187500.00, 146896.20, 139047.36, 187500.00, 187500.00, 187500.00, -0.00, -0.00, -0.00
85, 136846.19, -97512.92, 187500.00, 147843.31, 138023.42, 187500.00, 187500.00, 187500.00, -0.00, -0.00, -0.00
86, 136745.86, -96648.58, 187500.00, 148406.89, 137884.44, 187500.00, 187500.00, 187500.00, -0.00, -0.00, -0.00
87, 138253.22, -98018.38, 187500.00, 146968.61, 139196.73, 187500.00, 187500.00, 187500.00, -0.00, -0.00, -0.00
88, 138286.97, -99185.23, 187500.00, 145719.38, 139259.05, 187500.00, 187500.00, 187500.00, -0.00, -0.00, -0.00
89, 137132.70, -98159.72, 187500.00, 146431.55, 138279.16, 187500.00, 187500.00, 187500.00, -0.00, -0.00, -0.00
90, 136664.89, -96973.40, 187500.00, 147283.81, 137840.13, 187500.00, 187500.00, 187500.00, -0.00, -0.00, -0.00
91, 138107.83, -98029.85, 187500.00, 146124.09, 139079.39, 187500.00, 187500.00, 187500.00, -0.00, -0.00, -0.00
92, 138516.53, -99486.25, 187500.00, 144614.00, 139456.47, 187500.00, 187500.00, 187500.00, -0.00, -0.00, -0.00
93, 137444.50, -98804.56, 187500.00, 145020.80, 138547.94, 187500.00, 187500.00, 187500.00, -0.00, -0.00, -0.00
94, 136682.08, -97396.02, 187500.00, 146076.88, 137853.80, 187500.00, 187500.00, 187500.00, -0.00, -0.00, -0.00
95, 137918.39, -98069.44, 187500.00, 145259.91, 138909.50, 187500.00, 187500.00, 187500.00, -0.00, -0.00, -0.00
96, 138694.83, -99716.29, 187500.00, 143576.17, 139621.19, 187500.00, 187500.00, 187500.00, -0.00, -0.00, -0.00
97, 137754.47, -99429.50, 187500.00, 143629.20, 138840.16, 187500.00, 187500.00, 187500.00, -0.00, -0.00, -0.00
98, 136779.55, -97910.67, 187500.00, 144783.95, 137970.81, 187500.00, 187500.00, 187500.00, -0.00, -0.00, -0.00
99, 137718.13, -98158.29, 187500.00, 144352.39, 138739.70, 187500.00, 187500.00, 187500.00, -0.00, -0.00, -0.00
100, 138825.63, -99882.50, 187500.00, 142602.09, 139729.20, 187500.00, 187500.00, 187500.00, -0.00, -0.00, -0.00
101, 138074.23, -100016.27, 187500.00, 142280.19, 139119.95, 187500.00, 187500.00, 187500.00, -0.00, -0.00, -0.00
102, 136963.30, -98498.59, 187500.00, 143434.33, 138150.30, 187500.00, 187500.00, 187500.00, -0.00, -0.00, -0.00
103, 137518.75, -98302.08, 187500.00, 143402.13, 138596.91, 187500.00, 187500.00, 187500.00, -0.00, -0.00, -0.00
104, 138878.17, -99979.48, 187500.00, 141691.23, 139793.19, 187500.00, 187500.00, 187500.00, -0.00, -0.00, -0.00
105, 138383.52, -100534.61, 187500.00, 140992.81, 139387.80, 187500.00, 187500.00, 187500.00, -0.00, -0.00, -0.00
106, 137202.41, -99126.01, 187500.00, 142051.09, 138367.55, 187500.00, 187500.00, 187500.00, -0.00, -0.00, -0.00
107, 137346.34, -98506.66, 187500.00, 142398.78, 138464.09, 187500.00, 187500.00, 187500.00, -0.00, -0.00, -0.00
108, 138836.88, -100033.62, 187500.00, 140823.56, 139776.81, 187500.00, 187500.00, 187500.00, -0.00, -0.00, -0.00
109, 138657.77, -100983.79, 187500.00, 139772.42, 139633.75, 187500.00, 187500.00, 187500.00, -0.00, -0.00, -0.00
110, 137473.61, -99784.20, 187500.00, 140644.38, 138616.31, 187500.00, 187500.00, 187500.00, -0.00, -0.00, -0.00
111, 137224.22, -98794.30, 187500.00, 141327.17, 138361.52, 187500.00, 187500.00, 187500.00, -0.00, -0.00, -0.00
112, 138738.50, -100060.71, 187500.00, 139984.08, 139670.95, 187500.00, 187500.00, 187500.00, -0.00, -0.00, -0.00
113, 138918.95, -101346.25, 187500.00, 138633.05, 139859.63, 187500.00, 187500.00, 187500.00, -0.00, -0.00, -0.00
114, 137784.70, -100441.74, 187500.00, 139244.36, 138903.23, 187500.00, 187500.00, 187500.00, -0.00, -0.00, -0.00
115, 137201.58, -99162.23, 187500.00, 140185.33, 138357.20, 187500.00, 187500.00, 187500.00, -0.00, -0.00, -0.00
116, 138588.33, -100088.67, 187500.00, 139146.22, 139543.75, 187500.00, 187500.00, 187500.00, -0.00, -0.00, -0.00
117, 139132.50, -101628.38, 187500.00, 137565.95, 140057.23, 187500.00, 187500.00, 187500.00, -0.00, -0.00, -0.00
118, 138093.00, -101086.79, 187500.00, 137850.67, 139179.70, 187500.00, 187500.00, 187500.00, -0.00, -0.00, -0.00
119, 137243.02, -99619.06, 187500.00, 138959.84, 138410.58, 187500.00, 187500.00, 187500.00, -0.00, -0.00, -0.00
120, 138389.17, -100133.40, 187500.00, 138291.77, 139384.53, 187500.00, 187500.00, 187500.00, -0.00, -0.00, -0.00
121, 139304.67, -101815.84, 187500.00, 136581.88, 140211.11, 187500.00, 187500.00, 187500.00, -0.00, -0.00, -0.00
122, 138428.48, -101675.76, 187500.00, 136509.11, 139476.53, 187500.00, 187500.00, 187500.00, -0.00, -0.00, -0.00
123, 137382.89, -100139.30, 187500.00, 137686.08, 138555.83, 187500.00, 187500.00, 187500.00, -0.00, -0.00, -0.00
124, 138182.72, -100219.25, 187500.00, 137410.50, 139208.77, 187500.00, 187500.00, 187500.00, -0.00, -0.00, -0.00
125, 139386.53, -101935.71, 187500.00, 135669.63, 140284.84, 187500.00, 187500.00, 187500.00, -0.00, -0.00, -0.00
126, 138708.66, -102221.95, 187500.00, 135216.19, 139738.16, 187500.00, 187500.00, 187500.00, -0.00, -0.00, -0.00
127, 137552.63, -100725.18, 187500.00, 136355.00, 138729.47, 187500.00, 187500.00, 187500.00, -0.00, -0.00, -0.00
128, 137958.67, -100361.50, 187500.00, 136475.77, 139030.69, 187500.00, 187500.00, 187500.00, -0.00, -0.00, -0.00
129, 139373.20, -101989.89, 187500.00, 134811.48, 140277.89, 187500.00, 187500.00, 187500.00, -0.00, -0.00, -0.00
130, 138979.50, -102691.15, 187500.00, 133986.77, 139972.67, 187500.00, 187500.00, 187500.00, -0.00, -0.00, -0.00
131, 137789.88, -101341.48, 187500.00, 134996.58, 138950.13, 187500.00, 187500.00, 187500.00, -0.00, -0.00, -0.00
132, 137797.98, -100576.01, 187500.00, 135479.91, 138898.08, 187500.00, 187500.00, 187500.00, -0.00, -0.00, -0.00
133, 139315.69, -102018.32, 187500.00, 133986.33, 140216.94, 187500.00, 187500.00, 187500.00, -0.00, -0.00, -0.00
134, 139256.53, -103098.89, 187500.00, 132823.42, 140202.19, 187500.00, 187500.00, 187500.00, -0.00, -0.00, -0.00
135, 138084.11, -101998.92, 187500.00, 133611.66, 139206.41, 187500.00, 187500.00, 187500.00, -0.00, -0.00, -0.00
136, 137700.31, -100889.94, 187500.00, 134403.84, 138838.28, 187500.00, 187500.00, 187500.00, -0.00, -0.00, -0.00
137, 139175.86, -102038.41, 187500.00, 133170.50, 140113.06, 187500.00, 187500.00, 187500.00, -0.00, -0.00, -0.00
138, 139487.08, -103424.83, 187500.00, 131730.42, 140417.59, 187500.00, 187500.00, 187500.00, -0.00, -0.00, -0.00
139, 138382.42, -102645.94, 187500.00, 132229.86, 139486.03, 187500.00, 187500.00, 187500.00, -0.00, -0.00, -0.00
140, 137679.39, -101290.10, 187500.00, 133243.13, 138835.42, 187500.00, 187500.00, 187500.00, -0.00, -0.00, -0.00
141, 138976.75, -102073.17, 187500.00, 132335.53, 139945.88, 187500.00, 187500.00, 187500.00, -0.00, -0.00, -0.00
142, 139655.48, -103674.88, 187500.00, 130700.66, 140569.09, 187500.00, 187500.00, 187500.00, -0.00, -0.00, -0.00
143, 138673.59, -103271.52, 187500.00, 130865.08, 139748.78, 187500.00, 187500.00, 187500.00, -0.00, -0.00, -0.00
144, 137745.50, -101762.84, 187500.00, 132018.30, 138917.25, 187500.00, 187500.00, 187500.00, -0.00, -0.00, -0.00
145, 138779.05, -102120.69, 187500.00, 131492.88, 139786.23, 187500.00, 187500.00, 187500.00, -0.00, -0.00, -0.00
146, 139812.81, -103826.89, 187500.00, 129764.41, 140721.95, 187500.00, 187500.00, 187500.00, -0.00, -0.00, -0.00
147, 139010.95, -103836.77, 187500.00, 129560.67, 140056.20, 187500.00, 187500.00, 187500.00, -0.00, -0.00, -0.00
148, 137928.98, -102301.74, 187500.00, 130739.22, 139106.66, 187500.00, 187500.00, 187500.00, -0.00, -0.00, -0.00
149, 138607.23, -102218.52, 187500.00, 130611.32, 139646.39, 187500.00, 187500.00, 187500.00, -0.00, -0.00, -0.00
150, 139919.02, -103914.80, 187500.00, 128891.58, 140803.13, 187500.00, 187500.00, 187500.00, -0.00, -0.00, -0.00
151, 139349.94, -104351.48, 187500.00, 128306.97, 140351.78, 187500.00, 187500.00, 187500.00, -0.00, -0.00, -0.00
152, 138184.47, -102894.89, 187500.00, 129412.53, 139348.69, 187500.00, 187500.00, 187500.00, -0.00, -0.00, -0.00
153, 138456.33, -102382.41, 187500.00, 129670.98, 139543.67, 187500.00, 187500.00, 187500.00, -0.00, -0.00, -0.00
154, 139935.22, -103956.53, 187500.00, 128060.34, 140842.45, 187500.00, 187500.00, 187500.00, -0.00, -0.00, -0.00
155, 139663.22, -104798.84, 187500.00, 127112.76, 140639.19, 187500.00, 187500.00, 187500.00, -0.00, -0.00, -0.00
156, 138475.16, -103528.07, 187500.00, 128053.99, 139605.44, 187500.00, 187500.00, 187500.00, -0.00, -0.00, -0.00
157, 138324.80, -102628.77, 187500.00, 128657.59, 139428.45, 187500.00, 187500.00, 187500.00, -0.00, -0.00, -0.00
158, 139840.48, -103974.52, 187500.00, 127246.76, 140751.23, 187500.00, 187500.00, 187500.00, -0.00, -0.00, -0.00
159, 139914.11, -105168.91, 187500.00, 125981.45, 140852.31, 187500.00, 187500.00, 187500.00, -0.00, -0.00, -0.00
160, 138768.94, -104169.74, 187500.00, 126680.61, 139873.80, 187500.00, 187500.00, 187500.00, -0.00, -0.00, -0.00
161, 138260.28, -102958.66, 187500.00, 127568.60, 139398.28, 187500.00, 187500.00, 187500.00, -0.00, -0.00, -0.00
162, 139697.19, -103985.59, 187500.00, 126446.30, 140638.42, 187500.00, 187500.00, 187500.00, -0.00, -0.00, -0.00
163, 140157.08, -105464.06, 187500.00, 124926.78, 141075.41, 187500.00, 187500.00, 187500.00, -0.00, -0.00, -0.00
164, 139098.41, -104816.13, 187500.00, 125314.02, 140190.83, 187500.00, 187500.00, 187500.00, -0.00, -0.00, -0.00
165, 138322.45, -103391.99, 187500.00, 126392.13, 139485.45, 187500.00, 187500.00, 187500.00, -0.00, -0.00, -0.00
166, 139565.61, -104029.77, 187500.00, 125617.20, 140526.11, 187500.00, 187500.00, 187500.00, -0.00, -0.00, -0.00
167, 140393.56, -105689.66, 187500.00, 123933.71, 141278.98, 187500.00, 187500.00, 187500.00, -0.00, -0.00, -0.00
168, 139474.80, -105438.70, 187500.00, 123963.53, 140517.28, 187500.00, 187500.00, 187500.00, -0.00, -0.00, -0.00
169, 138492.05, -103912.41, 187500.00, 125133.15, 139647.39, 187500.00, 187500.00, 187500.00, -0.00, -0.00, -0.00
170, 139416.45, -104118.83, 187500.00, 124748.57, 140427.88, 187500.00, 187500.00, 187500.00, -0.00, -0.00, -0.00
171, 140575.77, -105843.40, 187500.00, 123008.20, 141477.73, 187500.00, 187500.00, 187500.00, -0.00, -0.00, -0.00
172, 139865.44, -106016.13, 187500.00, 122663.82, 140898.86, 187500.00, 187500.00, 187500.00, -0.00, -0.00, -0.00
173, 138759.30, -104502.83, 187500.00, 123826.31, 139930.61, 187500.00, 187500.00, 187500.00, -0.00, -0.00, -0.00
174, 139303.20, -104269.07, 187500.00, 123837.16, 140354.63, 187500.00, 187500.00, 187500.00, -0.00, -0.00, -0.00
175, 140703.75, -105942.77, 187500.00, 122140.39, 141592.31, 187500.00, 187500.00, 187500.00, -0.00, -0.00, -0.00
176, 140257.50, -106539.07, 187500.00, 121416.35, 141241.70, 187500.00, 187500.00, 187500.00, -0.00, -0.00, -0.00
177, 139088.94, -105147.34, 187500.00, 122469.43, 140231.89, 187500.00, 187500.00, 187500.00, -0.00, -0.00, -0.00
178, 139220.70, -104494.71, 187500.00, 122857.34, 140301.92, 187500.00, 187500.00, 187500.00, -0.00, -0.00, -0.00
179, 140748.28, -106005.02, 187500.00, 121305.77, 141646.48, 187500.00, 187500.00, 187500.00, -0.00, -0.00, -0.00
180, 140613.56, -106993.15, 187500.00, 120231.02, 141570.05, 187500.00, 187500.00, 187500.00, -0.00, -0.00, -0.00
181, 139448.94, -105819.50, 187500.00, 121091.20, 140573.20, 187500.00, 187500.00, 187500.00, -0.00, -0.00, -0.00
182, 139192.73, -104803.95, 187500.00, 121807.64, 140307.48, 187500.00, 187500.00, 187500.00, -0.00, -0.00, -0.00
183, 140722.48, -106051.55, 187500.00, 120493.73, 141642.44, 187500.00, 187500.00, 187500.00, -0.00, -0.00, -0.00
184, 140957.38, -107369.77, 187500.00, 119124.16, 141879.02, 187500.00, 187500.00, 187500.00, -0.00, -0.00, -0.00
185, 139843.08, -106501.41, 187500.00, 119711.09, 140941.72, 187500.00, 187500.00, 187500.00, -0.00, -0.00, -0.00
186, 139235.56, -105210.48, 187500.00, 120674.96, 140394.16, 187500.00, 187500.00, 187500.00, -0.00, -0.00, -0.00
187, 140618.31, -106116.13, 187500.00, 119668.30, 141578.66, 187500.00, 187500.00, 187500.00, -0.00, -0.00, -0.00
188, 141214.16, -107692.96, 187500.00, 118067.70, 142124.52, 187500.00, 187500.00, 187500.00, -0.00, -0.00, -0.00
189, 140202.91, -107203.30, 187500.00, 118318.53, 141276.91, 187500.00, 187500.00, 187500.00, -0.00, -0.00, -0.00
190, 139344.81, -105747.17, 187500.00, 119434.87, 140511.06, 187500.00, 187500.00, 187500.00, -0.00, -0.00, -0.00
191, 140496.27, -106241.88, 187500.00, 118798.65, 141484.86, 187500.00, 187500.00, 187500.00, -0.00, -0.00, -0.00
192, 141446.03, -107949.91, 187500.00, 117081.54, 142351.61, 187500.00, 187500.00, 187500.00, -0.00, -0.00, -0.00
193, 140591.38, -107859.03, 187500.00, 116977.59, 141640.08, 187500.00, 187500.00, 187500.00, -0.00, -0.00, -0.00
194, 139542.73, -106327.36, 187500.00, 118160.05, 140711.95, 187500.00, 187500.00, 187500.00, -0.00, -0.00, -0.00
195, 140320.58, -106374.45, 187500.00, 117921.79, 141345.25, 187500.00, 187500.00, 187500.00, -0.00, -0.00, -0.00
196, 141561.66, -108094.51, 187500.00, 116187.13, 142450.33, 187500.00, 187500.00, 187500.00, -0.00, -0.00, -0.00
197, 140882.55, -108426.84, 187500.00, 115701.03, 141897.77, 187500.00, 187500.00, 187500.00, -0.00, -0.00, -0.00
198, 139722.34, -106941.49, 187500.00, 116841.26, 140886.80, 187500.00, 187500.00, 187500.00, -0.00, -0.00, -0.00
199, 140142.17, -106541.06, 187500.00, 117008.05, 141209.83, 187500.00, 187500.00, 187500.00, -0.00, -0.00, -0.00
200, 141651.97, -108154.66, 187500.00, 115369.55, 142545.08, 187500.00, 187500.00, 187500.00, -0.00, -0.00, -0.00
201, 141369.30, -108884.93, 187500.00, 114529.91, 142333.31, 187500.00, 187500.00, 187500.00, -0.00, -0.00, -0.00
202, 140239.73, -107546.87, 187500.00, 115539.38, 141374.16, 187500.00, 187500.00, 187500.00, -0.00, -0.00, -0.00
203, 140259.50, -106736.77, 187500.00, 116074.08, 141356.55, 187500.00, 187500.00, 187500.00, -0.00, -0.00, -0.00
204, 141854.06, -108143.26, 187500.00, 114620.26, 142756.52, 187500.00, 187500.00, 187500.00, -0.00, -0.00, -0.00
205, 141908.67, -109238.27, 187500.00, 113453.23, 142846.78, 187500.00, 187500.00, 187500.00, -0.00, -0.00, -0.00
206, 140805.92, -108144.42, 187500.00, 114244.55, 141913.77, 187500.00, 187500.00, 187500.00, -0.00, -0.00, -0.00
207, 140425.91, -106997.53, 187500.00, 115081.55, 141554.47, 187500.00, 187500.00, 187500.00, -0.00, -0.00, -0.00
208, 141985.73, -108095.13, 187500.00, 113904.51, 142911.73, 187500.00, 187500.00, 187500.00, -0.00, -0.00, -0.00
209, 142464.52, -109474.68, 187500.00, 112482.22, 143371.97, 187500.00, 187500.00, 187500.00, -0.00, -0.00, -0.00
210, 141491.13, -108693.78, 187500.00, 112994.73, 142557.09, 187500.00, 187500.00, 187500.00, -0.00, -0.00, -0.00
211, 140868.36, -107283.70, 187500.00, 114069.46, 141999.95, 187500.00, 187500.00, 187500.00, -0.00, -0.00, -0.00
212, 142273.81, -107996.30, 187500.00, 113238.65, 143223.14, 187500.00, 187500.00, 187500.00, -0.00, -0.00, -0.00
213, 143132.61, -109579.70, 187500.00, 111633.62, 144020.75, 187500.00, 187500.00, 187500.00, -0.00, -0.00, -0.00
214, 142275.58, -109181.00, 187500.00, 111805.32, 143315.83, 187500.00, 187500.00, 187500.00, -0.00, -0.00, -0.00
215, 141394.27, -107638.60, 187500.00, 112996.73, 142531.08, 187500.00, 187500.00, 187500.00, -0.00, -0.00, -0.00
216, 142494.64, -107923.61, 187500.00, 112547.27, 143470.05, 187500.00, 187500.00, 187500.00, -0.00, -0.00, -0.00
217, 143756.69, -109588.30, 187500.00, 110868.63, 144620.00, 187500.00, 187500.00, 187500.00, -0.00, -0.00, -0.00
218, 143223.20, -109582.82, 187500.00, 110692.34, 144210.14, 187500.00, 187500.00, 187500.00, -0.00, -0.00, -0.00
219, 142388.97, -107986.15, 187500.00, 111939.08, 143511.52, 187500.00, 187500.00, 187500.00, -0.00, -0.00, -0.00
220, 143335.42, -107790.79, 187500.00, 111926.96, 144328.31, 187500.00, 187500.00, 187500.00, -0.00, -0.00, -0.00
221, 145015.47, -109406.09, 187500.00, 110293.98, 145846.92, 187500.00, 187500.00, 187500.00, -0.00, -0.00, -0.00
222, 144749.53, -109818.45, 187500.00, 109745.54, 145691.22, 187500.00, 187500.00, 187500.00, -0.00, -0.00, -0.00
223, 143773.92, -108324.80, 187500.00, 110901.10, 144876.66, 187500.00, 187500.00, 187500.00, -0.00, -0.00, -0.00
224, 144169.00, -107724.05, 187500.00, 111251.47, 145201.70, 187500.00, 187500.00, 187500.00, -0.00, -0.00, -0.00
225, 145884.31, -109223.77, 187500.00, 109719.14, 146734.03, 187500.00, 187500.00, 187500.00, -0.00, -0.00, -0.00
226, 145838.80, -110054.06, 187500.00, 108794.79, 146752.41, 187500.00, 187500.00, 187500.00, -0.00, -0.00, -0.00
227, 144741.33, -108773.30, 187500.00, 109759.65, 145836.92, 187500.00, 187500.00, 187500.00, -0.00, -0.00, -0.00
228, 144665.09, -107803.91, 187500.00, 110442.55, 145742.05, 187500.00, 187500.00, 187500.00, -0.00, -0.00, -0.00
229, 146338.05, -109077.05, 187500.00, 109112.12, 147212.03, 187500.00, 187500.00, 187500.00, -0.00, -0.00, -0.00
230, 146591.23, -110263.14, 187500.00, 107867.01, 147484.77, 187500.00, 187500.00, 187500.00, -0.00, -0.00, -0.00
231, 145523.84, -109263.73, 187500.00, 108577.57, 146591.63, 187500.00, 187500.00, 187500.00, -0.00, -0.00, -0.00
232, 145077.95, -107986.80, 187500.00, 109536.09, 146185.14, 187500.00, 187500.00, 187500.00, -0.00, -0.00, -0.00
233, 146678.05, -108922.86, 187500.00, 108509.20, 147574.97, 187500.00, 187500.00, 187500.00, -0.00, -0.00, -0.00
234, 147364.47, -110367.12, 187500.00, 107033.41, 148227.59, 187500.00, 187500.00, 187500.00, -0.00, -0.00, -0.00
235, 146436.52, -109710.56, 187500.00, 107439.42, 147477.08, 187500.00, 187500.00, 187500.00, -0.00, -0.00, -0.00
236, 145695.89, -108230.65, 187500.00, 108578.67, 146820.73, 187500.00, 187500.00, 187500.00, -0.00, -0.00, -0.00
237, 146936.83, -108791.86, 187500.00, 107882.57, 147881.61, 187500.00, 187500.00, 187500.00, -0.00, -0.00, -0.00
238, 147924.23, -110415.20, 187500.00, 106242.84, 148784.06, 187500.00, 187500.00, 187500.00, -0.00, -0.00, -0.00
239, 147118.50, -110159.43, 187500.00, 106289.49, 148128.42, 187500.00, 187500.00, 187500.00, -0.00, -0.00, -0.00
240, 146185.30, -108585.66, 187500.00, 107514.63, 147319.45, 187500.00, 187500.00, 187500.00, -0.00, -0.00, -0.00
241, 147213.52, -108691.03, 187500.00, 107234.03, 148200.20, 187500.00, 187500.00, 187500.00, -0.00, -0.00, -0.00
242, 148600.16, -110344.55, 187500.00, 105568.70, 149448.98, 187500.00, 187500.00, 187500.00, -0.00, -0.00, -0.00
243, 147871.38, -110535.88, 187500.00, 105216.85, 148853.25, 187500.00, 187500.00, 187500.00, -0.00, -0.00, -0.00
244, 146664.13, -109013.90, 187500.00, 106396.06, 147795.86, 187500.00, 187500.00, 187500.00, -0.00, -0.00, -0.00
245, 147181.89, -108696.62, 187500.00, 106494.95, 148204.48, 187500.00, 187500.00, 187500.00, -0.00, -0.00, -0.00
246, 148662.03, -110309.90, 187500.00, 104866.40, 149523.33, 187500.00, 187500.00, 187500.00, -0.00, -0.00, -0.00
247, 148338.70, -110888.70, 187500.00, 104173.16, 149291.91, 187500.00, 187500.00, 187500.00, -0.00, -0.00, -0.00
248, 147222.22, -109461.07, 187500.00, 105271.64, 148343.09, 187500.00, 187500.00, 187500.00, -0.00, -0.00, -0.00
249, 147380.42, -108712.27, 187500.00, 105759.17, 148448.45, 187500.00, 187500.00, 187500.00, -0.00, -0.00, -0.00
250, 149089.64, -110123.04, 187500.00, 104309.98, 149960.39, 187500.00, 187500.00, 187500.00, -0.00, -0.00, -0.00
251, 149137.77, -111075.09, 187500.00, 103279.38, 150056.00, 187500.00, 187500.00, 187500.00, -0.00, -0.00, -0.00
252, 147909.47, -109901.55, 187500.00, 104149.49, 149012.45, 187500.00, 187500.00, 187500.00, -0.00, -0.00, -0.00
253, 147467.94, -108839.70, 187500.00, 104914.75, 148581.39, 187500.00, 187500.00, 187500.00, -0.00, -0.00, -0.00
254, 149063.88, -109995.81, 187500.00, 103694.23, 149973.06, 187500.00, 187500.00, 187500.00, -0.00, -0.00, -0.00
255, 149421.83, -111282.20, 187500.00, 102365.48, 150338.36, 187500.00, 187500.00, 187500.00, -0.00, -0.00, -0.00
0, 148312.94, -110408.27, 187500.00, 102969.09, 149412.52, 187500.00, 187500.00, 187500.00, -0.00, -0.00, -0.00
1, 147647.03, -109060.46, 187500.00, 103992.83, 148794.38, 187500.00, 187500.00, 187500.00, -0.00, -0.00, -0.00
2, 149086.88, -109865.01, 187500.00, 103086.78, 150031.55, 187500.00, 187500.00, 187500.00, -0.00, -0.00, -0.00
3, 149850.66, -111383.63, 187500.00, 101550.21, 150736.69, 187500.00, 187500.00, 187500.00, -0.00, -0.00, -0.00
4, 148883.58, -110877.41, 187500.00, 101825.80, 149929.42, 187500.00, 187500.00, 187500.00, -0.00, -0.00, -0.00
5, 147953.55, -109366.77, 187500.00, 102997.86, 149100.23, 187500.00, 187500.00, 187500.00, -0.00, -0.00, -0.00
6, 149015.88, -109774.66, 187500.00, 102446.73, 149997.50, 187500.00, 187500.00, 187500.00, -0.00, -0.00, -0.00
7, 150053.05, -111427.16, 187500.00, 100788.20, 150951.25, 187500.00, 187500.00, 187500.00, -0.00, -0.00, -0.00
8, 149227.28, -111332.07, 187500.00, 100694.90, 150265.31, 187500.00, 187500.00, 187500.00, -0.00, -0.00, -0.00
9, 148103.08, -109775.02, 187500.00, 101905.98, 149271.25, 187500.00, 187500.00, 187500.00, -0.00, -0.00, -0.00
10, 148842.73, -109736.65, 187500.00, 101754.57, 149880.75, 187500.00, 187500.00, 187500.00, -0.00, -0.00, -0.00
11, 150223.61, -111389.89, 187500.00, 100093.14, 151113.61, 187500.00, 187500.00, 187500.00, -0.00, -0.00, -0.00
12, 149677.00, -111713.81, 187500.00, 99627.78, 150676.95, 187500.00, 187500.00, 187500.00, -0.00, -0.00, -0.00
13, 148502.14, -110212.47, 187500.00, 100792.84, 149673.64, 187500.00, 187500.00, 187500.00, -0.00, -0.00, -0.00
14, 148822.47, -109743.17, 187500.00, 101028.49, 149905.66, 187500.00, 187500.00, 187500.00, -0.00, -0.00, -0.00
15, 150319.86, -111302.45, 187500.00, 99447.18, 151230.36, 187500.00, 187500.00, 187500.00, -0.00, -0.00, -0.00
16, 149992.30, -112047.55, 187500.00, 98603.48, 150983.53, 187500.00, 187500.00, 187500.00, -0.00, -0.00, -0.00
17, 148727.41, -110728.62, 187500.00, 99604.22, 149893.20, 187500.00, 187500.00, 187500.00, -0.00, -0.00, -0.00
18, 148589.83, -109877.06, 187500.00, 100184.05, 149728.36, 187500.00, 187500.00, 187500.00, -0.00, -0.00, -0.00
19, 150187.72, -111220.29, 187500.00, 98795.69, 151136.55, 187500.00, 187500.00, 187500.00, -0.00, -0.00, -0.00
20, 150262.80, -112320.62, 187500.00, 97633.20, 151256.13, 187500.00, 187500.00, 187500.00, -0.00, -0.00, -0.00
21, 149058.38, -111259.88, 187500.00, 98404.89, 150225.80, 187500.00, 187500.00, 187500.00, -0.00, -0.00, -0.00
22, 148533.95, -110088.84, 187500.00, 99270.76, 149723.84, 187500.00, 187500.00, 187500.00, -0.00, -0.00, -0.00
23, 150029.91, -111135.87, 187500.00, 98147.73, 151019.48, 187500.00, 187500.00, 187500.00, -0.00, -0.00, -0.00
24, 150472.83, -112528.53, 187500.00, 96725.02, 151450.14, 187500.00, 187500.00, 187500.00, -0.00, -0.00, -0.00
25, 149335.55, -111804.74, 187500.00, 97196.18, 150483.52, 187500.00, 187500.00, 187500.00, -0.00, -0.00, -0.00
26, 148476.67, -110411.04, 187500.00, 98263.88, 149697.98, 187500.00, 187500.00, 187500.00, -0.00, -0.00, -0.00
27, 149746.16, -111092.44, 187500.00, 97469.63, 150777.98, 187500.00, 187500.00, 187500.00, -0.00, -0.00, -0.00
28, 150567.97, -112688.66, 187500.00, 95864.91, 151536.58, 187500.00, 187500.00, 187500.00, -0.00, -0.00, -0.00
29, 149569.11, -112352.02, 187500.00, 95993.01, 150699.45, 187500.00, 187500.00, 187500.00, -0.00, -0.00, -0.00
30, 148498.95, -110834.38, 187500.00, 97173.18, 149741.97, 187500.00, 187500.00, 187500.00, -0.00, -0.00, -0.00
31, 149452.70, -111091.07, 187500.00, 96758.28, 150533.88, 187500.00, 187500.00, 187500.00, -0.00, -0.00, -0.00
32, 150609.05, -112749.05, 187500.00, 95079.53, 151573.13, 187500.00, 187500.00, 187500.00, -0.00, -0.00, -0.00
33, 149810.39, -112795.70, 187500.00, 94838.54, 150922.53, 187500.00, 187500.00, 187500.00, -0.00, -0.00, -0.00
34, 148585.25, -111248.59, 187500.00, 96020.84, 149849.06, 187500.00, 187500.00, 187500.00, -0.00, -0.00, -0.00
35, 149117.17, -111047.30, 187500.00, 95993.34, 150263.80, 187500.00, 187500.00, 187500.00, -0.00, -0.00, -0.00
36, 150540.92, -112666.58, 187500.00, 94337.95, 151521.08, 187500.00, 187500.00, 187500.00, -0.00, -0.00, -0.00
37, 150044.31, -113138.70, 187500.00, 93716.91, 151127.73, 187500.00, 187500.00, 187500.00, -0.00, -0.00, -0.00
38, 148777.20, -111693.63, 187500.00, 94809.03, 150031.14, 187500.00, 187500.00, 187500.00, -0.00, -0.00, -0.00
39, 148892.19, -111077.02, 187500.00, 95155.77, 150079.47, 187500.00, 187500.00, 187500.00, -0.00, -0.00, -0.00
40, 150453.91, -112557.68, 187500.00, 93628.30, 151456.78, 187500.00, 187500.00, 187500.00, -0.00, -0.00, -0.00
41, 150280.70, -113427.32, 187500.00, 92657.14, 151346.66, 187500.00, 187500.00, 187500.00, -0.00, -0.00, -0.00
42, 149017.72, -112188.20, 187500.00, 93572.80, 150265.70, 187500.00, 187500.00, 187500.00, -0.00, -0.00, -0.00
43, 148714.16, -111212.73, 187500.00, 94252.05, 149955.84, 187500.00, 187500.00, 187500.00, -0.00, -0.00, -0.00
44, 150271.58, -112456.16, 187500.00, 92942.62, 151322.48, 187500.00, 187500.00, 187500.00, -0.00, -0.00, -0.00
45, 150464.56, -113666.40, 187500.00, 91671.12, 151537.94, 187500.00, 187500.00, 187500.00, -0.00, -0.00, -0.00
46, 149262.00, -112714.79, 187500.00, 92331.14, 150513.38, 187500.00, 187500.00, 187500.00, -0.00, -0.00, -0.00
47, 148588.94, -111447.34, 187500.00, 93273.06, 149883.78, 187500.00, 187500.00, 187500.00, -0.00, -0.00, -0.00
48, 150007.78, -112364.00, 187500.00, 92256.84, 151116.05, 187500.00, 187500.00, 187500.00, -0.00, -0.00, -0.00
49, 150600.30, -113840.11, 187500.00, 90747.37, 151675.67, 187500.00, 187500.00, 187500.00, -0.00, -0.00, -0.00
50, 149521.91, -113255.41, 187500.00, 91086.30, 150762.31, 187500.00, 187500.00, 187500.00, -0.00, -0.00, -0.00
51, 148570.30, -111802.28, 187500.00, 92198.39, 149899.22, 187500.00, 187500.00, 187500.00, -0.00, -0.00, -0.00
52, 149701.66, -112329.45, 187500.00, 91530.50, 150851.88, 187500.00, 187500.00, 187500.00, -0.00, -0.00, -0.00
53, 150627.31, -113964.55, 187500.00, 89873.84, 151695.86, 187500.00, 187500.00, 187500.00, -0.00, -0.00, -0.00
54, 149683.75, -113768.63, 187500.00, 89858.15, 150905.97, 187500.00, 187500.00, 187500.00, -0.00, -0.00, -0.00
55, 148525.73, -112232.59, 187500.00, 91041.63, 149871.14, 187500.00, 187500.00, 187500.00, -0.00, -0.00, -0.00
56, 149312.08, -112325.73, 187500.00, 90766.25, 150519.86, 187500.00, 187500.00, 187500.00, -0.00, -0.00, -0.00
57, 150582.52, -113999.34, 187500.00, 89080.05, 151646.44, 187500.00, 187500.00, 187500.00, -0.00, -0.00, -0.00
58, 149880.42, -114233.21, 187500.00, 88687.80, 151055.91, 187500.00, 187500.00, 187500.00, -0.00, -0.00, -0.00
59, 148603.98, -112736.54, 187500.00, 89840.17, 149941.52, 187500.00, 187500.00, 187500.00, -0.00, -0.00, -0.00
60, 148961.44, -112402.63, 187500.00, 89948.91, 150201.84, 187500.00, 187500.00, 187500.00, -0.00, -0.00, -0.00
61, 150438.20, -113998.97, 187500.00, 88326.60, 151505.58, 187500.00, 187500.00, 187500.00, -0.00, -0.00, -0.00
62, 150031.97, -114637.20, 187500.00, 87566.47, 151186.59, 187500.00, 187500.00, 187500.00, -0.00, -0.00, -0.00
63, 148734.30, -113272.18, 187500.00, 88596.23, 150056.48, 187500.00, 187500.00, 187500.00, -0.00, -0.00, -0.00
64, 148673.47, -112525.38, 187500.00, 89068.19, 149940.86, 187500.00, 187500.00, 187500.00, -0.00, -0.00, -0.00
65, 150249.34, -113935.55, 187500.00, 87605.60, 151318.08, 187500.00, 187500.00, 187500.00, -0.00, -0.00, -0.00
66, 150201.55, -114947.55, 187500.00, 86508.60, 151312.94, 187500.00, 187500.00, 187500.00, -0.00, -0.00, -0.00
67, 148929.05, -113816.58, 187500.00, 87328.71, 150217.08, 187500.00, 187500.00, 187500.00, -0.00, -0.00, -0.00
68, 148450.31, -112732.74, 187500.00, 88103.98, 149748.92, 187500.00, 187500.00, 187500.00, -0.00, -0.00, -0.00
69, 149966.05, -113870.27, 187500.00, 86888.65, 151060.30, 187500.00, 187500.00, 187500.00, -0.00, -0.00, -0.00
70, 150295.89, -115197.71, 187500.00, 85512.20, 151387.67, 187500.00, 187500.00, 187500.00, -0.00, -0.00, -0.00
71, 149106.83, -114383.46, 187500.00, 86053.41, 150374.03, 187500.00, 187500.00, 187500.00, -0.00, -0.00, -0.00
72, 148299.27, -113039.61, 187500.00, 87064.13, 149626.47, 187500.00, 187500.00, 187500.00, -0.00, -0.00, -0.00
73, 149631.98, -113821.60, 187500.00, 86168.84, 150760.61, 187500.00, 187500.00, 187500.00, -0.00, -0.00, -0.00
74, 150358.59, -115373.94, 187500.00, 84592.81, 151431.30, 187500.00, 187500.00, 187500.00, -0.00, -0.00, -0.00
75, 149310.45, -114936.40, 187500.00, 84799.30, 150538.22, 187500.00, 187500.00, 187500.00, -0.00, -0.00, -0.00
76, 148251.92, -113449.54, 187500.00, 85941.07, 149580.19, 187500.00, 187500.00, 187500.00, -0.00, -0.00, -0.00
77, 149271.14, -113830.21, 187500.00, 85410.35, 150429.38, 187500.00, 187500.00, 187500.00, -0.00, -0.00, -0.00
78, 150351.89, -115505.16, 187500.00, 83727.35, 151404.16, 187500.00, 187500.00, 187500.00, -0.00, -0.00, -0.00
79, 149493.17, -115485.16, 187500.00, 83564.79, 150691.34, 187500.00, 187500.00, 187500.00, -0.00, -0.00, -0.00
80, 148280.95, -113966.94, 187500.00, 84738.70, 149612.88, 187500.00, 187500.00, 187500.00, -0.00, -0.00, -0.00
81, 148905.30, -113917.85, 187500.00, 84596.09, 150106.33, 187500.00, 187500.00, 187500.00, -0.00, -0.00, -0.00
82, 150258.66, -115597.43, 187500.00, 82911.98, 151310.11, 187500.00, 187500.00, 187500.00, -0.00, -0.00, -0.00
83, 149662.66, -116005.88, 187500.00, 82373.09, 150825.91, 187500.00, 187500.00, 187500.00, -0.00, -0.00, -0.00
84, 148373.64, -114570.14, 187500.00, 83480.25, 149699.69, 187500.00, 187500.00, 187500.00, -0.00, -0.00, -0.00
85, 148567.97, -114096.38, 187500.00, 83720.65, 149815.72, 187500.00, 187500.00, 187500.00, -0.00, -0.00, -0.00
86, 150087.59, -115652.98, 187500.00, 82142.61, 151154.42, 187500.00, 187500.00, 187500.00, -0.00, -0.00, -0.00
87, 149800.69, -116456.66, 187500.00, 81245.33, 150941.28, 187500.00, 187500.00, 187500.00, -0.00, -0.00, -0.00
88, 148494.55, -115190.36, 187500.00, 82198.56, 149807.13, 187500.00, 187500.00, 187500.00, -0.00, -0.00, -0.00
89, 148256.23, -114330.06, 187500.00, 82785.36, 149542.63, 187500.00, 187500.00, 187500.00, -0.00, -0.00, -0.00
90, 149805.81, -115668.75, 187500.00, 81402.32, 150888.02, 187500.00, 187500.00, 187500.00, -0.00, -0.00, -0.00
91, 149868.75, -116826.46, 187500.00, 80188.60, 150978.00, 187500.00, 187500.00, 187500.00, -0.00, -0.00, -0.00
92, 148587.70, -115821.77, 187500.00, 80903.99, 149869.47, 187500.00, 187500.00, 187500.00, -0.00, -0.00, -0.00
93, 147943.98, -114644.41, 187500.00, 81769.36, 149254.31, 187500.00, 187500.00, 187500.00, -0.00, -0.00, -0.00
94, 149362.31, -115672.82, 187500.00, 80655.80, 150475.09, 187500.00, 187500.00, 187500.00, -0.00, -0.00, -0.00
95, 149786.14, -117112.09, 187500.00, 79182.55, 150874.78, 187500.00, 187500.00, 187500.00, -0.00, -0.00, -0.00
96, 148563.59, -116450.04, 187500.00, 79589.02, 149825.39, 187500.00, 187500.00, 187500.00, -0.00, -0.00, -0.00
97, 147565.45, -115061.41, 187500.00, 80642.61, 148907.83, 187500.00, 187500.00, 187500.00, -0.00, -0.00, -0.00
98, 148701.53, -115718.02, 187500.00, 79863.25, 149865.83, 187500.00, 187500.00, 187500.00, -0.00, -0.00, -0.00
99, 149476.64, -117347.30, 187500.00, 78222.34, 150568.78, 187500.00, 187500.00, 187500.00, -0.00, -0.00, -0.00
100, 148392.98, -117082.39, 187500.00, 78280.19, 149640.31, 187500.00, 187500.00, 187500.00, -0.00, -0.00, -0.00
101, 147163.83, -115588.04, 187500.00, 79433.20, 148524.34, 187500.00, 187500.00, 187500.00, -0.00, -0.00, -0.00
102, 147942.70, -115823.98, 187500.00, 79032.37, 149142.34, 187500.00, 187500.00, 187500.00, -0.00, -0.00, -0.00
103, 149033.72, -117527.16, 187500.00, 77326.38, 150107.34, 187500.00, 187500.00, 187500.00, -0.00, -0.00, -0.00
104, 148151.98, -117680.90, 187500.00, 77013.45, 149364.03, 187500.00, 187500.00, 187500.00, -0.00, -0.00, -0.00
105, 146780.64, -116195.12, 187500.00, 78161.43, 148150.06, 187500.00, 187500.00, 187500.00, -0.00, -0.00, -0.00
106, 147136.16, -115998.77, 187500.00, 78151.95, 148400.41, 187500.00, 187500.00, 187500.00, -0.00, -0.00, -0.00
107, 148454.14, -117653.39, 187500.00, 76486.51, 149561.47, 187500.00, 187500.00, 187500.00, -0.00, -0.00, -0.00
108, 147848.14, -118221.77, 187500.00, 75799.13, 149057.31, 187500.00, 187500.00, 187500.00, -0.00, -0.00, -0.00
109, 146424.94, -116843.83, 187500.00, 76849.03, 147806.72, 187500.00, 187500.00, 187500.00, -0.00, -0.00, -0.00
110, 146346.81, -116228.40, 187500.00, 77213.36, 147667.33, 187500.00, 187500.00, 187500.00, -0.00, -0.00, -0.00
111, 147787.89, -117726.63, 187500.00, 75686.31, 148924.03, 187500.00, 187500.00, 187500.00, -0.00, -0.00, -0.00
112, 147521.59, -118678.95, 187500.00, 74656.50, 148725.53, 187500.00, 187500.00, 187500.00, -0.00, -0.00, -0.00
113, 146125.89, -117512.80, 187500.00, 75518.88, 147506.48, 187500.00, 187500.00, 187500.00, -0.00, -0.00, -0.00
114, 145640.77, -116540.67, 187500.00, 76205.72, 147023.78, 187500.00, 187500.00, 187500.00, -0.00, -0.00, -0.00
115, 147076.58, -117792.64, 187500.00, 74903.20, 148259.70, 187500.00, 187500.00, 187500.00, -0.00, -0.00, -0.00
116, 147193.09, -119086.29, 187500.00, 73574.03, 148390.59, 187500.00, 187500.00, 187500.00, -0.00, -0.00, -0.00
117, 145862.83, -118225.34, 187500.00, 74168.98, 147239.16, 187500.00, 187500.00, 187500.00, -0.00, -0.00, -0.00
118, 145014.92, -116981.07, 187500.00, 75105.21, 146449.47, 187500.00, 187500.00, 187500.00, -0.00, -0.00, -0.00
119, 146298.89, -117901.09, 187500.00, 74103.38, 147534.98, 187500.00, 187500.00, 187500.00, -0.00, -0.00, -0.00
120, 146825.08, -119442.31, 187500.00, 72554.84, 148016.72, 187500.00, 187500.00, 187500.00, -0.00, -0.00, -0.00
121, 145631.44, -118943.82, 187500.00, 72831.46, 146992.78, 187500.00, 187500.00, 187500.00, -0.00, -0.00, -0.00
122, 144525.69, -117521.65, 187500.00, 73927.25, 145982.61, 187500.00, 187500.00, 187500.00, -0.00, -0.00, -0.00
123, 145541.17, -118043.07, 187500.00, 73281.84, 146814.09, 187500.00, 187500.00, 187500.00, -0.00, -0.00, -0.00
124, 146444.06, -119728.44, 187500.00, 71603.09, 147619.81, 187500.00, 187500.00, 187500.00, -0.00, -0.00, -0.00
125, 145438.95, -119633.10, 187500.00, 71521.16, 146759.63, 187500.00, 187500.00, 187500.00, -0.00, -0.00, -0.00
126, 144175.08, -118149.23, 187500.00, 72677.68, 145614.03, 187500.00, 187500.00, 187500.00, -0.00, -0.00, -0.00
127, 144824.69, -118241.26, 187500.00, 72419.70, 146121.34, 187500.00, 187500.00, 187500.00, -0.00, -0.00, -0.00
128, 146038.89, -119952.13, 187500.00, 70717.23, 147196.36, 187500.00, 187500.00, 187500.00, -0.00, -0.00, -0.00
129, 145284.84, -120276.72, 187500.00, 70260.63, 146563.41, 187500.00, 187500.00, 187500.00, -0.00, -0.00, -0.00
130, 143922.00, -118836.91, 187500.00, 71377.81, 145360.94, 187500.00, 187500.00, 187500.00, -0.00, -0.00, -0.00
131, 144151.61, -118500.14, 187500.00, 71504.32, 145494.25, 187500.00, 187500.00, 187500.00, -0.00, -0.00, -0.00
132, 145564.55, -120126.59, 187500.00, 69872.63, 146733.08, 187500.00, 187500.00, 187500.00, -0.00, -0.00, -0.00
133, 145120.66, -120860.91, 187500.00, 69045.23, 146372.11, 187500.00, 187500.00, 187500.00, -0.00, -0.00, -0.00
134, 143743.03, -119573.24, 187500.00, 70021.73, 145167.17, 187500.00, 187500.00, 187500.00, -0.00, -0.00, -0.00
135, 143549.67, -118839.91, 187500.00, 70499.59, 144932.17, 187500.00, 187500.00, 187500.00, -0.00, -0.00, -0.00
136, 145045.67, -120272.95, 187500.00, 69040.00, 146231.86, 187500.00, 187500.00, 187500.00, -0.00, -0.00, -0.00
137, 144958.91, -121375.91, 187500.00, 67885.35, 146179.69, 187500.00, 187500.00, 187500.00, -0.00, -0.00, -0.00
138, 143618.31, -120330.61, 187500.00, 68649.47, 145014.11, 187500.00, 187500.00, 187500.00, -0.00, -0.00, -0.00
139, 143025.03, -119259.98, 187500.00, 69431.40, 144429.97, 187500.00, 187500.00, 187500.00, -0.00, -0.00, -0.00
140, 144435.25, -120401.76, 187500.00, 68229.44, 145634.63, 187500.00, 187500.00, 187500.00, -0.00, -0.00, -0.00
141, 144724.03, -121801.71, 187500.00, 66805.05, 145918.03, 187500.00, 187500.00, 187500.00, -0.00, -0.00, -0.00
142, 143467.28, -121076.06, 187500.00, 67283.04, 144836.64, 187500.00, 187500.00, 187500.00, -0.00, -0.00, -0.00
143, 142540.06, -119758.66, 187500.00, 68285.94, 143974.91, 187500.00, 187500.00, 187500.00, -0.00, -0.00, -0.00
144, 143740.05, -120532.16, 187500.00, 67411.59, 144984.66, 187500.00, 187500.00, 187500.00, -0.00, -0.00, -0.00
145, 144409.77, -122137.80, 187500.00, 65798.37, 145588.70, 187500.00, 187500.00, 187500.00, -0.00, -0.00, -0.00
146, 143278.05, -121787.88, 187500.00, 65939.88, 144617.09, 187500.00, 187500.00, 187500.00, -0.00, -0.00, -0.00
147, 142098.22, -120332.89, 187500.00, 67068.46, 143542.36, 187500.00, 187500.00, 187500.00, -0.00, -0.00, -0.00
148, 142971.88, -120697.54, 187500.00, 66564.05, 144250.08, 187500.00, 187500.00, 187500.00, -0.00, -0.00, -0.00
149, 143984.25, -122403.96, 187500.00, 64862.50, 145152.88, 187500.00, 187500.00, 187500.00, -0.00, -0.00, -0.00
150, 143044.34, -122464.58, 187500.00, 64638.43, 144355.03, 187500.00, 187500.00, 187500.00, -0.00, -0.00, -0.00
151, 141710.25, -120985.12, 187500.00, 65788.47, 143157.05, 187500.00, 187500.00, 187500.00, -0.00, -0.00, -0.00
152, 142175.84, -120912.92, 187500.00, 65673.80, 143495.27, 187500.00, 187500.00, 187500.00, -0.00, -0.00, -0.00
153, 143442.94, -122604.03, 187500.00, 63987.66, 144608.88, 187500.00, 187500.00, 187500.00, -0.00, -0.00, -0.00
154, 142765.44, -123085.64, 187500.00, 63392.27, 144040.77, 187500.00, 187500.00, 187500.00, -0.00, -0.00, -0.00
155, 141362.75, -121692.15, 187500.00, 64466.47, 142800.16, 187500.00, 187500.00, 187500.00, -0.00, -0.00, -0.00
156, 141401.48, -121197.66, 187500.00, 64731.45, 142761.89, 187500.00, 187500.00, 187500.00, -0.00, -0.00, -0.00
157, 142833.52, -122759.66, 187500.00, 63159.10, 144006.05, 187500.00, 187500.00, 187500.00, -0.00, -0.00, -0.00
158, 142476.56, -123638.29, 187500.00, 62206.49, 143717.83, 187500.00, 187500.00, 187500.00, -0.00, -0.00, -0.00
159, 141061.25, -122433.95, 187500.00, 63114.93, 142479.16, 187500.00, 187500.00, 187500.00, -0.00, -0.00, -0.00
160, 140666.45, -121565.32, 187500.00, 63719.03, 142065.14, 187500.00, 187500.00, 187500.00, -0.00, -0.00, -0.00
161, 142109.39, -122898.31, 187500.00, 62350.52, 143301.92, 187500.00, 187500.00, 187500.00, -0.00, -0.00, -0.00
162, 142120.52, -124121.11, 187500.00, 61090.20, 143334.05, 187500.00, 187500.00, 187500.00, -0.00, -0.00, -0.00
163, 140760.91, -123190.67, 187500.00, 61754.61, 142150.89, 187500.00, 187500.00, 187500.00, -0.00, -0.00, -0.00
164, 139993.13, -122023.06, 187500.00, 62628.47, 141421.22, 187500.00, 187500.00, 187500.00, -0.00, -0.00, -0.00
165, 141318.31, -123040.52, 187500.00, 61544.07, 142545.31, 187500.00, 187500.00, 187500.00, -0.00, -0.00, -0.00
166, 141730.86, -124531.42, 187500.00, 60042.57, 142931.98, 187500.00, 187500.00, 187500.00, -0.00, -0.00, -0.00
167, 140491.42, -123942.19, 187500.00, 60398.19, 141862.00, 187500.00, 187500.00, 187500.00, -0.00, -0.00, -0.00
168, 139438.41, -122560.18, 187500.00, 61457.80, 140889.61, 187500.00, 187500.00, 187500.00, -0.00, -0.00, -0.00
169, 140519.83, -123185.76, 187500.00, 60719.14, 141788.44, 187500.00, 187500.00, 187500.00, -0.00, -0.00, -0.00
170, 141321.33, -124844.81, 187500.00, 59063.81, 142511.05, 187500.00, 187500.00, 187500.00, -0.00, -0.00, -0.00
171, 140248.05, -124649.69, 187500.00, 59068.24, 141589.95, 187500.00, 187500.00, 187500.00, -0.00, -0.00, -0.00
172, 138985.00, -123177.82, 187500.00, 60209.38, 140446.11, 187500.00, 187500.00, 187500.00, -0.00, -0.00, -0.00
173, 139701.34, -123379.99, 187500.00, 59847.78, 141008.86, 187500.00, 187500.00, 187500.00, -0.00, -0.00, -0.00
174, 140823.88, -125093.10, 187500.00, 58139.99, 142001.48, 187500.00, 187500.00, 187500.00, -0.00, -0.00, -0.00
175, 139980.61, -125314.89, 187500.00, 57773.67, 141288.19, 187500.00, 187500.00, 187500.00, -0.00, -0.00, -0.00
176, 138609.63, -123859.55, 187500.00, 58902.25, 140070.73, 187500.00, 187500.00, 187500.00, -0.00, -0.00, -0.00
177, 138925.56, -123627.36, 187500.00, 58931.22, 140280.89, 187500.00, 187500.00, 187500.00, -0.00, -0.00, -0.00
178, 140285.98, -125278.55, 187500.00, 57276.03, 141478.63, 187500.00, 187500.00, 187500.00, -0.00, -0.00, -0.00
179, 139737.58, -125909.85, 187500.00, 56538.89, 141030.52, 187500.00, 187500.00, 187500.00, -0.00, -0.00, -0.00
180, 138329.02, -124577.71, 187500.00, 57552.30, 139786.39, 187500.00, 187500.00, 187500.00, -0.00, -0.00, -0.00
181, 138213.50, -123934.74, 187500.00, 57947.52, 139597.84, 187500.00, 187500.00, 187500.00, -0.00, -0.00, -0.00
182, 139683.83, -125420.80, 187500.00, 56439.56, 140866.08, 187500.00, 187500.00, 187500.00, -0.00, -0.00, -0.00
183, 139491.28, -126435.30, 187500.00, 55363.17, 140718.22, 187500.00, 187500.00, 187500.00, -0.00, -0.00, -0.00
184, 138115.92, -125322.29, 187500.00, 56183.72, 139514.98, 187500.00, 187500.00, 187500.00, -0.00, -0.00, -0.00
185, 137596.89, -124328.22, 187500.00, 56893.77, 138989.94, 187500.00, 187500.00, 187500.00, -0.00, -0.00, -0.00
186, 139047.63, -125549.09, 187500.00, 55625.18, 140232.41, 187500.00, 187500.00, 187500.00, -0.00, -0.00, -0.00
187, 139250.95, -126882.76, 187500.00, 54265.14, 140430.33, 187500.00, 187500.00, 187500.00, -0.00, -0.00, -0.00
188, 137951.25, -126077.71, 187500.00, 54812.96, 139296.94, 187500.00, 187500.00, 187500.00, -0.00, -0.00, -0.00
189, 137087.95, -124821.37, 187500.00, 55761.14, 138478.84, 187500.00, 187500.00, 187500.00, -0.00, -0.00, -0.00
190, 138375.67, -125700.93, 187500.00, 54795.79, 139562.28, 187500.00, 187500.00, 187500.00, -0.00, -0.00, -0.00
191, 138983.77, -127267.27, 187500.00, 53224.17, 140116.00, 187500.00, 187500.00, 187500.00, -0.00, -0.00, -0.00
192, 137829.80, -126822.45, 187500.00, 53451.82, 139123.11, 187500.00, 187500.00, 187500.00, -0.00, -0.00, -0.00
193, 136711.89, -125398.63, 187500.00, 54551.04, 138101.92, 187500.00, 187500.00, 187500.00, -0.00, -0.00, -0.00
194, 137712.41, -125874.47, 187500.00, 53946.47, 138921.09, 187500.00, 187500.00, 187500.00, -0.00, -0.00, -0.00
195, 138688.13, -127567.88, 187500.00, 52259.50, 139788.56, 187500.00, 187500.00, 187500.00, -0.00, -0.00, -0.00
196, 137719.22, -127526.53, 187500.00, 52127.46, 138961.95, 187500.00, 187500.00, 187500.00, -0.00, -0.00, -0.00
197, 136432.67, -126050.53, 187500.00, 53273.68, 137805.92, 187500.00, 187500.00, 187500.00, -0.00, -0.00, -0.00
198, 137048.67, -126096.16, 187500.00, 53053.07, 138277.36, 187500.00, 187500.00, 187500.00, -0.00, -0.00, -0.00
199, 138321.48, -127801.66, 187500.00, 51348.53, 139396.11, 187500.00, 187500.00, 187500.00, -0.00, -0.00, -0.00
200, 137614.52, -128174.33, 187500.00, 50842.71, 138803.86, 187500.00, 187500.00, 187500.00, -0.00, -0.00, -0.00
201, 136240.84, -126750.97, 187500.00, 51938.52, 137589.41, 187500.00, 187500.00, 187500.00, -0.00, -0.00, -0.00
202, 136422.80, -126365.27, 187500.00, 52101.64, 137670.56, 187500.00, 187500.00, 187500.00, -0.00, -0.00, -0.00
203, 137873.83, -127971.82, 187500.00, 50486.20, 138932.69, 187500.00, 187500.00, 187500.00, -0.00, -0.00, -0.00
204, 137478.33, -128754.23, 187500.00, 49615.55, 138608.50, 187500.00, 187500.00, 187500.00, -0.00, -0.00, -0.00
205, 136088.97, -127495.62, 187500.00, 50566.06, 137388.75, 187500.00, 187500.00, 187500.00, -0.00, -0.00, -0.00
206, 135833.53, -126722.41, 187500.00, 51080.13, 137098.98, 187500.00, 187500.00, 187500.00, -0.00, -0.00, -0.00
207, 137332.64, -128127.37, 187500.00, 49647.54, 138391.45, 187500.00, 187500.00, 187500.00, -0.00, -0.00, -0.00
208, 137290.52, -129270.46, 187500.00, 48459.41, 138376.03, 187500.00, 187500.00, 187500.00, -0.00, -0.00, -0.00
209, 135937.20, -128265.19, 187500.00, 49188.77, 137198.98, 187500.00, 187500.00, 187500.00, -0.00, -0.00, -0.00
210, 135284.28, -127167.14, 187500.00, 49998.62, 136560.61, 187500.00, 187500.00, 187500.00, -0.00, -0.00, -0.00
211, 136692.77, -128271.47, 187500.00, 48835.97, 137761.34, 187500.00, 187500.00, 187500.00, -0.00, -0.00, -0.00
212, 137033.20, -129702.84, 187500.00, 47390.70, 138091.48, 187500.00, 187500.00, 187500.00, -0.00, -0.00, -0.00
213, 135773.16, -129023.92, 187500.00, 47833.04, 137003.94, 187500.00, 187500.00, 187500.00, -0.00, -0.00, -0.00
214, 134795.05, -127690.41, 187500.00, 48855.05, 136093.38, 187500.00, 187500.00, 187500.00, -0.00, -0.00, -0.00
215, 135967.94, -128421.97, 187500.00, 48025.31, 137072.66, 187500.00, 187500.00, 187500.00, -0.00, -0.00, -0.00
216, 136689.92, -130043.20, 187500.00, 46404.97, 137723.48, 187500.00, 187500.00, 187500.00, -0.00, -0.00, -0.00
217, 135561.22, -129741.05, 187500.00, 46506.69, 136756.33, 187500.00, 187500.00, 187500.00, -0.00, -0.00, -0.00
218, 134329.86, -128281.26, 187500.00, 47640.06, 135640.84, 187500.00, 187500.00, 187500.00, -0.00, -0.00, -0.00
219, 135148.05, -128593.05, 187500.00, 47184.78, 136294.09, 187500.00, 187500.00, 187500.00, -0.00, -0.00, -0.00
220, 136195.19, -130301.41, 187500.00, 45485.89, 137221.16, 187500.00, 187500.00, 187500.00, -0.00, -0.00, -0.00
221, 135267.52, -130411.96, 187500.00, 45222.36, 136432.14, 187500.00, 187500.00, 187500.00, -0.00, -0.00, -0.00
222, 133887.95, -128938.88, 187500.00, 46369.36, 135199.73, 187500.00, 187500.00, 187500.00, -0.00, -0.00, -0.00
223, 134282.97, -128816.48, 187500.00, 46303.74, 135473.81, 187500.00, 187500.00, 187500.00, -0.00, -0.00, -0.00
224, 135580.83, -130493.59, 187500.00, 44634.04, 136605.98, 187500.00, 187500.00, 187500.00, -0.00, -0.00, -0.00
225, 134928.80, -131019.98, 187500.00, 44001.82, 136057.23, 187500.00, 187500.00, 187500.00, -0.00, -0.00, -0.00
226, 133486.05, -129644.36, 187500.00, 45065.07, 134783.66, 187500.00, 187500.00, 187500.00, -0.00, -0.00, -0.00
227, 133443.11, -129101.37, 187500.00, 45376.75, 134673.70, 187500.00, 187500.00, 187500.00, -0.00, -0.00, -0.00
228, 134861.92, -130635.08, 187500.00, 43831.32, 135905.84, 187500.00, 187500.00, 187500.00, -0.00, -0.00, -0.00
229, 134530.52, -131551.72, 187500.00, 42848.18, 135639.75, 187500.00, 187500.00, 187500.00, -0.00, -0.00, -0.00
230, 133094.47, -130371.38, 187500.00, 43737.47, 134383.63, 187500.00, 187500.00, 187500.00, -0.00, -0.00, -0.00
231, 133445.50, -131350.72, 187500.00, 41801.40, 134499.45, 187500.00, 187500.00, 187500.00, -0.00, -0.00, -0.00
232, 133300.38, -132448.61, 187500.00, 40656.66, 134394.98, 187500.00, 187500.00, 187500.00, -0.00, -0.00, -0.00
233, 131892.97, -131405.05, 187500.00, 41423.84, 133164.36, 187500.00, 187500.00, 187500.00, -0.00, -0.00, -0.00
234, 131238.11, -130328.28, 187500.00, 42218.22, 132523.11, 187500.00, 187500.00, 187500.00, -0.00, -0.00, -0.00
235, 132621.59, -131460.48, 187500.00, 41035.48, 133703.19, 187500.00, 187500.00, 187500.00, -0.00, -0.00, -0.00
236, 132895.78, -132858.81, 187500.00, 39625.13, 133962.94, 187500.00, 187500.00, 187500.00, -0.00, -0.00, -0.00
237, 131606.23, -132137.16, 187500.00, 40106.92, 132842.69, 187500.00, 187500.00, 187500.00, -0.00, -0.00, -0.00
238, 130643.69, -130817.71, 187500.00, 41119.41, 131943.86, 187500.00, 187500.00, 187500.00, -0.00, -0.00, -0.00
239, 131830.42, -131586.53, 187500.00, 40263.70, 132931.44, 187500.00, 187500.00, 187500.00, -0.00, -0.00, -0.00
240, 132496.00, -133194.13, 187500.00, 38666.57, 133527.80, 187500.00, 187500.00, 187500.00, -0.00, -0.00, -0.00
241, 131342.20, -132853.11, 187500.00, 38812.44, 132537.30, 187500.00, 187500.00, 187500.00, -0.00, -0.00, -0.00
242, 130128.43, -131403.05, 187500.00, 39946.34, 131434.98, 187500.00, 187500.00, 187500.00, -0.00, -0.00, -0.00
243, 130981.35, -131761.39, 187500.00, 39459.37, 132121.17, 187500.00, 187500.00, 187500.00, -0.00, -0.00, -0.00
244, 131995.78, -133464.55, 187500.00, 37778.07, 133021.38, 187500.00, 187500.00, 187500.00, -0.00, -0.00, -0.00
245, 131051.49, -133530.61, 187500.00, 37561.93, 132219.06, 187500.00, 187500.00, 187500.00, -0.00, -0.00, -0.00
246, 129701.70, -132054.69, 187500.00, 38716.28, 131012.24, 187500.00, 187500.00, 187500.00, -0.00, -0.00, -0.00
247, 130165.85, -131978.64, 187500.00, 38616.46, 131343.63, 187500.00, 187500.00, 187500.00, -0.00, -0.00, -0.00
248, 131441.91, -133665.38, 187500.00, 36946.85, 132462.13, 187500.00, 187500.00, 187500.00, -0.00, -0.00, -0.00
249, 130755.27, -134151.52, 187500.00, 36360.41, 131886.86, 187500.00, 187500.00, 187500.00, -0.00, -0.00, -0.00
250, 129319.12, -132766.55, 187500.00, 37442.16, 130616.05, 187500.00, 187500.00, 187500.00, -0.00, -0.00, -0.00
251, 129319.52, -132271.50, 187500.00, 37721.38, 130540.80, 187500.00, 187500.00, 187500.00, -0.00, -0.00, -0.00
252, 130740.29, -133829.08, 187500.00, 36166.11, 131773.25, 187500.00, 187500.00, 187500.00, -0.00, -0.00, -0.00
253, 130385.43, -134707.80, 187500.00, 35224.20, 131481.77, 187500.00, 187500.00, 187500.00, -0.00, -0.00, -0.00
254, 128949.63, -133507.17, 187500.00, 36137.02, 130217.99, 187500.00, 187500.00, 187500.00, -0.00, -0.00, -0.00
255, 128525.25, -132634.48, 187500.00, 36753.55, 129771.79, 187500.00, 187500.00, 187500.00, -0.00, -0.00, -0.00
0, 129964.91, -133962.94, 187500.00, 35401.16, 131001.87, 187500.00, 187500.00, 187500.00, -0.00, -0.00, -0.00
1, 129978.12, -135189.25, 187500.00, 34149.87, 131033.66, 187500.00, 187500.00, 187500.00, -0.00, -0.00, -0.00
2, 128603.30, -134265.38, 187500.00, 34817.98, 129831.06, 187500.00, 187500.00, 187500.00, -0.00, -0.00, -0.00
3, 127819.14, -133093.61, 187500.00, 35700.29, 129065.09, 187500.00, 187500.00, 187500.00, -0.00, -0.00, -0.00
4, 129144.24, -134102.50, 187500.00, 34632.93, 130177.31, 187500.00, 187500.00, 187500.00, -0.00, -0.00, -0.00
5, 129567.09, -135592.77, 187500.00, 33142.56, 130563.93, 187500.00, 187500.00, 187500.00, -0.00, -0.00, -0.00
6, 128304.84, -135011.58, 187500.00, 33503.32, 129473.21, 187500.00, 187500.00, 187500.00, -0.00, -0.00, -0.00
7, 127216.73, -133633.13, 187500.00, 34571.29, 128465.73, 187500.00, 187500.00, 187500.00, -0.00, -0.00, -0.00
8, 128284.66, -134255.33, 187500.00, 33845.59, 129338.92, 187500.00, 187500.00, 187500.00, -0.00, -0.00, -0.00
9, 129090.80, -135914.06, 187500.00, 32201.29, 130059.43, 187500.00, 187500.00, 187500.00, -0.00, -0.00, -0.00
10, 128007.01, -135724.44, 187500.00, 32214.63, 129127.90, 187500.00, 187500.00, 187500.00, -0.00, -0.00, -0.00
11, 126725.36, -134255.28, 187500.00, 33367.00, 127965.68, 187500.00, 187500.00, 187500.00, -0.00, -0.00, -0.00
12, 127438.04, -134455.55, 187500.00, 33022.04, 128527.55, 187500.00, 187500.00, 187500.00, -0.00, -0.00, -0.00
13, 128572.75, -136169.66, 187500.00, 31327.11, 129530.73, 187500.00, 187500.00, 187500.00, -0.00, -0.00, -0.00
14, 127721.26, -136398.41, 187500.00, 30966.98, 128808.09, 187500.00, 187500.00, 187500.00, -0.00, -0.00, -0.00
15, 126322.20, -134949.33, 187500.00, 32104.97, 127560.38, 187500.00, 187500.00, 187500.00, -0.00, -0.00, -0.00
16, 126617.78, -134718.41, 187500.00, 32146.23, 127741.49, 187500.00, 187500.00, 187500.00, -0.00, -0.00, -0.00
17, 127979.53, -136374.42, 187500.00, 30503.11, 128929.17, 187500.00, 187500.00, 187500.00, -0.00, -0.00, -0.00
18, 127428.32, -137017.39, 187500.00, 29774.62, 128462.53, 187500.00, 187500.00, 187500.00, -0.00, -0.00, -0.00
19, 125989.65, -135696.78, 187500.00, 30797.39, 127191.32, 187500.00, 187500.00, 187500.00, -0.00, -0.00, -0.00
20, 125837.41, -135060.98, 187500.00, 31204.80, 126986.07, 187500.00, 187500.00, 187500.00, -0.00, -0.00, -0.00
21, 127306.77, -136552.61, 187500.00, 29709.49, 128254.44, 187500.00, 187500.00, 187500.00, -0.00, -0.00, -0.00
22, 127106.25, -137577.08, 187500.00, 28640.47, 128097.35, 187500.00, 187500.00, 187500.00, -0.00, -0.00, -0.00
23, 125689.73, -136475.02, 187500.00, 29469.61, 126855.71, 187500.00, 187500.00, 187500.00, -0.00, -0.00, -0.00
24, 125122.67, -135487.38, 187500.00, 30191.48, 126296.63, 187500.00, 187500.00, 187500.00, -0.00, -0.00, -0.00
25, 126549.49, -136712.41, 187500.00, 28935.63, 127517.86, 187500.00, 187500.00, 187500.00, -0.00, -0.00, -0.00
26, 126729.49, -138052.11, 187500.00, 27587.08, 127696.98, 187500.00, 187500.00, 187500.00, -0.00, -0.00, -0.00
27, 125386.40, -137252.47, 187500.00, 28148.91, 126529.71, 187500.00, 187500.00, 187500.00, -0.00, -0.00, -0.00
28, 124453.70, -135998.16, 187500.00, 29112.50, 125652.67, 187500.00, 187500.00, 187500.00, -0.00, -0.00, -0.00
29, 125677.77, -136880.11, 187500.00, 28162.04, 126677.55, 187500.00, 187500.00, 187500.00, -0.00, -0.00, -0.00
30, 126236.23, -138459.34, 187500.00, 26598.08, 127180.95, 187500.00, 187500.00, 187500.00, -0.00, -0.00, -0.00
31, 125014.45, -138030.80, 187500.00, 26830.38, 126123.83, 187500.00, 187500.00, 187500.00, -0.00, -0.00, -0.00
32, 123820.50, -136615.98, 187500.00, 27938.43, 125029.20, 187500.00, 187500.00, 187500.00, -0.00, -0.00, -0.00
33, 124758.02, -137094.11, 187500.00, 27348.10, 125787.55, 187500.00, 187500.00, 187500.00, -0.00, -0.00, -0.00
34, 125702.16, -138798.61, 187500.00, 25669.41, 126628.73, 187500.00, 187500.00, 187500.00, -0.00, -0.00, -0.00
35, 124676.64, -138776.36, 187500.00, 25538.68, 125745.95, 187500.00, 187500.00, 187500.00, -0.00, -0.00, -0.00
36, 123134.26, -137344.63, 187500.00, 26658.12, 124358.35, 187500.00, 187500.00, 187500.00, -0.00, -0.00, -0.00
37, 123569.40, -137415.48, 187500.00, 26430.06, 124668.15, 187500.00, 187500.00, 187500.00, -0.00, -0.00, -0.00
38, 124809.03, -139130.70, 187500.00, 24738.26, 125757.46, 187500.00, 187500.00, 187500.00, -0.00, -0.00, -0.00
39, 124067.91, -139520.59, 187500.00, 24237.98, 125130.34, 187500.00, 187500.00, 187500.00, -0.00, -0.00, -0.00
40, 122644.64, -138112.03, 187500.00, 25340.42, 123869.09, 187500.00, 187500.00, 187500.00, -0.00, -0.00, -0.00
41, 122781.30, -137732.83, 187500.00, 25518.65, 123922.49, 187500.00, 187500.00, 187500.00, -0.00, -0.00, -0.00
42, 124219.81, -139344.88, 187500.00, 23919.70, 125183.38, 187500.00, 187500.00, 187500.00, -0.00, -0.00, -0.00
43, 123803.70, -140137.00, 187500.00, 23061.81, 124848.57, 187500.00, 187500.00, 187500.00, -0.00, -0.00, -0.00
44, 122373.70, -138888.23, 187500.00, 24024.79, 123596.94, 187500.00, 187500.00, 187500.00, -0.00, -0.00, -0.00
45, 122079.16, -138119.22, 187500.00, 24555.51, 123275.88, 187500.00, 187500.00, 187500.00, -0.00, -0.00, -0.00
46, 123569.52, -139528.14, 187500.00, 23137.81, 124569.38, 187500.00, 187500.00, 187500.00, -0.00, -0.00, -0.00
47, 123528.66, -140679.50, 187500.00, 21957.62, 124563.01, 187500.00, 187500.00, 187500.00, -0.00, -0.00, -0.00
48, 122149.17, -139684.23, 187500.00, 22694.69, 123368.77, 187500.00, 187500.00, 187500.00, -0.00, -0.00, -0.00
49, 121466.17, -138589.73, 187500.00, 23514.91, 122708.01, 187500.00, 187500.00, 187500.00, -0.00, -0.00, -0.00
50, 122871.85, -139698.64, 187500.00, 22363.43, 123904.90, 187500.00, 187500.00, 187500.00, -0.00, -0.00, -0.00
51, 123224.47, -141140.27, 187500.00, 20922.35, 124240.18, 187500.00, 187500.00, 187500.00, -0.00, -0.00, -0.00
52, 121943.27, -140471.20, 187500.00, 21367.24, 123134.03, 187500.00, 187500.00, 187500.00, -0.00, -0.00, -0.00
53, 120934.24, -139144.88, 187500.00, 22396.09, 122190.99, 187500.00, 187500.00, 187500.00, -0.00, -0.00, -0.00
54, 122104.47, -139882.83, 187500.00, 21575.33, 123161.70, 187500.00, 187500.00, 187500.00, -0.00, -0.00, -0.00
55, 122846.73, -141516.75, 187500.00, 19960.62, 123825.40, 187500.00, 187500.00, 187500.00, -0.00, -0.00, -0.00
56, 121715.46, -141227.30, 187500.00, 20067.91, 122847.55, 187500.00, 187500.00, 187500.00, -0.00, -0.00, -0.00
57, 120459.94, -139773.33, 187500.00, 21210.98, 121708.73, 187500.00, 187500.00, 187500.00, -0.00, -0.00, -0.00
58, 121277.32, -140090.84, 187500.00, 20763.74, 122368.06, 187500.00, 187500.00, 187500.00, -0.00, -0.00, -0.00
59, 122352.35, -141808.73, 187500.00, 19069.14, 123322.80, 187500.00, 187500.00, 187500.00, -0.00, -0.00, -0.00
60, 121432.73, -141930.33, 187500.00, 18808.43, 122541.00, 187500.00, 187500.00, 187500.00, -0.00, -0.00, -0.00
61, 120034.95, -140465.27, 187500.00, 19960.51, 121291.91, 187500.00, 187500.00, 187500.00, -0.00, -0.00, -0.00
62, 120426.48, -140350.31, 187500.00, 19900.79, 121568.38, 187500.00, 187500.00, 187500.00, -0.00, -0.00, -0.00
63, 121741.30, -142038.89, 187500.00, 18232.79, 122724.39, 187500.00, 187500.00, 187500.00, -0.00, -0.00, -0.00
64, 121099.38, -142579.38, 187500.00, 17598.27, 122182.59, 187500.00, 187500.00, 187500.00, -0.00, -0.00, -0.00
65, 119639.18, -141213.31, 187500.00, 18663.59, 120887.77, 187500.00, 187500.00, 187500.00, -0.00, -0.00, -0.00
66, 119593.90, -140681.73, 187500.00, 18976.76, 120774.36, 187500.00, 187500.00, 187500.00, -0.00, -0.00, -0.00
67, 121056.06, -142233.22, 187500.00, 17431.01, 122043.11, 187500.00, 187500.00, 187500.00, -0.00, -0.00, -0.00
68, 120751.74, -143166.00, 187500.00, 16448.65, 121800.82, 187500.00, 187500.00, 187500.00, -0.00, -0.00, -0.00
69, 119301.34, -141997.03, 187500.00, 17340.66, 120522.77, 187500.00, 187500.00, 187500.00, -0.00, -0.00, -0.00
70, 118819.97, -141091.78, 187500.00, 17990.70, 120026.05, 187500.00, 187500.00, 187500.00, -0.00, -0.00, -0.00
71, 120272.01, -142394.73, 187500.00, 16662.85, 121277.27, 187500.00, 187500.00, 187500.00, -0.00, -0.00, -0.00
72, 120347.31, -143660.83, 187500.00, 15376.90, 121374.53, 187500.00, 187500.00, 187500.00, -0.00, -0.00, -0.00
73, 118963.34, -142775.09, 187500.00, 16014.62, 120170.17, 187500.00, 187500.00, 187500.00, -0.00, -0.00, -0.00
74, 118112.49, -141579.00, 187500.00, 16927.18, 119361.87, 187500.00, 187500.00, 187500.00, -0.00, -0.00, -0.00
75, 119420.38, -142556.27, 187500.00, 15891.44, 120460.86, 187500.00, 187500.00, 187500.00, -0.00, -0.00, -0.00
76, 119900.07, -144081.06, 187500.00, 14374.43, 120897.97, 187500.00, 187500.00, 187500.00, -0.00, -0.00, -0.00
77, 118641.05, -143545.36, 187500.00, 14700.43, 119808.16, 187500.00, 187500.00, 187500.00, -0.00, -0.00, -0.00
78, 117502.70, -142155.41, 187500.00, 15787.91, 118757.48, 187500.00, 187500.00, 187500.00, -0.00, -0.00, -0.00
79, 118534.38, -142739.67, 187500.00, 15104.19, 119610.82, 187500.00, 187500.00, 187500.00, -0.00, -0.00, -0.00
80, 119397.49, -144418.61, 187500.00, 13447.77, 120381.77, 187500.00, 187500.00, 187500.00, -0.00, -0.00, -0.00
81, 118321.75, -144275.55, 187500.00, 13422.54, 119454.63, 187500.00, 187500.00, 187500.00, -0.00, -0.00, -0.00
82, 116986.97, -142798.86, 187500.00, 14585.23, 118252.81, 187500.00, 187500.00, 187500.00, -0.00, -0.00, -0.00
83, 117648.63, -142954.52, 187500.00, 14283.35, 118764.11, 187500.00, 187500.00, 187500.00, -0.00, -0.00, -0.00
84, 118827.75, -144674.95, 187500.00, 12588.14, 119798.55, 187500.00, 187500.00, 187500.00, -0.00, -0.00, -0.00
85, 118002.12, -144952.56, 187500.00, 12190.86, 119093.82, 187500.00, 187500.00, 187500.00, -0.00, -0.00, -0.00
86, 116569.40, -143510.69, 187500.00, 13326.85, 117817.45, 187500.00, 187500.00, 187500.00, -0.00, -0.00, -0.00
87, 116804.63, -143236.61, 187500.00, 13413.24, 117960.66, 187500.00, 187500.00, 187500.00, -0.00, -0.00, -0.00
88, 118207.48, -144888.97, 187500.00, 11780.13, 119189.55, 187500.00, 187500.00, 187500.00, -0.00, -0.00, -0.00
89, 117700.57, -145583.14, 187500.00, 11013.15, 118768.12, 187500.00, 187500.00, 187500.00, -0.00, -0.00, -0.00
90, 116245.48, -144279.20, 187500.00, 12027.09, 117491.16, 187500.00, 187500.00, 187500.00, -0.00, -0.00, -0.00
91, 116047.37, -143603.06, 187500.00, 12476.14, 117249.47, 187500.00, 187500.00, 187500.00, -0.00, -0.00, -0.00
92, 117544.63, -145075.78, 187500.00, 11003.63, 118546.36, 187500.00, 187500.00, 187500.00, -0.00, -0.00, -0.00
93, 117402.51, -146141.67, 187500.00, 9903.61, 118442.11, 187500.00, 187500.00, 187500.00, -0.00, -0.00, -0.00
94, 115986.84, -145069.44, 187500.00, 10712.72, 117210.42, 187500.00, 187500.00, 187500.00, -0.00, -0.00, -0.00
95, 115383.12, -144046.28, 187500.00, 11473.08, 116614.12, 187500.00, 187500.00, 187500.00, -0.00, -0.00, -0.00
96, 116833.41, -145242.17, 187500.00, 10246.84, 117842.86, 187500.00, 187500.00, 187500.00, -0.00, -0.00, -0.00
97, 117079.64, -146616.52, 187500.00, 8871.97, 118078.63, 187500.00, 187500.00, 187500.00, -0.00, -0.00, -0.00
98, 115742.72, -145850.64, 187500.00, 9409.32, 116930.78, 187500.00, 187500.00, 187500.00, -0.00, -0.00, -0.00
99, 114781.32, -144565.92, 187500.00, 10403.82, 116048.53, 187500.00, 187500.00, 187500.00, -0.00, -0.00, -0.00
100, 116021.95, -145403.66, 187500.00, 9494.86, 117099.13, 187500.00, 187500.00, 187500.00, -0.00, -0.00, -0.00
101, 116666.70, -146997.72, 187500.00, 7918.57, 117693.42, 187500.00, 187500.00, 187500.00, -0.00, -0.00, -0.00
102, 115485.63, -146598.92, 187500.00, 8125.62, 116679.81, 187500.00, 187500.00, 187500.00, -0.00, -0.00, -0.00
103, 114284.04, -145158.44, 187500.00, 9259.72, 115583.68, 187500.00, 187500.00, 187500.00, -0.00, -0.00, -0.00
104, 115219.41, -145586.81, 187500.00, 8716.98, 116343.48, 187500.00, 187500.00, 187500.00, -0.00, -0.00, -0.00
105, 116230.30, -147293.16, 187500.00, 7036.87, 117247.21, 187500.00, 187500.00, 187500.00, -0.00, -0.00, -0.00
106, 115243.63, -147298.97, 187500.00, 6882.75, 116416.29, 187500.00, 187500.00, 187500.00, -0.00, -0.00, -0.00
107, 113868.97, -145818.91, 187500.00, 8051.03, 115189.66, 187500.00, 187500.00, 187500.00, -0.00, -0.00, -0.00
108, 114393.41, -145815.84, 187500.00, 7894.05, 115588.33, 187500.00, 187500.00, 187500.00, -0.00, -0.00, -0.00
109, 115682.37, -147526.02, 187500.00, 6210.75, 116727.66, 187500.00, 187500.00, 187500.00, -0.00, -0.00, -0.00
110, 114966.22, -147953.28, 187500.00, 5683.40, 116133.36, 187500.00, 187500.00, 187500.00, -0.00, -0.00, -0.00
111, 113514.41, -146543.31, 187500.00, 6794.13, 114850.97, 187500.00, 187500.00, 187500.00, -0.00, -0.00, -0.00
112, 113593.44, -146115.67, 187500.00, 7022.81, 114851.77, 187500.00, 187500.00, 187500.00, -0.00, -0.00, -0.00
113, 115053.41, -147714.77, 187500.00, 5438.81, 116129.36, 187500.00, 187500.00, 187500.00, -0.00, -0.00, -0.00
114, 114666.44, -148543.23, 187500.00, 4549.83, 115821.88, 187500.00, 187500.00, 187500.00, -0.00, -0.00, -0.00
115, 113209.26, -147305.72, 187500.00, 5504.07, 114540.70, 187500.00, 187500.00, 187500.00, -0.00, -0.00, -0.00
116, 112859.23, -146495.23, 187500.00, 6074.40, 114158.55, 187500.00, 187500.00, 187500.00, -0.00, -0.00, -0.00
117, 114364.71, -147881.58, 187500.00, 4682.31, 115454.58, 187500.00, 187500.00, 187500.00, -0.00, -0.00, -0.00
118, 114359.14, -149065.80, 187500.00, 3479.79, 115471.21, 187500.00, 187500.00, 187500.00, -0.00, -0.00, -0.00
119, 112957.87, -148087.19, 187500.00, 4205.61, 114246.31, 187500.00, 187500.00, 187500.00, -0.00, -0.00, -0.00
120, 112214.16, -146955.88, 187500.00, 5062.80, 113526.00, 187500.00, 187500.00, 187500.00, -0.00, -0.00, -0.00
121, 113610.31, -148033.14, 187500.00, 3944.37, 114711.85, 187500.00, 187500.00, 187500.00, -0.00, -0.00, -0.00
122, 114008.78, -149497.67, 187500.00, 2485.60, 115081.62, 187500.00, 187500.00, 187500.00, -0.00, -0.00, -0.00
123, 112717.85, -148855.61, 187500.00, 2909.03, 113962.96, 187500.00, 187500.00, 187500.00, -0.00, -0.00, -0.00
124, 111651.32, -147501.86, 187500.00, 3965.40, 112979.10, 187500.00, 187500.00, 187500.00, -0.00, -0.00, -0.00
125, 112799.17, -148202.20, 187500.00, 3179.36, 113933.70, 187500.00, 187500.00, 187500.00, -0.00, -0.00, -0.00
126, 113592.43, -149856.34, 187500.00, 1550.79, 114646.98, 187500.00, 187500.00, 187500.00, -0.00, -0.00, -0.00
127, 112466.89, -149602.17, 187500.00, 1632.66, 113681.17, 187500.00, 187500.00, 187500.00, -0.00, -0.00, -0.00
128, 111179.14, -148138.64, 187500.00, 2790.41, 112518.74, 187500.00, 187500.00, 187500.00, -0.00, -0.00, -0.00
129, 111982.28, -148425.03, 187500.00, 2378.58, 113159.75, 187500.00, 187500.00, 187500.00, -0.00, -0.00, -0.00
130, 113111.11, -150157.58, 187500.00, 680.81, 114155.85, 187500.00, 187500.00, 187500.00, -0.00, -0.00, -0.00
131, 112202.49, -150322.03, 187500.00, 390.80, 113382.48, 187500.00, 187500.00, 187500.00, -0.00, -0.00, -0.00
132, 110774.88, -148860.52, 187500.00, 1549.65, 112108.14, 187500.00, 187500.00, 187500.00, -0.00, -0.00, -0.00
133, 111145.79, -148712.55, 187500.00, 1528.84, 112360.70, 187500.00, 187500.00, 187500.00, -0.00, -0.00, -0.00
134, 112524.34, -150404.48, 187500.00, -133.62, 113572.30, 187500.00, 187500.00, 187500.00, -0.00, -0.00, -0.00
135, 111929.06, -150983.88, 187500.00, -791.72, 113075.82, 187500.00, 187500.00, 187500.00, -0.00, -0.00, -0.00
136, 110466.23, -149627.72, 187500.00, 275.31, 111784.78, 187500.00, 187500.00, 187500.00, -0.00, -0.00, -0.00
137, 110386.50, -149062.27, 187500.00, 632.08, 111646.31, 187500.00, 187500.00, 187500.00, -0.00, -0.00, -0.00
138, 111891.20, -150603.80, 187500.00, -894.11, 112959.23, 187500.00, 187500.00, 187500.00, -0.00, -0.00, -0.00
139, 111648.88, -151574.38, 187500.00, -1902.22, 112773.60, 187500.00, 187500.00, 187500.00, -0.00, -0.00, -0.00
140, 110198.97, -150422.47, 187500.00, -1019.44, 111502.34, 187500.00, 187500.00, 187500.00, -0.00, -0.00, -0.00
141, 109691.65, -149488.23, 187500.00, -334.90, 110986.71, 187500.00, 187500.00, 187500.00, -0.00, -0.00, -0.00
142, 111179.09, -150778.41, 187500.00, -1637.85, 112267.24, 187500.00, 187500.00, 187500.00, -0.00, -0.00, -0.00
143, 111326.70, -152080.34, 187500.00, -2942.90, 112420.35, 187500.00, 187500.00, 187500.00, -0.00, -0.00, -0.00
144, 109958.40, -151219.92, 187500.00, -2319.93, 111228.22, 187500.00, 187500.00, 187500.00, -0.00, -0.00, -0.00
145, 109081.67, -149997.45, 187500.00, -1377.47, 110400.83, 187500.00, 187500.00, 187500.00, -0.00, -0.00, -0.00
146, 110400.27, -150947.58, 187500.00, -2381.44, 111515.95, 187500.00, 187500.00, 187500.00, -0.00, -0.00, -0.00
147, 110946.45, -152497.59, 187500.00, -3914.62, 112016.19, 187500.00, 187500.00, 187500.00, -0.00, -0.00, -0.00
148, 109704.17, -151991.81, 187500.00, -3607.55, 110942.08, 187500.00, 187500.00, 187500.00, -0.00, -0.00, -0.00
149, 108542.64, -150583.34, 187500.00, -2498.05, 109873.75, 187500.00, 187500.00, 187500.00, -0.00, -0.00, -0.00
150, 109572.78, -151136.48, 187500.00, -3147.04, 110729.15, 187500.00, 187500.00, 187500.00, -0.00, -0.00, -0.00
151, 110506.41, -152834.78, 187500.00, -4811.41, 111570.83, 187500.00, 187500.00, 187500.00, -0.00, -0.00, -0.00
152, 109445.23, -152732.08, 187500.00, -4862.67, 110660.82, 187500.00, 187500.00, 187500.00, -0.00, -0.00, -0.00
153, 108086.20, -151251.41, 187500.00, -3688.40, 109430.85, 187500.00, 187500.00, 187500.00, -0.00, -0.00, -0.00
154, 108731.58, -151371.66, 187500.00, -3950.67, 109926.41, 187500.00, 187500.00, 187500.00, -0.00, -0.00, -0.00
155, 109978.02, -153100.66, 187500.00, -5645.85, 111028.87, 187500.00, 187500.00, 187500.00, -0.00, -0.00, -0.00
156, 109194.13, -153417.16, 187500.00, -6072.83, 110364.77, 187500.00, 187500.00, 187500.00, -0.00, -0.00, -0.00
157, 107742.42, -151974.58, 187500.00, -4933.95, 109076.24, 187500.00, 187500.00, 187500.00, -0.00, -0.00, -0.00
158, 107943.90, -151659.06, 187500.00, -4808.02, 109185.97, 187500.00, 187500.00, 187500.00, -0.00, -0.00, -0.00
159, 109391.80, -153303.92, 187500.00, -6432.09, 110452.66, 187500.00, 187500.00, 187500.00, -0.00, -0.00, -0.00
160, 108917.21, -154032.03, 187500.00, -7225.78, 110069.30, 187500.00, 187500.00, 187500.00, -0.00, -0.00, -0.00
161, 107431.27, -152736.64, 187500.00, -6214.05, 108760.88, 187500.00, 187500.00, 187500.00, -0.00, -0.00, -0.00
162, 107172.79, -152019.89, 187500.00, -5726.02, 108451.63, 187500.00, 187500.00, 187500.00, -0.00, -0.00, -0.00
163, 108682.98, -153477.20, 187500.00, -7178.91, 109754.98, 187500.00, 187500.00, 187500.00, -0.00, -0.00, -0.00
164, 108576.26, -154576.52, 187500.00, -8301.91, 109690.00, 187500.00, 187500.00, 187500.00, -0.00, -0.00, -0.00
165, 107128.13, -153517.41, 187500.00, -7500.93, 108425.96, 187500.00, 187500.00, 187500.00, -0.00, -0.00, -0.00
166, 106450.27, -152459.28, 187500.00, -6704.96, 107763.66, 187500.00, 187500.00, 187500.00, -0.00, -0.00, -0.00
167, 107897.25, -153627.06, 187500.00, -7900.92, 108996.27, 187500.00, 187500.00, 187500.00, -0.00, -0.00, -0.00
168, 108200.90, -155031.41, 187500.00, -9297.74, 109281.77, 187500.00, 187500.00, 187500.00, -0.00, -0.00, -0.00
169, 106850.27, -154294.91, 187500.00, -8783.39, 108108.81, 187500.00, 187500.00, 187500.00, -0.00, -0.00, -0.00
170, 105824.06, -152986.80, 187500.00, -7764.44, 107149.01, 187500.00, 187500.00, 187500.00, -0.00, -0.00, -0.00
171, 107039.55, -153794.23, 187500.00, -8640.54, 108173.52, 187500.00, 187500.00, 187500.00, -0.00, -0.00, -0.00
172, 107741.23, -155411.94, 187500.00, -10232.34, 108811.66, 187500.00, 187500.00, 187500.00, -0.00, -0.00, -0.00
173, 106547.95, -155051.00, 187500.00, -10052.96, 107781.09, 187500.00, 187500.00, 187500.00, -0.00, -0.00, -0.00
174, 105276.80, -153598.20, 187500.00, -8901.49, 106614.91, 187500.00, 187500.00, 187500.00, -0.00, -0.00, -0.00
175, 106162.04, -153989.03, 187500.00, -9401.81, 107327.95, 187500.00, 187500.00, 187500.00, -0.00, -0.00, -0.00
176, 107221.45, -155713.06, 187500.00, -11086.22, 108275.60, 187500.00, 187500.00, 187500.00, -0.00, -0.00, -0.00
177, 106247.74, -155766.22, 187500.00, -11271.89, 107443.85, 187500.00, 187500.00, 187500.00, -0.00, -0.00, -0.00
178, 104812.98, -154284.70, 187500.00, -10094.34, 106160.39, 187500.00, 187500.00, 187500.00, -0.00, -0.00, -0.00
179, 105271.23, -154241.38, 187500.00, -10207.68, 106496.09, 187500.00, 187500.00, 187500.00, -0.00, -0.00, -0.00
180, 106610.87, -155954.53, 187500.00, -11886.28, 107654.98, 187500.00, 187500.00, 187500.00, -0.00, -0.00, -0.00
181, 105918.61, -156430.95, 187500.00, -12451.53, 107055.20, 187500.00, 187500.00, 187500.00, -0.00, -0.00, -0.00
182, 104405.95, -155032.95, 187500.00, -11347.58, 105713.53, 187500.00, 187500.00, 187500.00, -0.00, -0.00, -0.00
183, 104409.11, -154563.83, 187500.00, -11078.51, 105644.31, 187500.00, 187500.00, 187500.00, -0.00, -0.00, -0.00
184, 105893.87, -156154.94, 187500.00, -12649.75, 106932.89, 187500.00, 187500.00, 187500.00, -0.00, -0.00, -0.00
185, 105547.98, -157034.08, 187500.00, -13573.74, 106647.57, 187500.00, 187500.00, 187500.00, -0.00, -0.00, -0.00
186, 104051.23, -155822.25, 187500.00, -12632.58, 105327.49, 187500.00, 187500.00, 187500.00, -0.00, -0.00, -0.00
187, 103610.48, -154974.47, 187500.00, -12021.53, 104865.28, 187500.00, 187500.00, 187500.00, -0.00, -0.00, -0.00
188, 105105.45, -156339.41, 187500.00, -13388.45, 106148.59, 187500.00, 187500.00, 187500.00, -0.00, -0.00, -0.00
189, 105146.24, -157568.53, 187500.00, -14624.66, 106201.47, 187500.00, 187500.00, 187500.00, -0.00, -0.00, -0.00
190, 103721.10, -156628.09, 187500.00, -13924.00, 104954.76, 187500.00, 187500.00, 187500.00, -0.00, -0.00, -0.00
191, 102895.91, -155469.14, 187500.00, -13032.12, 104163.17, 187500.00, 187500.00, 187500.00, -0.00, -0.00, -0.00
192, 104259.09, -156516.75, 187500.00, -14115.46, 105316.79, 187500.00, 187500.00, 187500.00, -0.00, -0.00, -0.00
193, 104700.30, -157994.66, 187500.00, -15598.10, 105731.28, 187500.00, 187500.00, 187500.00, -0.00, -0.00, -0.00
194, 103387.90, -157353.75, 187500.00, -15204.26, 104601.22, 187500.00, 187500.00, 187500.00, -0.00, -0.00, -0.00
195, 102245.01, -155980.95, 187500.00, -14123.91, 103537.73, 187500.00, 187500.00, 187500.00, -0.00, -0.00, -0.00
196, 103336.88, -156644.08, 187500.00, -14865.41, 104437.31, 187500.00, 187500.00, 187500.00, -0.00, -0.00, -0.00
197, 104161.95, -158268.30, 187500.00, -16510.50, 105180.69, 187500.00, 187500.00, 187500.00, -0.00, -0.00, -0.00
198, 103022.95, -157955.09, 187500.00, -16475.04, 104201.51, 187500.00, 187500.00, 187500.00, -0.00, -0.00, -0.00
199, 101672.83, -156461.78, 187500.00, -15307.30, 102978.62, 187500.00, 187500.00, 187500.00, -0.00, -0.00, -0.00
200, 102402.81, -156698.17, 187500.00, -15668.48, 103548.88, 187500.00, 187500.00, 187500.00, -0.00, -0.00, -0.00
201, 103563.77, -158384.14, 187500.00, -17370.32, 104571.59, 187500.00, 187500.00, 187500.00, -0.00, -0.00, -0.00
202, 102668.06, -158464.05, 187500.00, -17708.59, 103807.17, 187500.00, 187500.00, 187500.00, -0.00, -0.00, -0.00
203, 101193.95, -156953.14, 187500.00, -16552.40, 102489.77, 187500.00, 187500.00, 187500.00, -0.00, -0.00, -0.00
204, 101492.43, -156752.16, 187500.00, -16521.29, 102676.83, 187500.00, 187500.00, 187500.00, -0.00, -0.00, -0.00
205, 102892.43, -158393.89, 187500.00, -18174.49, 103906.95, 187500.00, 187500.00, 187500.00, -0.00, -0.00, -0.00
206, 102319.45, -158886.05, 187500.00, -18886.26, 103425.05, 187500.00, 187500.00, 187500.00, -0.00, -0.00, -0.00
207, 100821.61, -157464.95, 187500.00, -17839.96, 102090.78, 187500.00, 187500.00, 187500.00, -0.00, -0.00, -0.00
208, 100670.29, -156850.34, 187500.00, -17440.10, 101880.23, 187500.00, 187500.00, 187500.00, -0.00, -0.00, -0.00
209, 102177.51, -158345.09, 187500.00, -18950.01, 103189.95, 187500.00, 187500.00, 187500.00, -0.00, -0.00, -0.00
210, 101962.27, -159231.55, 187500.00, -20005.46, 103031.13, 187500.00, 187500.00, 187500.00, -0.00, -0.00, -0.00
211, 100486.53, -157985.95, 187500.00, -19154.35, 101734.05, 187500.00, 187500.00, 187500.00, -0.00, -0.00, -0.00
212, 99909.68, -156993.75, 187500.00, -18434.15, 101159.70, 187500.00, 187500.00, 187500.00, -0.00, -0.00, -0.00
213, 101390.68, -158236.98, 187500.00, -19708.38, 102433.64, 187500.00, 187500.00, 187500.00, -0.00, -0.00, -0.00
214, 101596.21, -159460.36, 187500.00, -21053.29, 102635.98, 187500.00, 187500.00, 187500.00, -0.00, -0.00, -0.00
215, 100228.03, -158488.72, 187500.00, -20470.17, 101444.57, 187500.00, 187500.00, 187500.00, -0.00, -0.00, -0.00
216, 99298.13, -157188.55, 187500.00, -19502.48, 100571.23, 187500.00, 187500.00, 187500.00, -0.00, -0.00, -0.00
217, 100599.37, -158092.70, 187500.00, -20467.31, 101670.59, 187500.00, 187500.00, 187500.00, -0.00, -0.00, -0.00
218, 101206.48, -159571.00, 187500.00, -22028.65, 102226.59, 187500.00, 187500.00, 187500.00, -0.00, -0.00, -0.00
219, 99975.57, -158958.89, 187500.00, -21774.44, 101166.56, 187500.00, 187500.00, 187500.00, -0.00, -0.00, -0.00
220, 98775.13, -157460.17, 187500.00, -20654.11, 100069.78, 187500.00, 187500.00, 187500.00, -0.00, -0.00, -0.00
221, 99778.95, -157957.45, 187500.00, -21256.82, 100892.48, 187500.00, 187500.00, 187500.00, -0.00, -0.00, -0.00
222, 100775.41, -159579.69, 187500.00, -22938.16, 101785.55, 187500.00, 187500.00, 187500.00, -0.00, -0.00, -0.00
223, 99761.80, -159368.41, 187500.00, -23041.85, 100917.34, 187500.00, 187500.00, 187500.00, -0.00, -0.00, -0.00
224, 98387.03, -157788.30, 187500.00, -21869.44, 99677.73, 187500.00, 187500.00, 187500.00, -0.00, -0.00, -0.00
225, 98984.67, -157847.72, 187500.00, -22084.75, 100140.93, 187500.00, 187500.00, 187500.00, -0.00, -0.00, -0.00
226, 100275.13, -159494.58, 187500.00, -23785.54, 101275.51, 187500.00, 187500.00, 187500.00, -0.00, -0.00, -0.00
227, 99525.09, -159709.73, 187500.00, -24269.41, 100642.03, 187500.00, 187500.00, 187500.00, -0.00, -0.00, -0.00
228, 98056.63, -158163.84, 187500.00, -23146.77, 99342.48, 187500.00, 187500.00, 187500.00, -0.00, -0.00, -0.00
229, 98208.42, -157783.78, 187500.00, -22974.62, 99406.74, 187500.00, 187500.00, 187500.00, -0.00, -0.00, -0.00
230, 99674.45, -159343.88, 187500.00, -24588.26, 100695.34, 187500.00, 187500.00, 187500.00, -0.00, -0.00, -0.00
231, 99252.09, -159969.11, 187500.00, -25436.33, 100352.27, 187500.00, 187500.00, 187500.00, -0.00, -0.00, -0.00
232, 97774.38, -158563.00, 187500.00, -24456.92, 99051.38, 187500.00, 187500.00, 187500.00, -0.00, -0.00, -0.00
233, 97473.52, -157769.30, 187500.00, -23931.92, 98710.53, 187500.00, 187500.00, 187500.00, -0.00, -0.00, -0.00
234, 98993.34, -159134.45, 187500.00, -25363.02, 100030.20, 187500.00, 187500.00, 187500.00, -0.00, -0.00, -0.00
235, 98937.63, -160126.64, 187500.00, -26535.81, 100014.62, 187500.00, 187500.00, 187500.00, -0.00, -0.00, -0.00
236, 97501.19, -158958.45, 187500.00, -25777.69, 98759.70, 187500.00, 187500.00, 187500.00, -0.00, -0.00, -0.00
237, 96786.20, -157815.61, 187500.00, -24952.64, 98061.30, 187500.00, 187500.00, 187500.00, -0.00, -0.00, -0.00
238, 98210.19, -158898.08, 187500.00, -26117.23, 99276.39, 187500.00, 187500.00, 187500.00, -0.00, -0.00, -0.00
239, 98560.02, -160188.42, 187500.00, -27552.30, 99603.17, 187500.00, 187500.00, 187500.00, -0.00, -0.00, -0.00
240, 97224.63, -159339.05, 187500.00, -27086.83, 98443.36, 187500.00, 187500.00, 187500.00, -0.00, -0.00, -0.00
241, 96163.41, -157934.88, 187500.00, -26051.52, 97454.52, 187500.00, 187500.00, 187500.00, -0.00, -0.00, -0.00
242, 97349.06, -158659.03, 187500.00, -26884.92, 98447.05, 187500.00, 187500.00, 187500.00, -0.00, -0.00, -0.00
243, 98099.88, -160163.77, 187500.00, -28502.21, 99121.24, 187500.00, 187500.00, 187500.00, -0.00, -0.00, -0.00
244, 96926.17, -159693.50, 187500.00, -28376.52, 98107.97, 187500.00, 187500.00, 187500.00, -0.00, -0.00, -0.00
245, 95622.46, -158135.95, 187500.00, -27222.37, 96920.70, 187500.00, 187500.00, 187500.00, -0.00, -0.00, -0.00
246, 96454.79, -158444.52, 187500.00, -27676.13, 97591.20, 187500.00, 187500.00, 187500.00, -0.00, -0.00, -0.00
247, 97546.14, -160049.14, 187500.00, -29372.36, 98563.10, 187500.00, 187500.00, 187500.00, -0.00, -0.00, -0.00
248, 96593.10, -159992.08, 187500.00, -29615.66, 97746.90, 187500.00, 187500.00, 187500.00, -0.00, -0.00, -0.00
249, 95136.11, -158400.23, 187500.00, -28447.20, 96443.35, 187500.00, 187500.00, 187500.00, -0.00, -0.00, -0.00
250, 95537.59, -158274.63, 187500.00, -28512.60, 96726.52, 187500.00, 187500.00, 187500.00, -0.00, -0.00, -0.00
251, 96883.16, -159870.94, 187500.00, -30188.60, 97913.22, 187500.00, 187500.00, 187500.00, -0.00, -0.00, -0.00
252, 96226.09, -160235.88, 187500.00, -30806.22, 97359.79, 187500.00, 187500.00, 187500.00, -0.00, -0.00, -0.00
253, 94718.89, -158717.97, 187500.00, -29721.11, 96014.24, 187500.00, 187500.00, 187500.00, -0.00, -0.00, -0.00
254, 94673.27, -158158.13, 187500.00, -29406.71, 95892.71, 187500.00, 187500.00, 187500.00, -0.00, -0.00, -0.00
255, 96166.14, -159630.34, 187500.00, -30958.51, 97194.08, 187500.00, 187500.00, 187500.00, -0.00, -0.00, -0.00
0, 95862.00, -160393.08, 187500.00, -31927.77, 96950.89, 187500.00, 187500.00, 187500.00, -0.00, -0.00, -0.00
1, 94363.14, -159058.41, 187500.00, -31015.44, 95627.29, 187500.00, 187500.00, 187500.00, -0.00, -0.00, -0.00
2, 93866.20, -158109.39, 187500.00, -30363.46, 95116.93, 187500.00, 187500.00, 187500.00, -0.00, -0.00, -0.00
3, 95349.27, -159359.97, 187500.00, -31701.34, 96394.27, 187500.00, 187500.00, 187500.00, -0.00, -0.00, -0.00
4, 95428.65, -160467.19, 187500.00, -32977.61, 96490.55, 187500.00, 187500.00, 187500.00, -0.00, -0.00, -0.00
5, 93994.98, -159404.59, 187500.00, -32317.43, 95240.29, 187500.00, 187500.00, 187500.00, -0.00, -0.00, -0.00
6, 93102.14, -158136.00, 187500.00, -31397.18, 94395.73, 187500.00, 187500.00, 187500.00, -0.00, -0.00, -0.00
7, 94428.54, -159070.75, 187500.00, -32438.79, 95519.69, 187500.00, 187500.00, 187500.00, -0.00, -0.00, -0.00
8, 94908.37, -160443.05, 187500.00, -33944.92, 95958.09, 187500.00, 187500.00, 187500.00, -0.00, -0.00, -0.00
9, 93596.07, -159724.02, 187500.00, -33592.19, 94816.86, 187500.00, 187500.00, 187500.00, -0.00, -0.00, -0.00
10, 92398.84, -158231.80, 187500.00, -32488.57, 93708.48, 187500.00, 187500.00, 187500.00, -0.00, -0.00, -0.00
11, 93437.59, -158787.80, 187500.00, -33173.90, 94558.72, 187500.00, 187500.00, 187500.00, -0.00, -0.00, -0.00
12, 94302.38, -160331.78, 187500.00, -34825.16, 95332.13, 187500.00, 187500.00, 187500.00, -0.00, -0.00, -0.00
13, 93182.43, -160008.58, 187500.00, -34825.94, 94365.35, 187500.00, 187500.00, 187500.00, -0.00, -0.00, -0.00
14, 91783.59, -158408.84, 187500.00, -33643.49, 93094.61, 187500.00, 187500.00, 187500.00, -0.00, -0.00, -0.00
15, 92435.28, -158537.55, 187500.00, -33940.54, 93597.66, 187500.00, 187500.00, 187500.00, -0.00, -0.00, -0.00
16, 93619.01, -160140.67, 187500.00, -35632.64, 94643.88, 187500.00, 187500.00, 187500.00, -0.00, -0.00, -0.00
17, 92751.00, -160237.69, 187500.00, -36008.59, 93900.21, 187500.00, 187500.00, 187500.00, -0.00, -0.00, -0.00
18, 91240.69, -158650.67, 187500.00, -34852.34, 92548.55, 187500.00, 187500.00, 187500.00, -0.00, -0.00, -0.00
19, 91451.42, -158347.06, 187500.00, -34764.25, 92662.62, 187500.00, 187500.00, 187500.00, -0.00, -0.00, -0.00
20, 92854.26, -159898.58, 187500.00, -36396.84, 93891.25, 187500.00, 187500.00, 187500.00, -0.00, -0.00, -0.00
21, 92310.35, -160412.56, 187500.00, -37142.86, 93431.67, 187500.00, 187500.00, 187500.00, -0.00, -0.00, -0.00
22, 90778.16, -158943.73, 187500.00, -36103.03, 92070.41, 187500.00, 187500.00, 187500.00, -0.00, -0.00, -0.00
23, 90538.40, -158219.25, 187500.00, -35644.41, 91780.69, 187500.00, 187500.00, 187500.00, -0.00, -0.00, -0.00
24, 92031.65, -159613.73, 187500.00, -37117.62, 93068.46, 187500.00, 187500.00, 187500.00, -0.00, -0.00, -0.00
25, 91845.73, -160511.56, 187500.00, -38203.60, 92925.83, 187500.00, 187500.00, 187500.00, -0.00, -0.00, -0.00
26, 90348.32, -159264.38, 187500.00, -37371.87, 91611.21, 187500.00, 187500.00, 187500.00, -0.00, -0.00, -0.00
27, 89683.17, -158179.06, 187500.00, -36603.04, 90955.98, 187500.00, 187500.00, 187500.00, -0.00, -0.00, -0.00
28, 91123.43, -159315.25, 187500.00, -37829.32, 92184.09, 187500.00, 187500.00, 187500.00, -0.00, -0.00, -0.00
29, 91346.62, -160530.78, 187500.00, -39194.32, 92408.12, 187500.00, 187500.00, 187500.00, -0.00, -0.00, -0.00
30, 89950.21, -159588.88, 187500.00, -38638.68, 91196.88, 187500.00, 187500.00, 187500.00, -0.00, -0.00, -0.00
31, 88936.00, -158217.91, 187500.00, -37632.80, 90242.64, 187500.00, 187500.00, 187500.00, -0.00, -0.00, -0.00
32, 90166.98, -159014.58, 187500.00, -38541.40, 91273.19, 187500.00, 187500.00, 187500.00, -0.00, -0.00, -0.00
33, 90792.65, -160464.27, 187500.00, -40111.46, 91851.67, 187500.00, 187500.00, 187500.00, -0.00, -0.00, -0.00
34, 89553.02, -159891.39, 187500.00, -39886.80, 90784.06, 187500.00, 187500.00, 187500.00, -0.00, -0.00, -0.00
35, 88290.13, -158344.58, 187500.00, -38744.13, 89603.24, 187500.00, 187500.00, 187500.00, -0.00, -0.00, -0.00
36, 89210.86, -158745.02, 187500.00, -39289.58, 90337.39, 187500.00, 187500.00, 187500.00, -0.00, -0.00, -0.00
37, 90209.88, -160326.84, 187500.00, -40968.60, 91226.05, 187500.00, 187500.00, 187500.00, -0.00, -0.00, -0.00
38, 89184.91, -160162.38, 187500.00, -41108.25, 90341.19, 187500.00, 187500.00, 187500.00, -0.00, -0.00, -0.00
39, 87753.46, -158556.16, 187500.00, -39923.84, 89040.92, 187500.00, 187500.00, 187500.00, -0.00, -0.00, -0.00
40, 88258.12, -158522.33, 187500.00, -40075.38, 89401.48, 187500.00, 187500.00, 187500.00, -0.00, -0.00, -0.00
41, 89541.33, -160120.27, 187500.00, -41755.38, 90521.41, 187500.00, 187500.00, 187500.00, -0.00, -0.00, -0.00
42, 88797.13, -160379.55, 187500.00, -42270.41, 89881.55, 187500.00, 187500.00, 187500.00, -0.00, -0.00, -0.00
43, 87286.02, -158827.89, 187500.00, -41147.62, 88528.40, 187500.00, 187500.00, 187500.00, -0.00, -0.00, -0.00
44, 87337.78, -158360.92, 187500.00, -40914.06, 88488.16, 187500.00, 187500.00, 187500.00, -0.00, -0.00, -0.00
45, 88791.23, -159863.89, 187500.00, -42496.07, 89748.13, 187500.00, 187500.00, 187500.00, -0.00, -0.00, -0.00
46, 88379.06, -160531.16, 187500.00, -43376.33, 89398.28, 187500.00, 187500.00, 187500.00, -0.00, -0.00, -0.00
47, 86856.17, -159137.55, 187500.00, -42405.82, 88051.09, 187500.00, 187500.00, 187500.00, -0.00, -0.00, -0.00
48, 86452.37, -158270.95, 187500.00, -41825.23, 87619.91, 187500.00, 187500.00, 187500.00, -0.00, -0.00, -0.00
49, 87939.98, -159579.95, 187500.00, -43218.57, 88894.52, 187500.00, 187500.00, 187500.00, -0.00, -0.00, -0.00
50, 87909.05, -160607.77, 187500.00, -44417.61, 88882.55, 187500.00, 187500.00, 187500.00, -0.00, -0.00, -0.00
51, 86447.85, -159468.88, 187500.00, -43683.31, 87597.78, 187500.00, 187500.00, 187500.00, -0.00, -0.00, -0.00
52, 85646.70, -158262.97, 187500.00, -42815.57, 86818.84, 187500.00, 187500.00, 187500.00, -0.00, -0.00, -0.00
53, 87013.23, -159274.19, 187500.00, -43930.25, 87972.57, 187500.00, 187500.00, 187500.00, -0.00, -0.00, -0.00
54, 87379.54, -160587.08, 187500.00, -45382.36, 88311.94, 187500.00, 187500.00, 187500.00, -0.00, -0.00, -0.00
55, 86028.38, -159775.53, 187500.00, -44944.04, 87134.41, 187500.00, 187500.00, 187500.00, -0.00, -0.00, -0.00
56, 84893.24, -158321.69, 187500.00, -43873.59, 86076.48, 187500.00, 187500.00, 187500.00, -0.00, -0.00, -0.00
57, 86004.41, -158970.42, 187500.00, -44649.82, 86995.96, 187500.00, 187500.00, 187500.00, -0.00, -0.00, -0.00
58, 86762.70, -160482.69, 187500.00, -46271.04, 87681.73, 187500.00, 187500.00, 187500.00, -0.00, -0.00, -0.00
59, 0.00, -158661.75, 187500.00, -46305.64, 87743.29, 187500.00, 187500.00, 187500.00, -0.00, -0.00, -0.00
60, 0.00, -160265.58, 187500.00, -47974.98, 89384.76, 187500.00, 187500.00, 187500.00, -0.00, -0.00, -0.00
61, 0.00, -160348.22, 187500.00, -48320.58, 89097.27, 187500.00, 187500.00, 187500.00, -0.00, -0.00, -0.00
62, 0.00, -158775.36, 187500.00, -47153.57, 88128.70, 187500.00, 187500.00, 187500.00, -0.00, -0.00, -0.00
63, 0.00, -158511.64, 187500.00, -47073.82, 88557.92, 187500.00, 187500.00, 187500.00, -0.00, -0.00, -0.00
64, 0.00, -160077.75, 187500.00, -48699.13, 89995.34, 187500.00, 187500.00, 187500.00, -0.00, -0.00, -0.00
65, 0.00, -160589.81, 187500.00, -49425.34, 89687.18, 187500.00, 187500.00, 187500.00, -0.00, -0.00, -0.00
66, 0.00, -159137.28, 187500.00, -48381.40, 88471.17, 187500.00, 187500.00, 187500.00, -0.00, -0.00, -0.00
67, 0.00, -158457.91, 187500.00, -47939.17, 88338.54, 187500.00, 187500.00, 187500.00, -0.00, -0.00, -0.00
68, 0.00, -159874.28, 187500.00, -49413.98, 89756.78, 187500.00, 187500.00, 187500.00, -0.00, -0.00, -0.00
69, 0.00, -160769.36, 187500.00, -50480.68, 89713.26, 187500.00, 187500.00, 187500.00, -0.00, -0.00, -0.00
70, 0.00, -159530.14, 187500.00, -49637.46, 88504.27, 187500.00, 187500.00, 187500.00, -0.00, -0.00, -0.00
71, 0.00, -158484.33, 187500.00, -48881.74, 87971.34, 187500.00, 187500.00, 187500.00, -0.00, -0.00, -0.00
72, 0.00, -159647.48, 187500.00, -50117.06, 89309.90, 187500.00, 187500.00, 187500.00, -0.00, -0.00, -0.00
73, 0.00, -160865.19, 187500.00, -51470.30, 89601.03, 187500.00, 187500.00, 187500.00, -0.00, -0.00, -0.00
74, 0.00, -159927.59, 187500.00, -50901.76, 88474.86, 187500.00, 187500.00, 187500.00, -0.00, -0.00, -0.00
75, 0.00, -158586.20, 187500.00, -49907.04, 87632.42, 187500.00, 187500.00, 187500.00, -0.00, -0.00, -0.00
76, 0.00, -159409.86, 187500.00, -50827.57, 88781.62, 187500.00, 187500.00, 187500.00, -0.00, -0.00, -0.00
77, 0.00, -160862.44, 187500.00, -52386.18, 89421.48, 187500.00, 187500.00, 187500.00, -0.00, -0.00, -0.00
78, 0.00, -160286.98, 187500.00, -52142.84, 88419.84, 187500.00, 187500.00, 187500.00, -0.00, -0.00, -0.00
79, 0.00, -158758.36, 187500.00, -51002.45, 87343.62, 187500.00, 187500.00, 187500.00, -0.00, -0.00, -0.00
80, 0.00, -159180.58, 187500.00, -51557.70, 88181.52, 187500.00, 187500.00, 187500.00, -0.00, -0.00, -0.00
81, 0.00, -160762.84, 187500.00, -53226.57, 89125.97, 187500.00, 187500.00, 187500.00, -0.00, -0.00, -0.00
82, 0.00, -160592.00, 187500.00, -53346.73, 88298.57, 187500.00, 187500.00, 187500.00, -0.00, -0.00, -0.00
83, 0.00, -158988.56, 187500.00, -52163.98, 87087.18, 187500.00, 187500.00, 187500.00, -0.00, -0.00, -0.00
84, 0.00, -158969.09, 187500.00, -52332.34, 87564.03, 187500.00, 187500.00, 187500.00, -0.00, -0.00, -0.00
85, 0.00, -160556.27, 187500.00, -54008.83, 88756.47, 187500.00, 187500.00, 187500.00, -0.00, -0.00, -0.00
86, 0.00, -160793.27, 187500.00, -54505.82, 88172.78, 187500.00, 187500.00, 187500.00, -0.00, -0.00, -0.00
87, 0.00, -159229.28, 187500.00, -53379.56, 86895.48, 187500.00, 187500.00, 187500.00, -0.00, -0.00, -0.00
88, 0.00, -158772.97, 187500.00, -53164.38, 86959.55, 187500.00, 187500.00, 187500.00, -0.00, -0.00, -0.00
89, 0.00, -160268.86, 187500.00, -54749.86, 88288.56, 187500.00, 187500.00, 187500.00, -0.00, -0.00, -0.00
90, 0.00, -160911.56, 187500.00, -55610.38, 87984.02, 187500.00, 187500.00, 187500.00, -0.00, -0.00, -0.00
91, 0.00, -159502.84, 187500.00, -54629.61, 86698.97, 187500.00, 187500.00, 187500.00, -0.00, -0.00, -0.00
92, 0.00, -158651.16, 187500.00, -54063.97, 86369.66, 187500.00, 187500.00, 187500.00, -0.00, -0.00, -0.00
93, 0.00, -159958.00, 187500.00, -55460.06, 87732.92, 187500.00, 187500.00, 187500.00, -0.00, -0.00, -0.00
94, 0.00, -160963.22, 187500.00, -56640.23, 87771.81, 187500.00, 187500.00, 187500.00, -0.00, -0.00, -0.00
95, 0.00, -159805.42, 187500.00, -55889.24, 86547.94, 187500.00, 187500.00, 187500.00, -0.00, -0.00, -0.00
96, 0.00, -158614.39, 187500.00, -55033.34, 85853.90, 187500.00, 187500.00, 187500.00, -0.00, -0.00, -0.00
97, 0.00, -159642.19, 187500.00, -56157.91, 87095.23, 187500.00, 187500.00, 187500.00, -0.00, -0.00, -0.00
98, 0.00, -160939.64, 187500.00, -57595.68, 87477.04, 187500.00, 187500.00, 187500.00, -0.00, -0.00, -0.00
99, 0.00, -160108.20, 187500.00, -57138.23, 86362.96, 187500.00, 187500.00, 187500.00, -0.00, -0.00, -0.00
100, 0.00, -158667.83, 187500.00, -56075.54, 85393.90, 187500.00, 187500.00, 187500.00, -0.00, -0.00, -0.00
101, 0.00, -159333.13, 187500.00, -56865.72, 86414.03, 187500.00, 187500.00, 187500.00, -0.00, -0.00, -0.00
102, 0.00, -160829.53, 187500.00, -58478.44, 87152.71, 187500.00, 187500.00, 187500.00, -0.00, -0.00, -0.00
103, 0.00, -160384.36, 187500.00, -58368.85, 86186.60, 187500.00, 187500.00, 187500.00, -0.00, -0.00, -0.00
104, 0.00, -158805.36, 187500.00, -57201.15, 85030.91, 187500.00, 187500.00, 187500.00, -0.00, -0.00, -0.00
105, 0.00, -159064.17, 187500.00, -57615.22, 85725.40, 187500.00, 187500.00, 187500.00, -0.00, -0.00, -0.00
106, 0.00, -160654.45, 187500.00, -59301.07, 86764.44, 187500.00, 187500.00, 187500.00, -0.00, -0.00, -0.00
107, 0.00, -160622.45, 187500.00, -59559.55, 86009.82, 187500.00, 187500.00, 187500.00, -0.00, -0.00, -0.00
108, 0.00, -159020.86, 187500.00, -58384.97, 84757.79, 187500.00, 187500.00, 187500.00, -0.00, -0.00, -0.00
109, 0.00, -158851.47, 187500.00, -58412.84, 85074.52, 187500.00, 187500.00, 187500.00, -0.00, -0.00, -0.00
110, 0.00, -160428.17, 187500.00, -60072.08, 86316.82, 187500.00, 187500.00, 187500.00, -0.00, -0.00, -0.00
111, 0.00, -160823.80, 187500.00, -60708.66, 85822.94, 187500.00, 187500.00, 187500.00, -0.00, -0.00, -0.00
112, 0.00, -159311.05, 187500.00, -59625.55, 84533.38, 187500.00, 187500.00, 187500.00, -0.00, -0.00, -0.00
113, 0.00, -158715.98, 187500.00, -59274.25, 84450.95, 187500.00, 187500.00, 187500.00, -0.00, -0.00, -0.00
114, 0.00, -160165.86, 187500.00, -60798.29, 85812.03, 187500.00, 187500.00, 187500.00, -0.00, -0.00, -0.00
115, 0.00, -160953.16, 187500.00, -61781.16, 85634.88, 187500.00, 187500.00, 187500.00, -0.00, -0.00, -0.00
116, 0.00, -159631.61, 187500.00, -60874.57, 84368.40, 187500.00, 187500.00, 187500.00, -0.00, -0.00, -0.00
117, 0.00, -158651.25, 187500.00, -60190.23, 83899.15, 187500.00, 187500.00, 187500.00, -0.00, -0.00, -0.00
118, 0.00, -159871.03, 187500.00, -61492.39, 85232.61, 187500.00, 187500.00, 187500.00, -0.00, -0.00, -0.00
119, 0.00, -160997.69, 187500.00, -62777.06, 85392.91, 187500.00, 187500.00, 187500.00, -0.00, -0.00, -0.00
120, 0.00, -159956.28, 187500.00, -62125.58, 84200.77, 187500.00, 187500.00, 187500.00, -0.00, -0.00, -0.00
121, 0.00, -158663.00, 187500.00, -61177.82, 83408.23, 187500.00, 187500.00, 187500.00, -0.00, -0.00, -0.00
122, 0.00, -159565.56, 187500.00, -62180.14, 84589.80, 187500.00, 187500.00, 187500.00, -0.00, -0.00, -0.00
123, 0.00, -160950.28, 187500.00, -63689.53, 85110.26, 187500.00, 187500.00, 187500.00, -0.00, -0.00, -0.00
124, 0.00, -160261.67, 187500.00, -63354.68, 84056.48, 187500.00, 187500.00, 187500.00, -0.00, -0.00, -0.00
125, 0.00, -158760.84, 187500.00, -62237.67, 83015.00, 187500.00, 187500.00, 187500.00, -0.00, -0.00, -0.00
126, 0.00, -159285.31, 187500.00, -62887.10, 83915.04, 187500.00, 187500.00, 187500.00, -0.00, -0.00, -0.00
127, 0.00, -160835.30, 187500.00, -64534.98, 84756.85, 187500.00, 187500.00, 187500.00, -0.00, -0.00, -0.00
128, 0.00, -160547.52, 187500.00, -64554.27, 83856.37, 187500.00, 187500.00, 187500.00, -0.00, -0.00, -0.00
129, 0.00, -158951.77, 187500.00, -63366.86, 82652.01, 187500.00, 187500.00, 187500.00, -0.00, -0.00, -0.00
130, 0.00, -159053.59, 187500.00, -63630.50, 83206.78, 187500.00, 187500.00, 187500.00, -0.00, -0.00, -0.00
131, 0.00, -160651.91, 187500.00, -65312.58, 84337.29, 187500.00, 187500.00, 187500.00, -0.00, -0.00, -0.00
132, 0.00, -160785.13, 187500.00, -65708.59, 83680.80, 187500.00, 187500.00, 187500.00, -0.00, -0.00, -0.00
133, 0.00, -159207.14, 187500.00, -64553.36, 82407.28, 187500.00, 187500.00, 187500.00, -0.00, -0.00, -0.00
134, 0.00, -158877.63, 187500.00, -64430.78, 82572.55, 187500.00, 187500.00, 187500.00, -0.00, -0.00, -0.00
135, 0.00, -160421.50, 187500.00, -66044.87, 83880.26, 187500.00, 187500.00, 187500.00, -0.00, -0.00, -0.00
136, 0.00, -160969.25, 187500.00, -66811.75, 83503.37, 187500.00, 187500.00, 187500.00, -0.00, -0.00, -0.00
137, 0.00, -159513.70, 187500.00, -65780.76, 82202.12, 187500.00, 187500.00, 187500.00, -0.00, -0.00, -0.00
138, 0.00, -158758.56, 187500.00, -65292.44, 81941.18, 187500.00, 187500.00, 187500.00, -0.00, -0.00, -0.00
139, 0.00, -160124.22, 187500.00, -66735.63, 83299.47, 187500.00, 187500.00, 187500.00, -0.00, -0.00, -0.00
140, 0.00, -161043.28, 187500.00, -67831.53, 83249.02, 187500.00, 187500.00, 187500.00, -0.00, -0.00, -0.00
141, 0.00, -159819.80, 187500.00, -67010.46, 81996.12, 187500.00, 187500.00, 187500.00, -0.00, -0.00, -0.00
142, 0.00, -158717.72, 187500.00, -66218.12, 81383.33, 187500.00, 187500.00, 187500.00, -0.00, -0.00, -0.00
143, 0.00, -159833.45, 187500.00, -67417.15, 82676.53, 187500.00, 187500.00, 187500.00, -0.00, -0.00, -0.00
144, 0.00, -161073.61, 187500.00, -68795.36, 82989.05, 187500.00, 187500.00, 187500.00, -0.00, -0.00, -0.00
145, 0.00, -160164.30, 187500.00, -68257.24, 81842.18, 187500.00, 187500.00, 187500.00, -0.00, -0.00, -0.00
146, 0.00, -158788.11, 187500.00, -67236.02, 80939.98, 187500.00, 187500.00, 187500.00, -0.00, -0.00, -0.00
147, 0.00, -159561.52, 187500.00, -68113.90, 82042.41, 187500.00, 187500.00, 187500.00, -0.00, -0.00, -0.00
148, 0.00, -161031.89, 187500.00, -69694.73, 82698.32, 187500.00, 187500.00, 187500.00, -0.00, -0.00, -0.00
149, 0.00, -160499.44, 187500.00, -69495.73, 81688.67, 187500.00, 187500.00, 187500.00, -0.00, -0.00, -0.00
150, 0.00, -158954.22, 187500.00, -68345.06, 80563.62, 187500.00, 187500.00, 187500.00, -0.00, -0.00, -0.00
151, 0.00, -159326.22, 187500.00, -68859.06, 81354.18, 187500.00, 187500.00, 187500.00, -0.00, -0.00, -0.00
152, 0.00, -160914.05, 187500.00, -70536.31, 82340.49, 187500.00, 187500.00, 187500.00, -0.00, -0.00, -0.00
153, 0.00, -160790.33, 187500.00, -70699.91, 81532.19, 187500.00, 187500.00, 187500.00, -0.00, -0.00, -0.00
154, 0.00, -159190.81, 187500.00, -69516.36, 80285.72, 187500.00, 187500.00, 187500.00, -0.00, -0.00, -0.00
155, 0.00, -159130.11, 187500.00, -69637.28, 80699.67, 187500.00, 187500.00, 187500.00, -0.00, -0.00, -0.00
156, 0.00, -160726.03, 187500.00, -71308.57, 81916.99, 187500.00, 187500.00, 187500.00, -0.00, -0.00, -0.00
157, 0.00, -161023.34, 187500.00, -71847.58, 81353.95, 187500.00, 187500.00, 187500.00, -0.00, -0.00, -0.00
158, 0.00, -159482.55, 187500.00, -70732.83, 80054.87, 187500.00, 187500.00, 187500.00, -0.00, -0.00, -0.00
159, 0.00, -158985.97, 187500.00, -70476.08, 80064.88, 187500.00, 187500.00, 187500.00, -0.00, -0.00, -0.00
160, 0.00, -160477.58, 187500.00, -72042.38, 81409.99, 187500.00, 187500.00, 187500.00, -0.00, -0.00, -0.00
161, 0.00, -161180.53, 187500.00, -72940.84, 81141.73, 187500.00, 187500.00, 187500.00, -0.00, -0.00, -0.00
162, 0.00, -159809.67, 187500.00, -71981.82, 79844.01, 187500.00, 187500.00, 187500.00, -0.00, -0.00, -0.00
163, 0.00, -158917.13, 187500.00, -71377.68, 79448.47, 187500.00, 187500.00, 187500.00, -0.00, -0.00, -0.00
164, 0.00, -160202.45, 187500.00, -72745.65, 80802.41, 187500.00, 187500.00, 187500.00, -0.00, -0.00, -0.00
165, 0.00, -161257.97, 187500.00, -73960.18, 80880.12, 187500.00, 187500.00, 187500.00, -0.00, -0.00, -0.00
166, 0.00, -160148.33, 187500.00, -73239.91, 79654.55, 187500.00, 187500.00, 187500.00, -0.00, -0.00, -0.00
167, 0.00, -158926.95, 187500.00, -72357.76, 78908.56, 187500.00, 187500.00, 187500.00, -0.00, -0.00, -0.00
168, 0.00, -159917.72, 187500.00, -73446.02, 80129.39, 187500.00, 187500.00, 187500.00, -0.00, -0.00, -0.00
169, 0.00, -161253.14, 187500.00, -74904.49, 80561.14, 187500.00, 187500.00, 187500.00, -0.00, -0.00, -0.00
170, 0.00, -160475.86, 187500.00, -74480.28, 79443.17, 187500.00, 187500.00, 187500.00, -0.00, -0.00, -0.00
171, 0.00, -159011.00, 187500.00, -73397.12, 78427.13, 187500.00, 187500.00, 187500.00, -0.00, -0.00, -0.00
172, 0.00, -159626.98, 187500.00, -74141.70, 79398.06, 187500.00, 187500.00, 187500.00, -0.00, -0.00, -0.00
173, 0.00, -161148.42, 187500.00, -75761.86, 80154.31, 187500.00, 187500.00, 187500.00, -0.00, -0.00, -0.00
174, 0.00, -160762.44, 187500.00, -75687.90, 79180.07, 187500.00, 187500.00, 187500.00, -0.00, -0.00, -0.00
175, 0.00, -159177.92, 187500.00, -74511.80, 77965.01, 187500.00, 187500.00, 187500.00, -0.00, -0.00, -0.00
176, 0.00, -159381.97, 187500.00, -74880.17, 78590.67, 187500.00, 187500.00, 187500.00, -0.00, -0.00, -0.00
177, 0.00, -160979.41, 187500.00, -76562.12, 79636.87, 187500.00, 187500.00, 187500.00, -0.00, -0.00, -0.00
178, 0.00, -161007.52, 187500.00, -76858.08, 78876.80, 187500.00, 187500.00, 187500.00, -0.00, -0.00, -0.00
179, 0.00, -159411.77, 187500.00, -75682.71, 77577.00, 187500.00, 187500.00, 187500.00, -0.00, -0.00, -0.00
180, 0.00, -159181.42, 187500.00, -75657.55, 77818.67, 187500.00, 187500.00, 187500.00, -0.00, -0.00, -0.00
181, 0.00, -160746.95, 187500.00, -77295.59, 79067.84, 187500.00, 187500.00, 187500.00, -0.00, -0.00, -0.00
182, 0.00, -161198.14, 187500.00, -77965.32, 78583.12, 187500.00, 187500.00, 187500.00, -0.00, -0.00, -0.00
183, 0.00, -159709.13, 187500.00, -76895.79, 77261.62, 187500.00, 187500.00, 187500.00, -0.00, -0.00, -0.00
184, 0.00, -159058.86, 187500.00, -76504.03, 77105.00, 187500.00, 187500.00, 187500.00, -0.00, -0.00, -0.00
185, 0.00, -160483.94, 187500.00, -78004.50, 78459.76, 187500.00, 187500.00, 187500.00, -0.00, -0.00, -0.00
186, 0.00, -161324.67, 187500.00, -79021.84, 78305.84, 187500.00, 187500.00, 187500.00, -0.00, -0.00, -0.00
187, 0.00, -160040.77, 187500.00, -78139.95, 77027.26, 187500.00, 187500.00, 187500.00, -0.00, -0.00, -0.00
188, 0.00, -159014.58, 187500.00, -77423.34, 76484.65, 187500.00, 187500.00, 187500.00, -0.00, -0.00, -0.00
189, 0.00, -160201.08, 187500.00, -78694.66, 77776.70, 187500.00, 187500.00, 187500.00, -0.00, -0.00, -0.00
190, 0.00, -161370.97, 187500.00, -80004.31, 77959.28, 187500.00, 187500.00, 187500.00, -0.00, -0.00, -0.00
191, 0.00, -160384.28, 187500.00, -79389.08, 76745.78, 187500.00, 187500.00, 187500.00, -0.00, -0.00, -0.00
192, 0.00, -159065.33, 187500.00, -78429.61, 75854.02, 187500.00, 187500.00, 187500.00, -0.00, -0.00, -0.00
193, 0.00, -159923.08, 187500.00, -79398.69, 76976.63, 187500.00, 187500.00, 187500.00, -0.00, -0.00, -0.00
194, 0.00, -161339.92, 187500.00, -80927.55, 77521.13, 187500.00, 187500.00, 187500.00, -0.00, -0.00, -0.00
195, 0.00, -160705.22, 187500.00, -80628.53, 76450.63, 187500.00, 187500.00, 187500.00, -0.00, -0.00, -0.00
196, 0.00, -159183.53, 187500.00, -79500.55, 75353.27, 187500.00, 187500.00, 187500.00, -0.00, -0.00, -0.00
197, 0.00, -159648.77, 187500.00, -80108.56, 76203.89, 187500.00, 187500.00, 187500.00, -0.00, -0.00, -0.00
198, 0.00, -161212.02, 187500.00, -81762.08, 77075.65, 187500.00, 187500.00, 187500.00, -0.00, -0.00, -0.00
199, 0.00, -160980.70, 187500.00, -81821.38, 76182.25, 187500.00, 187500.00, 187500.00, -0.00, -0.00, -0.00
200, 0.00, -159378.48, 187500.00, -80634.72, 74938.89, 187500.00, 187500.00, 187500.00, -0.00, -0.00, -0.00
201, 0.00, -159420.70, 187500.00, -80859.66, 75434.63, 187500.00, 187500.00, 187500.00, -0.00, -0.00, -0.00
202, 0.00, -161021.06, 187500.00, -82536.97, 76574.46, 187500.00, 187500.00, 187500.00, -0.00, -0.00, -0.00
203, 0.00, -161208.86, 187500.00, -82969.92, 75927.51, 187500.00, 187500.00, 187500.00, -0.00, -0.00, -0.00
204, 0.00, -159640.63, 187500.00, -81824.75, 74631.00, 187500.00, 187500.00, 187500.00, -0.00, -0.00, -0.00
205, 0.00, -159248.97, 187500.00, -81664.24, 74734.87, 187500.00, 187500.00, 187500.00, -0.00, -0.00, -0.00
206, 0.00, -160775.47, 187500.00, -83263.82, 76041.95, 187500.00, 187500.00, 187500.00, -0.00, -0.00, -0.00
207, 0.00, -161376.84, 187500.00, -84064.30, 75675.92, 187500.00, 187500.00, 187500.00, -0.00, -0.00, -0.00
208, 0.00, -159953.44, 187500.00, -83053.23, 74365.16, 187500.00, 187500.00, 187500.00, -0.00, -0.00, -0.00
209, 0.00, -159153.16, 187500.00, -82536.65, 74070.51, 187500.00, 187500.00, 187500.00, -0.00, -0.00, -0.00
210, 0.00, -160495.84, 187500.00, -83962.00, 75428.22, 187500.00, 187500.00, 187500.00, -0.00, -0.00, -0.00
211, 0.00, -161463.20, 187500.00, -85087.86, 75406.16, 187500.00, 187500.00, 187500.00, -0.00, -0.00, -0.00
212, 0.00, -160275.34, 187500.00, -84291.53, 74155.22, 187500.00, 187500.00, 187500.00, -0.00, -0.00, -0.00
213, 0.00, -159123.09, 187500.00, -83473.39, 73501.59, 187500.00, 187500.00, 187500.00, -0.00, -0.00, -0.00
214, 0.00, -160193.36, 187500.00, -84640.58, 74770.47, 187500.00, 187500.00, 187500.00, -0.00, -0.00, -0.00
215, 0.00, -161465.95, 187500.00, -86036.91, 75101.44, 187500.00, 187500.00, 187500.00, -0.00, -0.00, -0.00
216, 0.00, -160601.64, 187500.00, -85525.20, 73959.95, 187500.00, 187500.00, 187500.00, -0.00, -0.00, -0.00
217, 0.00, -159193.39, 187500.00, -84485.16, 73022.68, 187500.00, 187500.00, 187500.00, -0.00, -0.00, -0.00
218, 0.00, -159913.06, 187500.00, -85323.31, 74085.93, 187500.00, 187500.00, 187500.00, -0.00, -0.00, -0.00
219, 0.00, -161397.41, 187500.00, -86905.13, 74781.20, 187500.00, 187500.00, 187500.00, -0.00, -0.00, -0.00
220, 0.00, -160908.89, 187500.00, -86730.51, 73777.97, 187500.00, 187500.00, 187500.00, -0.00, -0.00, -0.00
221, 0.00, -159343.80, 187500.00, -85566.48, 72627.41, 187500.00, 187500.00, 187500.00, -0.00, -0.00, -0.00
222, 0.00, -159653.75, 187500.00, -86034.52, 73367.16, 187500.00, 187500.00, 187500.00, -0.00, -0.00, -0.00
223, 0.00, -161242.03, 187500.00, -87704.64, 74350.48, 187500.00, 187500.00, 187500.00, -0.00, -0.00, -0.00
224, 0.00, -161165.19, 187500.00, -87896.20, 73548.84, 187500.00, 187500.00, 187500.00, -0.00, -0.00, -0.00
225, 0.00, -159561.75, 187500.00, -86711.73, 72280.31, 187500.00, 187500.00, 187500.00, -0.00, -0.00, -0.00
226, 0.00, -159439.03, 187500.00, -86789.90, 72637.55, 187500.00, 187500.00, 187500.00, -0.00, -0.00, -0.00
227, 0.00, -161024.52, 187500.00, -88445.31, 73855.99, 187500.00, 187500.00, 187500.00, -0.00, -0.00, -0.00
228, 0.00, -161368.55, 187500.00, -89013.63, 73309.49, 187500.00, 187500.00, 187500.00, -0.00, -0.00, -0.00
229, 0.00, -159842.06, 187500.00, -87906.19, 72001.47, 187500.00, 187500.00, 187500.00, -0.00, -0.00, -0.00
230, 0.00, -159293.05, 187500.00, -87610.81, 71959.20, 187500.00, 187500.00, 187500.00, -0.00, -0.00, -0.00
231, 0.00, -160765.94, 187500.00, -89156.77, 73303.48, 187500.00, 187500.00, 187500.00, -0.00, -0.00, -0.00
232, 0.00, -161510.80, 187500.00, -90079.88, 73069.44, 187500.00, 187500.00, 187500.00, -0.00, -0.00, -0.00
233, 0.00, -160164.14, 187500.00, -89138.40, 71771.25, 187500.00, 187500.00, 187500.00, -0.00, -0.00, -0.00
234, 0.00, -159226.38, 187500.00, -88503.72, 71332.53, 187500.00, 187500.00, 187500.00, -0.00, -0.00, -0.00
235, 0.00, -160483.42, 187500.00, -89843.37, 72676.90, 187500.00, 187500.00, 187500.00, -0.00, -0.00, -0.00
236, 0.00, -161573.69, 187500.00, -91076.94, 72773.01, 187500.00, 187500.00, 187500.00, -0.00, -0.00, -0.00
237, 0.00, -160497.92, 187500.00, -90378.38, 71540.55, 187500.00, 187500.00, 187500.00, -0.00, -0.00, -0.00
238, 0.00, -159240.73, 187500.00, -89469.34, 70763.19, 187500.00, 187500.00, 187500.00, -0.00, -0.00, -0.00
239, 0.00, -160191.97, 187500.00, -90524.31, 71968.23, 187500.00, 187500.00, 187500.00, -0.00, -0.00, -0.00
240, 0.00, -161557.28, 187500.00, -91999.64, 72435.20, 187500.00, 187500.00, 187500.00, -0.00, -0.00, -0.00
241, 0.00, -160826.03, 187500.00, -91606.07, 71322.60, 187500.00, 187500.00, 187500.00, -0.00, -0.00, -0.00
242, 0.00, -159343.22, 187500.00, -90509.45, 70280.63, 187500.00, 187500.00, 187500.00, -0.00, -0.00, -0.00
243, 0.00, -159917.81, 187500.00, -91217.00, 71238.63, 187500.00, 187500.00, 187500.00, -0.00, -0.00, -0.00
244, 0.00, -161459.31, 187500.00, -92844.94, 72051.92, 187500.00, 187500.00, 187500.00, -0.00, -0.00, -0.00
245, 0.00, -161120.64, 187500.00, -92799.73, 71109.63, 187500.00, 187500.00, 187500.00, -0.00, -0.00, -0.00
246, 0.00, -159524.89, 187500.00, -91613.85, 69884.85, 187500.00, 187500.00, 187500.00, -0.00, -0.00, -0.00
247, 0.00, -159676.28, 187500.00, -91943.61, 70494.88, 187500.00, 187500.00, 187500.00, -0.00, -0.00, -0.00
248, 0.00, -161282.14, 187500.00, -93626.83, 71592.77, 187500.00, 187500.00, 187500.00, -0.00, -0.00, -0.00
249, 0.00, -161363.52, 187500.00, -93958.59, 70869.69, 187500.00, 187500.00, 187500.00, -0.00, -0.00, -0.00
250, 0.00, -159771.66, 187500.00, -92787.14, 69556.03, 187500.00, 187500.00, 187500.00, -0.00, -0.00, -0.00
251, 0.00, -159481.59, 187500.00, -92722.38, 69761.06, 187500.00, 187500.00, 187500.00, -0.00, -0.00, -0.00
252, 0.00, -161040.16, 187500.00, -94348.41, 71053.24, 187500.00, 187500.00, 187500.00, -0.00, -0.00, -0.00
253, 0.00, -161538.72, 187500.00, -95047.75, 70610.25, 187500.00, 187500.00, 187500.00, -0.00, -0.00, -0.00
254, 0.00, -160064.45, 187500.00, -93985.26, 69278.85, 187500.00, 187500.00, 187500.00, -0.00, -0.00, -0.00
255, 0.00, -159363.86, 187500.00, -93556.06, 69075.70, 187500.00, 187500.00, 187500.00, -0.00, -0.00, -0.00
0, 0.00, -160772.22, 187500.00, -95036.75, 70447.31, 187500.00, 187500.00, 187500.00, -0.00, -0.00, -0.00
1, 0.00, -161655.98, 187500.00, -96080.96, 70341.34, 187500.00, 187500.00, 187500.00, -0.00, -0.00, -0.00
2, 0.00, -160397.03, 187500.00, -95214.49, 69047.69, 187500.00, 187500.00, 187500.00, -0.00, -0.00, -0.00
3, 0.00, -159325.38, 187500.00, -94463.77, 68468.04, 187500.00, 187500.00, 187500.00, -0.00, -0.00, -0.00
4, 0.00, -160478.02, 187500.00, -95706.68, 69789.45, 187500.00, 187500.00, 187500.00, -0.00, -0.00, -0.00
5, 0.00, -161684.17, 187500.00, -97038.04, 70044.80, 187500.00, 187500.00, 187500.00, -0.00, -0.00, -0.00
6, 0.00, -160727.72, 187500.00, -96440.80, 68854.05, 187500.00, 187500.00, 187500.00, -0.00, -0.00, -0.00
7, 0.00, -159368.05, 187500.00, -95445.68, 67955.29, 187500.00, 187500.00, 187500.00, -0.00, -0.00, -0.00
8, 0.00, -160183.48, 187500.00, -96374.73, 69087.30, 187500.00, 187500.00, 187500.00, -0.00, -0.00, -0.00
9, 0.00, -161629.06, 187500.00, -97916.24, 69707.80, 187500.00, 187500.00, 187500.00, -0.00, -0.00, -0.00
10, 0.00, -161038.19, 187500.00, -97645.38, 68662.08, 187500.00, 187500.00, 187500.00, -0.00, -0.00, -0.00
11, 0.00, -159494.75, 187500.00, -96501.06, 67545.07, 187500.00, 187500.00, 187500.00, -0.00, -0.00, -0.00
12, 0.00, -159911.38, 187500.00, -97070.43, 68378.59, 187500.00, 187500.00, 187500.00, -0.00, -0.00, -0.00
13, 0.00, -161491.70, 187500.00, -98730.27, 69315.17, 187500.00, 187500.00, 187500.00, -0.00, -0.00, -0.00
14, 0.00, -161307.95, 187500.00, -98820.99, 68448.13, 187500.00, 187500.00, 187500.00, -0.00, -0.00, -0.00
15, 0.00, -159699.45, 187500.00, -97627.34, 67177.67, 187500.00, 187500.00, 187500.00, -0.00, -0.00, -0.00
16, 0.00, -159684.59, 187500.00, -97808.46, 67639.51, 187500.00, 187500.00, 187500.00, -0.00, -0.00, -0.00
17, 0.00, -161287.36, 187500.00, -99483.63, 68824.53, 187500.00, 187500.00, 187500.00, -0.00, -0.00, -0.00
18, 0.00, -161527.11, 187500.00, -99955.41, 68216.43, 187500.00, 187500.00, 187500.00, -0.00, -0.00, -0.00
19, 0.00, -159964.34, 187500.00, -98812.77, 66884.13, 187500.00, 187500.00, 187500.00, -0.00, -0.00, -0.00
20, 0.00, -159513.94, 187500.00, -98606.98, 66923.89, 187500.00, 187500.00, 187500.00, -0.00, -0.00, -0.00
21, 0.00, -161028.47, 187500.00, -100190.04, 68256.16, 187500.00, 187500.00, 187500.00, -0.00, -0.00, -0.00
22, 0.00, -161678.13, 187500.00, -101023.84, 67941.50, 187500.00, 187500.00, 187500.00, -0.00, -0.00, -0.00
23, 0.00, -160273.45, 187500.00, -100024.99, 66610.37, 187500.00, 187500.00, 187500.00, -0.00, -0.00, -0.00
24, 0.00, -159422.19, 187500.00, -99468.26, 66250.08, 187500.00, 187500.00, 187500.00, -0.00, -0.00, -0.00
25, 0.00, -160743.55, 187500.00, -100870.09, 67610.74, 187500.00, 187500.00, 187500.00, -0.00, -0.00, -0.00
26, 0.00, -161755.45, 187500.00, -102028.20, 67629.47, 187500.00, 187500.00, 187500.00, -0.00, -0.00, -0.00
27, 0.00, -160599.58, 187500.00, -101251.84, 66369.01, 187500.00, 187500.00, 187500.00, -0.00, -0.00, -0.00
28, 0.00, -159408.59, 187500.00, -100401.13, 65650.45, 187500.00, 187500.00, 187500.00, -0.00, -0.00, -0.00
29, 0.00, -160446.03, 187500.00, -101537.06, 66904.42, 187500.00, 187500.00, 187500.00, -0.00, -0.00, -0.00
30, 0.00, -161753.20, 187500.00, -102956.02, 67281.90, 187500.00, 187500.00, 187500.00, -0.00, -0.00, -0.00
31, 0.00, -160928.08, 187500.00, -102473.11, 66126.83, 187500.00, 187500.00, 187500.00, -0.00, -0.00, -0.00
32, 0.00, -159485.86, 187500.00, -101410.15, 65131.93, 187500.00, 187500.00, 187500.00, -0.00, -0.00, -0.00
33, 0.00, -160158.33, 187500.00, -102213.38, 66162.30, 187500.00, 187500.00, 187500.00, -0.00, -0.00, -0.00
34, 0.00, -161666.05, 187500.00, -103811.13, 66894.27, 187500.00, 187500.00, 187500.00, -0.00, -0.00, -0.00
35, 0.00, -161219.59, 187500.00, -103668.91, 65895.11, 187500.00, 187500.00, 187500.00, -0.00, -0.00, -0.00
36, 0.00, -159638.77, 187500.00, -102493.41, 64693.23, 187500.00, 187500.00, 187500.00, -0.00, -0.00, -0.00
37, 0.00, -159902.88, 187500.00, -102921.66, 65394.41, 187500.00, 187500.00, 187500.00, -0.00, -0.00, -0.00
38, 0.00, -161511.08, 187500.00, -104601.49, 66413.58, 187500.00, 187500.00, 187500.00, -0.00, -0.00, -0.00
39, 0.00, -161489.58, 187500.00, -104836.07, 65591.48, 187500.00, 187500.00, 187500.00, -0.00, -0.00, -0.00
40, 0.00, -159883.20, 187500.00, -103647.34, 64274.32, 187500.00, 187500.00, 187500.00, -0.00, -0.00, -0.00
41, 0.00, -159706.53, 187500.00, -103685.47, 64579.08, 187500.00, 187500.00, 187500.00, -0.00, -0.00, -0.00
42, 0.00, -161286.41, 187500.00, -105336.84, 65825.30, 187500.00, 187500.00, 187500.00, -0.00, -0.00, -0.00
43, 0.00, -161677.05, 187500.00, -105938.30, 65307.08, 187500.00, 187500.00, 187500.00, -0.00, -0.00, -0.00
44, 0.00, -160159.41, 187500.00, -104832.16, 63964.16, 187500.00, 187500.00, 187500.00, -0.00, -0.00, -0.00
45, 0.00, -159555.55, 187500.00, -104492.10, 63857.84, 187500.00, 187500.00, 187500.00, -0.00, -0.00, -0.00
46, 0.00, -161010.36, 187500.00, -106020.04, 65216.53, 187500.00, 187500.00, 187500.00, -0.00, -0.00, -0.00
47, 0.00, -161800.61, 187500.00, -106977.88, 65017.67, 187500.00, 187500.00, 187500.00, -0.00, -0.00, -0.00
48, 0.00, -160477.05, 187500.00, -106049.66, 63710.47, 187500.00, 187500.00, 187500.00, -0.00, -0.00, -0.00
49, 0.00, -159491.06, 187500.00, -105375.82, 63219.31, 187500.00, 187500.00, 187500.00, -0.00, -0.00, -0.00
