%OpenBCI Raw EEG Data
%
%Sample Rate = 250.0 Hz
%First Column = SampleIndex
%Other Columns = EEG data in microvolts followed by Accel Data (in G) interleaved with Aux Data
0, 165579.30, 62416.75, 187500.00, -187500.02, 146514.25, -187500.02, -187500.02, -187500.02, 0.00, 0.00, 0.00
1, 161671.55, 61937.98, 187500.00, -187500.02, 145355.27, -187500.02, -187500.02, -187500.02, 0.00, 0.00, 0.00
2, 163684.81, 62375.67, 187500.00, -187500.02, 145248.00, -187500.02, -187500.02, -187500.02, 0.00, 0.00, 0.00
3, 167709.22, 62469.73, 187500.00, -187500.02, 146360.95, -187500.02, -187500.02, -187500.02, 0.00, 0.00, 0.00
4, 166296.95, 61579.93, 187500.00, -187500.02, 146601.38, -187500.02, -187500.02, -187500.02, 0.00, 0.00, 0.00
5, 162049.94, 60913.87, 187500.00, -187500.02, 145509.83, -187500.02, -187500.02, -187500.02, 0.00, 0.00, 0.00
6, 162903.16, 61262.89, 187500.00, -187500.02, 145113.28, -187500.02, -187500.02, -187500.02, 0.00, 0.00, 0.00
7, 167061.25, 61525.10, 187500.00, -187500.02, 146094.70, -187500.02, -187500.02, -187500.02, 0.00, 0.00, 0.00
8, 166745.30, 60767.28, 187500.00, -187500.02, 146577.50, -187500.02, -187500.02, -187500.02, 0.00, 0.00, 0.00
9, 162362.78, 59950.50, 187500.00, -187500.02, 145601.19, -187500.02, -187500.02, -187500.02, 0.00, 0.00, 0.00
10, 162149.45, 60160.88, 187500.00, -187500.02, 144953.14, -187500.02, -187500.02, -187500.02, 0.00, 0.00, 0.00
11, 166353.03, 60543.18, 187500.00, -187500.02, 145799.44, -187500.02, -187500.02, -187500.02, 0.00, 0.00, 0.00
12, 167174.86, 59944.36, 187500.00, -187500.02, 146523.39, -187500.02, -187500.02, -187500.02, 0.00, 0.00, 0.00
13, 163044.69, 59019.85, 187500.00, -187500.02, 145754.36, -187500.02, -187500.02, -187500.02, 0.00, 0.00, 0.00
14, 161579.95, 59072.06, 187500.00, -187500.02, 144873.47, -187500.02, -187500.02, -187500.02, 0.00, 0.00, 0.00
15, 165540.45, 59535.43, 187500.00, -187500.02, 145506.72, -187500.02, -187500.02, -187500.02, 0.00, 0.00, 0.00
16, 167496.95, 59123.43, 187500.00, -187500.02, 146448.64, -187500.02, -187500.02, -187500.02, 0.00, 0.00, 0.00
17, 163752.47, 58144.24, 187500.00, -187500.02, 145921.50, -187500.02, -187500.02, -187500.02, 0.00, 0.00, 0.00
18, 161220.06, 58004.47, 187500.00, -187500.02, 144863.80, -187500.02, -187500.02, -187500.02, 0.00, 0.00, 0.00
19, 164632.80, 58499.50, 187500.00, -187500.02, 145229.03, -187500.02, -187500.02, -187500.02, 0.00, 0.00, 0.00
20, 167384.41, 58289.50, 187500.00, -187500.02, 146254.52, -187500.02, -187500.02, -187500.02, 0.00, 0.00, 0.00
21, 164291.66, 57309.40, 187500.00, -187500.02, 145952.61, -187500.02, -187500.02, -187500.02, 0.00, 0.00, 0.00
22, 160886.42, 56973.01, 187500.00, -187500.02, 144788.20, -187500.02, -187500.02, -187500.02, 0.00, 0.00, 0.00
23, 163509.84, 57457.93, 187500.00, -187500.02, 144852.73, -187500.02, -187500.02, -187500.02, 0.00, 0.00, 0.00
24, 167117.11, 57441.70, 187500.00, -187500.02, 145935.31, -187500.02, -187500.02, -187500.02, 0.00, 0.00, 0.00
25, 165122.75, 56497.14, 187500.00, -187500.02, 145983.78, -187500.02, -187500.02, -187500.02, 0.00, 0.00, 0.00
26, 160982.83, 55969.57, 187500.00, -187500.02, 144823.25, -187500.02, -187500.02, -187500.02, 0.00, 0.00, 0.00
27, 162681.20, 56390.12, 187500.00, -187500.02, 144610.81, -187500.02, -187500.02, -187500.02, 0.00, 0.00, 0.00
28, 166843.61, 56547.68, 187500.00, -187500.02, 145704.83, -187500.02, -187500.02, -187500.02, 0.00, 0.00, 0.00
29, 165731.66, 55708.55, 187500.00, -187500.02, 146018.53, -187500.02, -187500.02, -187500.02, 0.00, 0.00, 0.00
30, 161318.23, 55007.20, 187500.00, -187500.02, 144937.00, -187500.02, -187500.02, -187500.02, 0.00, 0.00, 0.00
31, 161964.33, 55325.59, 187500.00, -187500.02, 144464.03, -187500.02, -187500.02, -187500.02, 0.00, 0.00, 0.00
32, 166266.31, 55645.65, 187500.00, -187500.02, 145443.44, -187500.02, -187500.02, -187500.02, 0.00, 0.00, 0.00
33, 166492.89, 54955.50, 187500.00, -187500.02, 146080.69, -187500.02, -187500.02, -187500.02, 0.00, 0.00, 0.00
34, 162281.44, 54130.18, 187500.00, -187500.02, 145247.80, -187500.02, -187500.02, -187500.02, 0.00, 0.00, 0.00
35, 161816.81, 54322.70, 187500.00, -187500.02, 144608.81, -187500.02, -187500.02, -187500.02, 0.00, 0.00, 0.00
36, 166182.59, 54755.65, 187500.00, -187500.02, 145504.13, -187500.02, -187500.02, -187500.02, 0.00, 0.00, 0.00
37, 167602.27, 54232.17, 187500.00, -187500.02, 146437.88, -187500.02, -187500.02, -187500.02, 0.00, 0.00, 0.00
38, 163599.30, 53313.96, 187500.00, -187500.02, 145851.31, -187500.02, -187500.02, -187500.02, 0.00, 0.00, 0.00
39, 161936.61, 53329.11, 187500.00, -187500.02, 145008.44, -187500.02, -187500.02, -187500.02, 0.00, 0.00, 0.00
40, 165970.84, 53822.64, 187500.00, -187500.02, 145687.30, -187500.02, -187500.02, -187500.02, 0.00, 0.00, 0.00
41, 168390.89, 53484.77, 187500.00, -187500.02, 146793.09, -187500.02, -187500.02, -187500.02, 0.00, 0.00, 0.00
42, 164791.34, 52508.34, 187500.00, -187500.02, 146404.45, -187500.02, -187500.02, -187500.02, 0.00, 0.00, 0.00
43, 162000.63, 52303.66, 187500.00, -187500.02, 145364.92, -187500.02, -187500.02, -187500.02, 0.00, 0.00, 0.00
44, 165084.70, 52804.79, 187500.00, -187500.02, 145652.66, -187500.02, -187500.02, -187500.02, 0.00, 0.00, 0.00
45, 168217.77, 52653.76, 187500.00, -187500.02, 146731.67, -187500.02, -187500.02, -187500.02, 0.00, 0.00, 0.00
46, 165542.41, 51675.00, 187500.00, -187500.02, 146599.59, -187500.02, -187500.02, -187500.02, 0.00, 0.00, 0.00
47, 161947.48, 51276.02, 187500.00, -187500.02, 145486.09, -187500.02, -187500.02, -187500.02, 0.00, 0.00, 0.00
48, 164288.92, 51749.61, 187500.00, -187500.02, 145500.58, -187500.02, -187500.02, -187500.02, 0.00, 0.00, 0.00
49, 168086.72, 51788.99, 187500.00, -187500.02, 146620.59, -187500.02, -187500.02, -187500.02, 0.00, 0.00, 0.00
50, 166294.73, 50875.79, 187500.00, -187500.02, 146767.22, -187500.02, -187500.02, -187500.02, 0.00, 0.00, 0.00
51, 162198.95, 50286.33, 187500.00, -187500.02, 145679.69, -187500.02, -187500.02, -187500.02, 0.00, 0.00, 0.00
52, 163554.22, 50682.02, 187500.00, -187500.02, 145425.56, -187500.02, -187500.02, -187500.02, 0.00, 0.00, 0.00
53, 167681.19, 50894.83, 187500.00, -187500.02, 146477.14, -187500.02, -187500.02, -187500.02, 0.00, 0.00, 0.00
54, 166903.39, 50096.72, 187500.00, -187500.02, 146866.94, -187500.02, -187500.02, -187500.02, 0.00, 0.00, 0.00
55, 162438.30, 49350.66, 187500.00, -187500.02, 145827.72, -187500.02, -187500.02, -187500.02, 0.00, 0.00, 0.00
56, 162607.06, 49631.00, 187500.00, -187500.02, 145253.41, -187500.02, -187500.02, -187500.02, 0.00, 0.00, 0.00
57, 166936.75, 49979.82, 187500.00, -187500.02, 146161.30, -187500.02, -187500.02, -187500.02, 0.00, 0.00, 0.00
58, 167365.91, 49328.98, 187500.00, -187500.02, 146824.09, -187500.02, -187500.02, -187500.02, 0.00, 0.00, 0.00
59, 163024.88, 48453.68, 187500.00, -187500.02, 145969.50, -187500.02, -187500.02, -187500.02, 0.00, 0.00, 0.00
60, 162073.13, 48571.77, 187500.00, -187500.02, 145182.94, -187500.02, -187500.02, -187500.02, 0.00, 0.00, 0.00
61, 166214.58, 49012.66, 187500.00, -187500.02, 145911.64, -187500.02, -187500.02, -187500.02, 0.00, 0.00, 0.00
62, 167748.45, 48539.14, 187500.00, -187500.02, 146775.47, -187500.02, -187500.02, -187500.02, 0.00, 0.00, 0.00
63, 164006.45, 47575.71, 187500.00, -187500.02, 146205.23, -187500.02, -187500.02, -187500.02, 0.00, 0.00, 0.00
64, 161817.44, 47516.88, 187500.00, -187500.02, 145243.23, -187500.02, -187500.02, -187500.02, 0.00, 0.00, 0.00
65, 165451.16, 48008.44, 187500.00, -187500.02, 145703.59, -187500.02, -187500.02, -187500.02, 0.00, 0.00, 0.00
66, 168116.81, 47719.83, 187500.00, -187500.02, 146755.06, -187500.02, -187500.02, -187500.02, 0.00, 0.00, 0.00
67, 164793.44, 46734.81, 187500.00, -187500.02, 146423.91, -187500.02, -187500.02, -187500.02, 0.00, 0.00, 0.00
68, 161624.23, 46474.04, 187500.00, -187500.02, 145311.41, -187500.02, -187500.02, -187500.02, 0.00, 0.00, 0.00
69, 164587.47, 46965.11, 187500.00, -187500.02, 145500.22, -187500.02, -187500.02, -187500.02, 0.00, 0.00, 0.00
70, 167992.11, 46873.98, 187500.00, -187500.02, 146600.61, -187500.02, -187500.02, -187500.02, 0.00, 0.00, 0.00
71, 165500.05, 45914.57, 187500.00, -187500.02, 146533.92, -187500.02, -187500.02, -187500.02, 0.00, 0.00, 0.00
72, 161584.39, 45455.33, 187500.00, -187500.02, 145366.94, -187500.02, -187500.02, -187500.02, 0.00, 0.00, 0.00
73, 163656.11, 45901.16, 187500.00, -187500.02, 145262.48, -187500.02, -187500.02, -187500.02, 0.00, 0.00, 0.00
74, 167694.56, 45993.47, 187500.00, -187500.02, 146372.55, -187500.02, -187500.02, -187500.02, 0.00, 0.00, 0.00
75, 166245.41, 45109.60, 187500.00, -187500.02, 146605.63, -187500.02, -187500.02, -187500.02, 0.00, 0.00, 0.00
76, 161941.73, 44463.68, 187500.00, -187500.02, 145508.83, -187500.02, -187500.02, -187500.02, 0.00, 0.00, 0.00
77, 163012.56, 44818.46, 187500.00, -187500.02, 145155.38, -187500.02, -187500.02, -187500.02, 0.00, 0.00, 0.00
78, 167234.58, 45079.64, 187500.00, -187500.02, 146173.94, -187500.02, -187500.02, -187500.02, 0.00, 0.00, 0.00
79, 166890.75, 44323.04, 187500.00, -187500.02, 146666.58, -187500.02, -187500.02, -187500.02, 0.00, 0.00, 0.00
80, 162374.64, 43534.94, 187500.00, -187500.02, 145676.78, -187500.02, -187500.02, -187500.02, 0.00, 0.00, 0.00
81, 162207.56, 43766.59, 187500.00, -187500.02, 145016.86, -187500.02, -187500.02, -187500.02, 0.00, 0.00, 0.00
82, 166667.94, 44148.70, 187500.00, -187500.02, 145919.09, -187500.02, -187500.02, -187500.02, 0.00, 0.00, 0.00
83, 167648.42, 43565.63, 187500.00, -187500.02, 146737.77, -187500.02, -187500.02, -187500.02, 0.00, 0.00, 0.00
84, 163543.19, 42677.48, 187500.00, -187500.02, 146037.75, -187500.02, -187500.02, -187500.02, 0.00, 0.00, 0.00
85, 162329.38, 42755.93, 187500.00, -187500.02, 145267.36, -187500.02, -187500.02, -187500.02, 0.00, 0.00, 0.00
86, 166423.31, 43231.94, 187500.00, -187500.02, 146000.19, -187500.02, -187500.02, -187500.02, 0.00, 0.00, 0.00
87, 168354.81, 42835.80, 187500.00, -187500.02, 146998.72, -187500.02, -187500.02, -187500.02, 0.00, 0.00, 0.00
88, 164793.75, 41879.30, 187500.00, -187500.02, 146561.09, -187500.02, -187500.02, -187500.02, 0.00, 0.00, 0.00
89, 162402.66, 41772.46, 187500.00, -187500.02, 145622.17, -187500.02, -187500.02, -187500.02, 0.00, 0.00, 0.00
90, 166089.91, 42277.30, 187500.00, -187500.02, 146119.03, -187500.02, -187500.02, -187500.02, 0.00, 0.00, 0.00
91, 169104.80, 42060.82, 187500.00, -187500.02, 147289.59, -187500.02, -187500.02, -187500.02, 0.00, 0.00, 0.00
92, 166040.39, 41077.97, 187500.00, -187500.02, 147105.03, -187500.02, -187500.02, -187500.02, 0.00, 0.00, 0.00
93, 162547.20, 40749.91, 187500.00, -187500.02, 145988.61, -187500.02, -187500.02, -187500.02, 0.00, 0.00, 0.00
94, 165188.91, 41230.32, 187500.00, -187500.02, 146087.89, -187500.02, -187500.02, -187500.02, 0.00, 0.00, 0.00
95, 168822.16, 41194.98, 187500.00, -187500.02, 147209.05, -187500.02, -187500.02, -187500.02, 0.00, 0.00, 0.00
96, 166660.45, 40253.30, 187500.00, -187500.02, 147246.94, -187500.02, -187500.02, -187500.02, 0.00, 0.00, 0.00
97, 162708.83, 39725.82, 187500.00, -187500.02, 146137.95, -187500.02, -187500.02, -187500.02, 0.00, 0.00, 0.00
98, 164386.38, 40149.21, 187500.00, -187500.02, 145963.75, -187500.02, -187500.02, -187500.02, 0.00, 0.00, 0.00
99, 168449.25, 40294.63, 187500.00, -187500.02, 147031.84, -187500.02, -187500.02, -187500.02, 0.00, 0.00, 0.00
100, 167422.92, 39441.64, 187500.00, -187500.02, 147359.70, -187500.02, -187500.02, -187500.02, 0.00, 0.00, 0.00
101, 162959.50, 38753.27, 187500.00, -187500.02, 146289.61, -187500.02, -187500.02, -187500.02, 0.00, 0.00, 0.00
102, 163512.03, 39079.92, 187500.00, -187500.02, 145798.66, -187500.02, -187500.02, -187500.02, 0.00, 0.00, 0.00
103, 167900.78, 39374.12, 187500.00, -187500.02, 146779.00, -187500.02, -187500.02, -187500.02, 0.00, 0.00, 0.00
104, 167929.86, 38662.70, 187500.00, -187500.02, 147370.05, -187500.02, -187500.02, -187500.02, 0.00, 0.00, 0.00
105, 163422.66, 37834.19, 187500.00, -187500.02, 146430.94, -187500.02, -187500.02, -187500.02, 0.00, 0.00, 0.00
106, 162843.89, 38014.39, 187500.00, -187500.02, 145696.13, -187500.02, -187500.02, -187500.02, 0.00, 0.00, 0.00
107, 167108.36, 38420.95, 187500.00, -187500.02, 146485.64, -187500.02, -187500.02, -187500.02, 0.00, 0.00, 0.00
108, 168412.14, 37869.87, 187500.00, -187500.02, 147318.59, -187500.02, -187500.02, -187500.02, 0.00, 0.00, 0.00
109, 164306.59, 36940.46, 187500.00, -187500.02, 146649.77, -187500.02, -187500.02, -187500.02, 0.00, 0.00, 0.00
110, 162466.64, 36952.04, 187500.00, -187500.02, 145710.25, -187500.02, -187500.02, -187500.02, 0.00, 0.00, 0.00
111, 166436.36, 37422.68, 187500.00, -187500.02, 146297.44, -187500.02, -187500.02, -187500.02, 0.00, 0.00, 0.00
112, 168567.22, 37072.69, 187500.00, -187500.02, 147274.72, -187500.02, -187500.02, -187500.02, 0.00, 0.00, 0.00
113, 164961.44, 36103.81, 187500.00, -187500.02, 146807.73, -187500.02, -187500.02, -187500.02, 0.00, 0.00, 0.00
114, 162207.30, 35920.32, 187500.00, -187500.02, 145746.41, -187500.02, -187500.02, -187500.02, 0.00, 0.00, 0.00
115, 165466.97, 36415.93, 187500.00, -187500.02, 146045.31, -187500.02, -187500.02, -187500.02, 0.00, 0.00, 0.00
116, 168519.45, 36260.03, 187500.00, -187500.02, 147120.42, -187500.02, -187500.02, -187500.02, 0.00, 0.00, 0.00
117, 165597.09, 35299.98, 187500.00, -187500.02, 146909.16, -187500.02, -187500.02, -187500.02, 0.00, 0.00, 0.00
118, 162003.53, 34920.46, 187500.00, -187500.02, 145741.89, -187500.02, -187500.02, -187500.02, 0.00, 0.00, 0.00
119, 164556.36, 35387.53, 187500.00, -187500.02, 145770.06, -187500.02, -187500.02, -187500.02, 0.00, 0.00, 0.00
120, 168392.25, 35418.77, 187500.00, -187500.02, 146898.75, -187500.02, -187500.02, -187500.02, 0.00, 0.00, 0.00
121, 166514.19, 34510.02, 187500.00, -187500.02, 147022.70, -187500.02, -187500.02, -187500.02, 0.00, 0.00, 0.00
122, 162278.94, 33938.29, 187500.00, -187500.02, 145884.94, -187500.02, -187500.02, -187500.02, 0.00, 0.00, 0.00
123, 163693.52, 34334.78, 187500.00, -187500.02, 145608.98, -187500.02, -187500.02, -187500.02, 0.00, 0.00, 0.00
124, 167952.48, 34529.67, 187500.00, -187500.02, 146680.84, -187500.02, -187500.02, -187500.02, 0.00, 0.00, 0.00
125, 167165.41, 33727.60, 187500.00, -187500.02, 147088.36, -187500.02, -187500.02, -187500.02, 0.00, 0.00, 0.00
126, 162746.78, 32992.20, 187500.00, -187500.02, 146060.55, -187500.02, -187500.02, -187500.02, 0.00, 0.00, 0.00
127, 163033.03, 33275.24, 187500.00, -187500.02, 145517.58, -187500.02, -187500.02, -187500.02, 0.00, 0.00, 0.00
128, 167374.89, 33611.61, 187500.00, -187500.02, 146450.69, -187500.02, -187500.02, -187500.02, 0.00, 0.00, 0.00
129, 167793.56, 32952.80, 187500.00, -187500.02, 147122.53, -187500.02, -187500.02, -187500.02, 0.00, 0.00, 0.00
130, 163313.73, 32101.28, 187500.00, -187500.02, 146241.63, -187500.02, -187500.02, -187500.02, 0.00, 0.00, 0.00
131, 162341.25, 32238.72, 187500.00, -187500.02, 145415.14, -187500.02, -187500.02, -187500.02, 0.00, 0.00, 0.00
132, 166566.22, 32668.73, 187500.00, -187500.02, 146147.92, -187500.02, -187500.02, -187500.02, 0.00, 0.00, 0.00
133, 168076.22, 32187.99, 187500.00, -187500.02, 147031.25, -187500.02, -187500.02, -187500.02, 0.00, 0.00, 0.00
134, 163969.78, 31259.34, 187500.00, -187500.02, 146372.92, -187500.02, -187500.02, -187500.02, 0.00, 0.00, 0.00
135, 161812.86, 31222.46, 187500.00, -187500.02, 145352.88, -187500.02, -187500.02, -187500.02, 0.00, 0.00, 0.00
136, 165582.67, 31719.61, 187500.00, -187500.02, 145827.17, -187500.02, -187500.02, -187500.02, 0.00, 0.00, 0.00
137, 168403.47, 31442.82, 187500.00, -187500.02, 146931.94, -187500.02, -187500.02, -187500.02, 0.00, 0.00, 0.00
138, 165084.92, 30504.90, 187500.00, -187500.02, 146641.31, -187500.02, -187500.02, -187500.02, 0.00, 0.00, 0.00
139, 162138.05, 30290.77, 187500.00, -187500.02, 145603.13, -187500.02, -187500.02, -187500.02, 0.00, 0.00, 0.00
140, 165311.97, 30808.91, 187500.00, -187500.02, 145903.16, -187500.02, -187500.02, -187500.02, 0.00, 0.00, 0.00
141, 168931.59, 30729.27, 187500.00, -187500.02, 147114.89, -187500.02, -187500.02, -187500.02, 0.00, 0.00, 0.00
142, 166627.17, 29796.75, 187500.00, -187500.02, 147184.53, -187500.02, -187500.02, -187500.02, 0.00, 0.00, 0.00
143, 162726.64, 29388.77, 187500.00, -187500.02, 146105.28, -187500.02, -187500.02, -187500.02, 0.00, 0.00, 0.00
144, 164949.52, 29864.68, 187500.00, -187500.02, 146091.91, -187500.02, -187500.02, -187500.02, 0.00, 0.00, 0.00
145, 169139.20, 29963.61, 187500.00, -187500.02, 147311.09, -187500.02, -187500.02, -187500.02, 0.00, 0.00, 0.00
146, 167774.33, 29093.39, 187500.00, -187500.02, 147635.53, -187500.02, -187500.02, -187500.02, 0.00, 0.00, 0.00
147, 163493.38, 28470.64, 187500.00, -187500.02, 146606.34, -187500.02, -187500.02, -187500.02, 0.00, 0.00, 0.00
148, 164378.97, 28844.72, 187500.00, -187500.02, 146247.22, -187500.02, -187500.02, -187500.02, 0.00, 0.00, 0.00
149, 168630.42, 29091.76, 187500.00, -187500.02, 147254.22, -187500.02, -187500.02, -187500.02, 0.00, 0.00, 0.00
150, 168326.17, 28328.58, 187500.00, -187500.02, 147772.09, -187500.02, -187500.02, -187500.02, 0.00, 0.00, 0.00
151, 163809.09, 27556.75, 187500.00, -187500.02, 146799.56, -187500.02, -187500.02, -187500.02, 0.00, 0.00, 0.00
152, 163520.73, 27805.72, 187500.00, -187500.02, 146133.59, -187500.02, -187500.02, -187500.02, 0.00, 0.00, 0.00
153, 167891.84, 28173.12, 187500.00, -187500.02, 146992.94, -187500.02, -187500.02, -187500.02, 0.00, 0.00, 0.00
154, 168759.98, 27565.60, 187500.00, -187500.02, 147761.88, -187500.02, -187500.02, -187500.02, 0.00, 0.00, 0.00
155, 164379.69, 26687.00, 187500.00, -187500.02, 146970.50, -187500.02, -187500.02, -187500.02, 0.00, 0.00, 0.00
156, 162963.56, 26772.43, 187500.00, -187500.02, 146068.41, -187500.02, -187500.02, -187500.02, 0.00, 0.00, 0.00
157, 167013.38, 27225.77, 187500.00, -187500.02, 146704.13, -187500.02, -187500.02, -187500.02, 0.00, 0.00, 0.00
158, 168856.78, 26805.53, 187500.00, -187500.02, 147619.92, -187500.02, -187500.02, -187500.02, 0.00, 0.00, 0.00
159, 164967.69, 25862.87, 187500.00, -187500.02, 147058.41, -187500.02, -187500.02, -187500.02, 0.00, 0.00, 0.00
160, 162304.64, 25776.50, 187500.00, -187500.02, 145953.05, -187500.02, -187500.02, -187500.02, 0.00, 0.00, 0.00
161, 165820.66, 26275.35, 187500.00, -187500.02, 146300.39, -187500.02, -187500.02, -187500.02, 0.00, 0.00, 0.00
162, 168792.36, 26045.91, 187500.00, -187500.02, 147364.39, -187500.02, -187500.02, -187500.02, 0.00, 0.00, 0.00
163, 165737.70, 25084.76, 187500.00, -187500.02, 147128.63, -187500.02, -187500.02, -187500.02, 0.00, 0.00, 0.00
164, 162246.81, 24795.57, 187500.00, -187500.02, 145976.20, -187500.02, -187500.02, -187500.02, 0.00, 0.00, 0.00
165, 165035.19, 25288.38, 187500.00, -187500.02, 146085.16, -187500.02, -187500.02, -187500.02, 0.00, 0.00, 0.00
166, 168608.33, 25259.28, 187500.00, -187500.02, 147190.88, -187500.02, -187500.02, -187500.02, 0.00, 0.00, 0.00
167, 166332.22, 24344.29, 187500.00, -187500.02, 147189.58, -187500.02, -187500.02, -187500.02, 0.00, 0.00, 0.00
168, 162225.84, 23864.06, 187500.00, -187500.02, 146010.55, -187500.02, -187500.02, -187500.02, 0.00, 0.00, 0.00
169, 164091.59, 24300.79, 187500.00, -187500.02, 145832.19, -187500.02, -187500.02, -187500.02, 0.00, 0.00, 0.00
170, 168276.95, 24445.57, 187500.00, -187500.02, 146940.55, -187500.02, -187500.02, -187500.02, 0.00, 0.00, 0.00
171, 167130.20, 23610.53, 187500.00, -187500.02, 147266.55, -187500.02, -187500.02, -187500.02, 0.00, 0.00, 0.00
172, 162567.05, 22956.22, 187500.00, -187500.02, 146177.70, -187500.02, -187500.02, -187500.02, 0.00, 0.00, 0.00
173, 162986.19, 23312.15, 187500.00, -187500.02, 145627.72, -187500.02, -187500.02, -187500.02, 0.00, 0.00, 0.00
174, 167478.39, 23604.54, 187500.00, -187500.02, 146588.22, -187500.02, -187500.02, -187500.02, 0.00, 0.00, 0.00
175, 167546.06, 22898.33, 187500.00, -187500.02, 147187.89, -187500.02, -187500.02, -187500.02, 0.00, 0.00, 0.00
176, 162965.80, 22104.53, 187500.00, -187500.02, 146253.89, -187500.02, -187500.02, -187500.02, 0.00, 0.00, 0.00
177, 162268.98, 22322.08, 187500.00, -187500.02, 145474.20, -187500.02, -187500.02, -187500.02, 0.00, 0.00, 0.00
178, 166582.25, 22735.57, 187500.00, -187500.02, 146248.84, -187500.02, -187500.02, -187500.02, 0.00, 0.00, 0.00
179, 167728.69, 22197.58, 187500.00, -187500.02, 147040.81, -187500.02, -187500.02, -187500.02, 0.00, 0.00, 0.00
180, 163457.61, 21301.79, 187500.00, -187500.02, 146287.52, -187500.02, -187500.02, -187500.02, 0.00, 0.00, 0.00
181, 161732.84, 21340.51, 187500.00, -187500.02, 145319.59, -187500.02, -187500.02, -187500.02, 0.00, 0.00, 0.00
182, 165718.36, 21822.70, 187500.00, -187500.02, 145890.50, -187500.02, -187500.02, -187500.02, 0.00, 0.00, 0.00
183, 167965.23, 21471.26, 187500.00, -187500.02, 146880.59, -187500.02, -187500.02, -187500.02, 0.00, 0.00, 0.00
184, 164196.61, 20529.94, 187500.00, -187500.02, 146402.56, -187500.02, -187500.02, -187500.02, 0.00, 0.00, 0.00
185, 161323.58, 20385.80, 187500.00, -187500.02, 145272.05, -187500.02, -187500.02, -187500.02, 0.00, 0.00, 0.00
186, 164626.63, 20905.68, 187500.00, -187500.02, 145545.45, -187500.02, -187500.02, -187500.02, 0.00, 0.00, 0.00
187, 167984.59, 20762.27, 187500.00, -187500.02, 146666.02, -187500.02, -187500.02, -187500.02, 0.00, 0.00, 0.00
188, 165325.41, 19831.94, 187500.00, -187500.02, 146575.22, -187500.02, -187500.02, -187500.02, 0.00, 0.00, 0.00
189, 161790.14, 19505.34, 187500.00, -187500.02, 145513.94, -187500.02, -187500.02, -187500.02, 0.00, 0.00, 0.00
190, 164380.52, 20014.67, 187500.00, -187500.02, 145609.23, -187500.02, -187500.02, -187500.02, 0.00, 0.00, 0.00
191, 168396.94, 20067.26, 187500.00, -187500.02, 146818.09, -187500.02, -187500.02, -187500.02, 0.00, 0.00, 0.00
192, 166780.64, 19185.82, 187500.00, -187500.02, 147073.11, -187500.02, -187500.02, -187500.02, 0.00, 0.00, 0.00
193, 162614.14, 18668.58, 187500.00, -187500.02, 146054.58, -187500.02, -187500.02, -187500.02, 0.00, 0.00, 0.00
194, 164075.55, 19113.00, 187500.00, -187500.02, 145845.38, -187500.02, -187500.02, -187500.02, 0.00, 0.00, 0.00
195, 168604.86, 19328.18, 187500.00, -187500.02, 147018.66, -187500.02, -187500.02, -187500.02, 0.00, 0.00, 0.00
196, 167906.67, 18542.09, 187500.00, -187500.02, 147520.70, -187500.02, -187500.02, -187500.02, 0.00, 0.00, 0.00
197, 163347.08, 17839.24, 187500.00, -187500.02, 146534.05, -187500.02, -187500.02, -187500.02, 0.00, 0.00, 0.00
198, 163489.17, 18158.15, 187500.00, -187500.02, 145970.66, -187500.02, -187500.02, -187500.02, 0.00, 0.00, 0.00
199, 168039.14, 18494.59, 187500.00, -187500.02, 146944.30, -187500.02, -187500.02, -187500.02, 0.00, 0.00, 0.00
200, 168413.81, 17842.70, 187500.00, -187500.02, 147646.61, -187500.02, -187500.02, -187500.02, 0.00, 0.00, 0.00
201, 163900.02, 17013.63, 187500.00, -187500.02, 146775.77, -187500.02, -187500.02, -187500.02, 0.00, 0.00, 0.00
202, 162865.52, 17182.63, 187500.00, -187500.02, 145954.73, -187500.02, -187500.02, -187500.02, 0.00, 0.00, 0.00
203, 167072.42, 17630.94, 187500.00, -187500.02, 146664.05, -187500.02, -187500.02, -187500.02, 0.00, 0.00, 0.00
204, 168611.78, 17154.92, 187500.00, -187500.02, 147529.17, -187500.02, -187500.02, -187500.02, 0.00, 0.00, 0.00
205, 164483.08, 16244.38, 187500.00, -187500.02, 146864.09, -187500.02, -187500.02, -187500.02, 0.00, 0.00, 0.00
206, 162368.63, 16231.99, 187500.00, -187500.02, 145849.53, -187500.02, -187500.02, -187500.02, 0.00, 0.00, 0.00
207, 166130.44, 16738.62, 187500.00, -187500.02, 146328.38, -187500.02, -187500.02, -187500.02, 0.00, 0.00, 0.00
208, 168703.39, 16456.20, 187500.00, -187500.02, 147346.81, -187500.02, -187500.02, -187500.02, 0.00, 0.00, 0.00
209, 165197.47, 15513.29, 187500.00, -187500.02, 146971.16, -187500.02, -187500.02, -187500.02, 0.00, 0.00, 0.00
210, 161933.89, 15312.80, 187500.00, -187500.02, 145794.45, -187500.02, -187500.02, -187500.02, 0.00, 0.00, 0.00
211, 165095.91, 15825.57, 187500.00, -187500.02, 145999.36, -187500.02, -187500.02, -187500.02, 0.00, 0.00, 0.00
212, 168479.48, 15740.52, 187500.00, -187500.02, 147091.23, -187500.02, -187500.02, -187500.02, 0.00, 0.00, 0.00
213, 165878.39, 14815.88, 187500.00, -187500.02, 146995.95, -187500.02, -187500.02, -187500.02, 0.00, 0.00, 0.00
214, 161951.84, 14414.82, 187500.00, -187500.02, 145818.48, -187500.02, -187500.02, -187500.02, 0.00, 0.00, 0.00
215, 164095.27, 14895.05, 187500.00, -187500.02, 145721.05, -187500.02, -187500.02, -187500.02, 0.00, 0.00, 0.00
216, 168172.44, 14992.30, 187500.00, -187500.02, 146826.70, -187500.02, -187500.02, -187500.02, 0.00, 0.00, 0.00
217, 166617.41, 14136.27, 187500.00, -187500.02, 147041.97, -187500.02, -187500.02, -187500.02, 0.00, 0.00, 0.00
218, 162150.92, 13557.23, 187500.00, -187500.02, 145897.61, -187500.02, -187500.02, -187500.02, 0.00, 0.00, 0.00
219, 163256.33, 13956.14, 187500.00, -187500.02, 145512.80, -187500.02, -187500.02, -187500.02, 0.00, 0.00, 0.00
220, 167580.28, 14218.70, 187500.00, -187500.02, 146525.25, -187500.02, -187500.02, -187500.02, 0.00, 0.00, 0.00
221, 167170.70, 13481.41, 187500.00, -187500.02, 146998.55, -187500.02, -187500.02, -187500.02, 0.00, 0.00, 0.00
222, 162498.27, 12755.74, 187500.00, -187500.02, 145974.50, -187500.02, -187500.02, -187500.02, 0.00, 0.00, 0.00
223, 162264.05, 13046.56, 187500.00, -187500.02, 145266.22, -187500.02, -187500.02, -187500.02, 0.00, 0.00, 0.00
224, 166694.75, 13442.12, 187500.00, -187500.02, 146118.95, -187500.02, -187500.02, -187500.02, 0.00, 0.00, 0.00
225, 167417.22, 12867.79, 187500.00, -187500.02, 146831.89, -187500.02, -187500.02, -187500.02, 0.00, 0.00, 0.00
226, 162969.53, 12034.18, 187500.00, -187500.02, 145989.44, -187500.02, -187500.02, -187500.02, 0.00, 0.00, 0.00
227, 161535.45, 12172.18, 187500.00, -187500.02, 145067.63, -187500.02, -187500.02, -187500.02, 0.00, 0.00, 0.00
228, 165647.45, 12663.25, 187500.00, -187500.02, 145687.03, -187500.02, -187500.02, -187500.02, 0.00, 0.00, 0.00
229, 167649.45, 12280.09, 187500.00, -187500.02, 146634.84, -187500.02, -187500.02, -187500.02, 0.00, 0.00, 0.00
230, 163884.80, 11391.23, 187500.00, -187500.02, 146133.20, -187500.02, -187500.02, -187500.02, 0.00, 0.00, 0.00
231, 161413.86, 11364.05, 187500.00, -187500.02, 145120.19, -187500.02, -187500.02, -187500.02, 0.00, 0.00, 0.00
232, 165259.81, 11898.01, 187500.00, -187500.02, 145594.88, -187500.02, -187500.02, -187500.02, 0.00, 0.00, 0.00
233, 168235.05, 11701.52, 187500.00, -187500.02, 146740.03, -187500.02, -187500.02, -187500.02, 0.00, 0.00, 0.00
234, 165160.23, 10787.24, 187500.00, -187500.02, 146534.81, -187500.02, -187500.02, -187500.02, 0.00, 0.00, 0.00
235, 161919.66, 10546.65, 187500.00, -187500.02, 145503.58, -187500.02, -187500.02, -187500.02, 0.00, 0.00, 0.00
236, 164876.00, 11072.56, 187500.00, -187500.02, 145727.11, -187500.02, -187500.02, -187500.02, 0.00, 0.00, 0.00
237, 168750.20, 11050.84, 187500.00, -187500.02, 146964.64, -187500.02, -187500.02, -187500.02, 0.00, 0.00, 0.00
238, 166564.45, 10149.57, 187500.00, -187500.02, 147088.63, -187500.02, -187500.02, -187500.02, 0.00, 0.00, 0.00
239, 162265.70, 9705.33, 187500.00, -187500.02, 145946.92, -187500.02, -187500.02, -187500.02, 0.00, 0.00, 0.00
240, 164027.06, 10165.84, 187500.00, -187500.02, 145756.03, -187500.02, -187500.02, -187500.02, 0.00, 0.00, 0.00
241, 168238.56, 10306.90, 187500.00, -187500.02, 146851.94, -187500.02, -187500.02, -187500.02, 0.00, 0.00, 0.00
242, 167095.02, 9478.48, 187500.00, -187500.02, 147184.36, -187500.02, -187500.02, -187500.02, 0.00, 0.00, 0.00
243, 162510.56, 8854.84, 187500.00, -187500.02, 146095.52, -187500.02, -187500.02, -187500.02, 0.00, 0.00, 0.00
244, 163089.19, 9224.34, 187500.00, -187500.02, 145595.66, -187500.02, -187500.02, -187500.02, 0.00, 0.00, 0.00
245, 167566.34, 9515.50, 187500.00, -187500.02, 146562.31, -187500.02, -187500.02, -187500.02, 0.00, 0.00, 0.00
246, 167537.78, 8813.81, 187500.00, -187500.02, 147140.64, -187500.02, -187500.02, -187500.02, 0.00, 0.00, 0.00
247, 162873.38, 8043.90, 187500.00, -187500.02, 146172.38, -187500.02, -187500.02, -187500.02, 0.00, 0.00, 0.00
248, 162388.97, 8267.28, 187500.00, -187500.02, 145426.80, -187500.02, -187500.02, -187500.02, 0.00, 0.00, 0.00
249, 166915.47, 8659.69, 187500.00, -187500.02, 146269.77, -187500.02, -187500.02, -187500.02, 0.00, 0.00, 0.00
250, 168040.14, 8112.48, 187500.00, -187500.02, 147097.56, -187500.02, -187500.02, -187500.02, 0.00, 0.00, 0.00
251, 163688.45, 7233.87, 187500.00, -187500.02, 146361.81, -187500.02, -187500.02, -187500.02, 0.00, 0.00, 0.00
252, 161957.67, 7288.03, 187500.00, -187500.02, 145412.94, -187500.02, -187500.02, -187500.02, 0.00, 0.00, 0.00
253, 166001.11, 7760.84, 187500.00, -187500.02, 145996.97, -187500.02, -187500.02, -187500.02, 0.00, 0.00, 0.00
254, 168226.70, 7397.26, 187500.00, -187500.02, 146980.23, -187500.02, -187500.02, -187500.02, 0.00, 0.00, 0.00
255, 164534.30, 6460.01, 187500.00, -187500.02, 146524.31, -187500.02, -187500.02, -187500.02, 0.00, 0.00, 0.00
0, 161671.95, 6331.76, 187500.00, -187500.02, 145433.67, -187500.02, -187500.02, -187500.02, 0.00, 0.00, 0.00
1, 165074.91, 6839.19, 187500.00, -187500.02, 145738.69, -187500.02, -187500.02, -187500.02, 0.00, 0.00, 0.00
2, 168284.06, 6670.94, 187500.00, -187500.02, 146837.44, -187500.02, -187500.02, -187500.02, 0.00, 0.00, 0.00
3, 165343.52, 5735.39, 187500.00, -187500.02, 146657.59, -187500.02, -187500.02, -187500.02, 0.00, 0.00, 0.00
4, 161582.41, 5409.05, 187500.00, -187500.02, 145494.34, -187500.02, -187500.02, -187500.02, 0.00, 0.00, 0.00
5, 164120.69, 5894.74, 187500.00, -187500.02, 145504.13, -187500.02, -187500.02, -187500.02, 0.00, 0.00, 0.00
6, 168073.41, 5908.37, 187500.00, -187500.02, 146636.84, -187500.02, -187500.02, -187500.02, 0.00, 0.00, 0.00
7, 166186.69, 5012.51, 187500.00, -187500.02, 146773.48, -187500.02, -187500.02, -187500.02, 0.00, 0.00, 0.00
8, 161919.55, 4488.63, 187500.00, -187500.02, 145658.05, -187500.02, -187500.02, -187500.02, 0.00, 0.00, 0.00
9, 163340.69, 4910.41, 187500.00, -187500.02, 145377.95, -187500.02, -187500.02, -187500.02, 0.00, 0.00, 0.00
10, 167680.33, 5094.05, 187500.00, -187500.02, 146446.39, -187500.02, -187500.02, -187500.02, 0.00, 0.00, 0.00
11, 166770.16, 4300.61, 187500.00, -187500.02, 146819.75, -187500.02, -187500.02, -187500.02, 0.00, 0.00, 0.00
12, 162223.02, 3606.25, 187500.00, -187500.02, 145765.89, -187500.02, -187500.02, -187500.02, 0.00, 0.00, 0.00
13, 162453.84, 3920.16, 187500.00, -187500.02, 145185.73, -187500.02, -187500.02, -187500.02, 0.00, 0.00, 0.00
14, 166947.75, 4245.11, 187500.00, -187500.02, 146109.02, -187500.02, -187500.02, -187500.02, 0.00, 0.00, 0.00
15, 167288.30, 3589.49, 187500.00, -187500.02, 146754.83, -187500.02, -187500.02, -187500.02, 0.00, 0.00, 0.00
16, 162850.77, 2764.93, 187500.00, -187500.02, 145893.92, -187500.02, -187500.02, -187500.02, 0.00, 0.00, 0.00
17, 161821.34, 2938.23, 187500.00, -187500.02, 145075.16, -187500.02, -187500.02, -187500.02, 0.00, 0.00, 0.00
18, 166194.13, 3373.73, 187500.00, -187500.02, 145815.36, -187500.02, -187500.02, -187500.02, 0.00, 0.00, 0.00
19, 167865.78, 2901.39, 187500.00, -187500.02, 146744.63, -187500.02, -187500.02, -187500.02, 0.00, 0.00, 0.00
20, 163908.27, 2006.09, 187500.00, -187500.02, 146180.00, -187500.02, -187500.02, -187500.02, 0.00, 0.00, 0.00
21, 161964.38, 2009.00, 187500.00, -187500.02, 145275.03, -187500.02, -187500.02, -187500.02, 0.00, 0.00, 0.00
22, 165951.92, 2516.29, 187500.00, -187500.02, 145861.06, -187500.02, -187500.02, -187500.02, 0.00, 0.00, 0.00
23, 168741.78, 2229.39, 187500.00, -187500.02, 147005.98, -187500.02, -187500.02, -187500.02, 0.00, 0.00, 0.00
24, 165355.70, 1291.64, 187500.00, -187500.02, 146734.19, -187500.02, -187500.02, -187500.02, 0.00, 0.00, 0.00
25, 162306.81, 1081.69, 187500.00, -187500.02, 145702.72, -187500.02, -187500.02, -187500.02, 0.00, 0.00, 0.00
26, 165396.28, 1580.92, 187500.00, -187500.02, 145964.52, -187500.02, -187500.02, -187500.02, 0.00, 0.00, 0.00
27, 168778.64, 1474.39, 187500.00, -187500.02, 147090.44, -187500.02, -187500.02, -187500.02, 0.00, 0.00, 0.00
28, 166041.83, 540.82, 187500.00, -187500.02, 146985.53, -187500.02, -187500.02, -187500.02, 0.00, 0.00, 0.00
29, 162077.33, 137.42, 187500.00, -187500.02, 145795.47, -187500.02, -187500.02, -187500.02, 0.00, 0.00, 0.00
30, 164265.13, 610.69, 187500.00, -187500.02, 145702.30, -187500.02, -187500.02, -187500.02, 0.00, 0.00, 0.00
31, 168307.31, 699.70, 187500.00, -187500.02, 146805.31, -187500.02, -187500.02, -187500.02, 0.00, 0.00, 0.00
32, 166774.78, -164.58, 187500.00, -187500.02, 147024.39, -187500.02, -187500.02, -187500.02, 0.00, 0.00, 0.00
33, 162302.89, -748.38, 187500.00, -187500.02, 145891.31, -187500.02, -187500.02, -187500.02, 0.00, 0.00, 0.00
34, 163370.44, -352.64, 187500.00, -187500.02, 145499.64, -187500.02, -187500.02, -187500.02, 0.00, 0.00, 0.00
35, 167663.16, -94.99, 187500.00, -187500.02, 146507.70, -187500.02, -187500.02, -187500.02, 0.00, 0.00, 0.00
36, 167249.66, -844.61, 187500.00, -187500.02, 146978.61, -187500.02, -187500.02, -187500.02, 0.00, 0.00, 0.00
37, 162767.83, -1592.47, 187500.00, -187500.02, 145996.92, -187500.02, -187500.02, -187500.02, 0.00, 0.00, 0.00
38, 162606.55, -1314.48, 187500.00, -187500.02, 145349.88, -187500.02, -187500.02, -187500.02, 0.00, 0.00, 0.00
39, 166999.42, -928.31, 187500.00, -187500.02, 146216.09, -187500.02, -187500.02, -187500.02, 0.00, 0.00, 0.00
40, 167721.06, -1522.80, 187500.00, -187500.02, 146949.11, -187500.02, -187500.02, -187500.02, 0.00, 0.00, 0.00
41, 163260.88, -2380.39, 187500.00, -187500.02, 146119.56, -187500.02, -187500.02, -187500.02, 0.00, 0.00, 0.00
42, 161970.41, -2265.10, 187500.00, -187500.02, 145235.17, -187500.02, -187500.02, -187500.02, 0.00, 0.00, 0.00
43, 166096.95, -1787.76, 187500.00, -187500.02, 145888.20, -187500.02, -187500.02, -187500.02, 0.00, 0.00, 0.00
44, 168043.92, -2206.34, 187500.00, -187500.02, 146825.67, -187500.02, -187500.02, -187500.02, 0.00, 0.00, 0.00
45, 164137.92, -3140.04, 187500.00, -187500.02, 146281.30, -187500.02, -187500.02, -187500.02, 0.00, 0.00, 0.00
46, 161608.81, -3209.96, 187500.00, -187500.02, 145222.36, -187500.02, -187500.02, -187500.02, 0.00, 0.00, 0.00
47, 165242.81, -2690.30, 187500.00, -187500.02, 145624.42, -187500.02, -187500.02, -187500.02, 0.00, 0.00, 0.00
48, 168166.23, -2908.54, 187500.00, -187500.02, 146698.72, -187500.02, -187500.02, -187500.02, 0.00, 0.00, 0.00
49, 164919.02, -3857.55, 187500.00, -187500.02, 146423.86, -187500.02, -187500.02, -187500.02, 0.00, 0.00, 0.00
50, 161463.81, -4127.45, 187500.00, -187500.02, 145261.09, -187500.02, -187500.02, -187500.02, 0.00, 0.00, 0.00
51, 164320.67, -3610.03, 187500.00, -187500.02, 145374.38, -187500.02, -187500.02, -187500.02, 0.00, 0.00, 0.00
52, 167981.38, -3628.69, 187500.00, -187500.02, 146495.97, -187500.02, -187500.02, -187500.02, 0.00, 0.00, 0.00
53, 165748.94, -4546.93, 187500.00, -187500.02, 146521.78, -187500.02, -187500.02, -187500.02, 0.00, 0.00, 0.00
54, 161715.80, -5017.99, 187500.00, -187500.02, 145390.52, -187500.02, -187500.02, -187500.02, 0.00, 0.00, 0.00
55, 163439.59, -4539.19, 187500.00, -187500.02, 145208.19, -187500.02, -187500.02, -187500.02, 0.00, 0.00, 0.00
56, 167658.47, -4321.29, 187500.00, -187500.02, 146295.16, -187500.02, -187500.02, -187500.02, 0.00, 0.00, 0.00
57, 166730.91, -5074.32, 187500.00, -187500.02, 146693.02, -187500.02, -187500.02, -187500.02, 0.00, 0.00, 0.00
58, 162389.39, -5717.17, 187500.00, -187500.02, 145694.31, -187500.02, -187500.02, -187500.02, 0.00, 0.00, 0.00
59, 163124.70, -5266.32, 187500.00, -187500.02, 145311.33, -187500.02, -187500.02, -187500.02, 0.00, 0.00, 0.00
60, 167437.06, -4658.93, 187500.00, -187500.02, 146351.70, -187500.02, -187500.02, -187500.02, 0.00, 0.00, 0.00
61, 167419.91, -5269.31, 187500.00, -187500.02, 146935.13, -187500.02, -187500.02, -187500.02, 0.00, 0.00, 0.00
62, 163251.30, -6272.77, 187500.00, -187500.02, 146060.39, -187500.02, -187500.02, -187500.02, 0.00, 0.00, 0.00
63, 163032.34, -6108.35, 187500.00, -187500.02, 145481.13, -187500.02, -187500.02, -187500.02, 0.00, 0.00, 0.00
64, 167344.00, -5457.27, 187500.00, -187500.02, 146417.27, -187500.02, -187500.02, -187500.02, 0.00, 0.00, 0.00
65, 168382.66, -5836.53, 187500.00, -187500.02, 147270.88, -187500.02, -187500.02, -187500.02, 0.00, 0.00, 0.00
66, 164434.72, -6910.85, 187500.00, -187500.02, 146605.63, -187500.02, -187500.02, -187500.02, 0.00, 0.00, 0.00
67, 163015.38, -7011.41, 187500.00, -187500.02, 145804.53, -187500.02, -187500.02, -187500.02, 0.00, 0.00, 0.00
68, 166724.09, -6323.15, 187500.00, -187500.02, 146441.27, -187500.02, -187500.02, -187500.02, 0.00, 0.00, 0.00
69, 168637.78, -6493.36, 187500.00, -187500.02, 147375.84, -187500.02, -187500.02, -187500.02, 0.00, 0.00, 0.00
70, 164962.89, -7605.83, 187500.00, -187500.02, 146837.91, -187500.02, -187500.02, -187500.02, 0.00, 0.00, 0.00
71, 162502.97, -7926.69, 187500.00, -187500.02, 145795.38, -187500.02, -187500.02, -187500.02, 0.00, 0.00, 0.00
72, 165739.20, -7192.37, 187500.00, -187500.02, 146167.19, -187500.02, -187500.02, -187500.02, 0.00, 0.00, 0.00
73, 168439.25, -7115.95, 187500.00, -187500.02, 147169.94, -187500.02, -187500.02, -187500.02, 0.00, 0.00, 0.00
74, 165649.94, -8211.40, 187500.00, -187500.02, 146907.06, -187500.02, -187500.02, -187500.02, 0.00, 0.00, 0.00
75, 162367.41, -8782.09, 187500.00, -187500.02, 145808.36, -187500.02, -187500.02, -187500.02, 0.00, 0.00, 0.00
76, 164659.42, -8137.47, 187500.00, -187500.02, 145859.36, -187500.02, -187500.02, -187500.02, 0.00, 0.00, 0.00
77, 168114.02, -7838.47, 187500.00, -187500.02, 146893.56, -187500.02, -187500.02, -187500.02, 0.00, 0.00, 0.00
78, 166249.52, -8796.82, 187500.00, -187500.02, 146925.09, -187500.02, -187500.02, -187500.02, 0.00, 0.00, 0.00
79, 162341.78, -9544.78, 187500.00, -187500.02, 145806.81, -187500.02, -187500.02, -187500.02, 0.00, 0.00, 0.00
80, 163782.14, -9072.62, 187500.00, -187500.02, 145583.41, -187500.02, -187500.02, -187500.02, 0.00, 0.00, 0.00
81, 167783.19, -8624.33, 187500.00, -187500.02, 146616.17, -187500.02, -187500.02, -187500.02, 0.00, 0.00, 0.00
82, 166989.23, -9428.10, 187500.00, -187500.02, 146965.58, -187500.02, -187500.02, -187500.02, 0.00, 0.00, 0.00
83, 162747.42, -10363.88, 187500.00, -187500.02, 145931.36, -187500.02, -187500.02, -187500.02, 0.00, 0.00, 0.00
84, 163119.94, -10040.16, 187500.00, -187500.02, 145435.13, -187500.02, -187500.02, -187500.02, 0.00, 0.00, 0.00
85, 167187.28, -9428.39, 187500.00, -187500.02, 146356.52, -187500.02, -187500.02, -187500.02, 0.00, 0.00, 0.00
86, 167277.83, -10022.86, 187500.00, -187500.02, 146895.34, -187500.02, -187500.02, -187500.02, 0.00, 0.00, 0.00
87, 163101.61, -11090.56, 187500.00, -187500.02, 145995.47, -187500.02, -187500.02, -187500.02, 0.00, 0.00, 0.00
88, 162419.53, -10996.50, 187500.00, -187500.02, 145270.17, -187500.02, -187500.02, -187500.02, 0.00, 0.00, 0.00
89, 166533.19, -10358.42, 187500.00, -187500.02, 146057.16, -187500.02, -187500.02, -187500.02, 0.00, 0.00, 0.00
90, 167800.31, -10723.18, 187500.00, -187500.02, 146885.16, -187500.02, -187500.02, -187500.02, 0.00, 0.00, 0.00
91, 163736.20, -11764.39, 187500.00, -187500.02, 146188.30, -187500.02, -187500.02, -187500.02, 0.00, 0.00, 0.00
92, 161707.47, -11859.92, 187500.00, -187500.02, 145175.53, -187500.02, -187500.02, -187500.02, 0.00, 0.00, 0.00
93, 165496.80, -11227.66, 187500.00, -187500.02, 145688.64, -187500.02, -187500.02, -187500.02, 0.00, 0.00, 0.00
94, 167884.94, -11375.36, 187500.00, -187500.02, 146690.14, -187500.02, -187500.02, -187500.02, 0.00, 0.00, 0.00
95, 164453.27, -12361.18, 187500.00, -187500.02, 146284.30, -187500.02, -187500.02, -187500.02, 0.00, 0.00, 0.00
96, 161421.25, -12642.24, 187500.00, -187500.02, 145160.72, -187500.02, -187500.02, -187500.02, 0.00, 0.00, 0.00
97, 164702.69, -12120.34, 187500.00, -187500.02, 145415.23, -187500.02, -187500.02, -187500.02, 0.00, 0.00, 0.00
98, 168132.13, -12190.75, 187500.00, -187500.02, 146563.92, -187500.02, -187500.02, -187500.02, 0.00, 0.00, 0.00
99, 165372.48, -13118.93, 187500.00, -187500.02, 146458.09, -187500.02, -187500.02, -187500.02, 0.00, 0.00, 0.00
100, 161590.20, -13527.77, 187500.00, -187500.02, 145299.59, -187500.02, -187500.02, -187500.02, 0.00, 0.00, 0.00
101, 163605.44, -13017.72, 187500.00, -187500.02, 145194.00, -187500.02, -187500.02, -187500.02, 0.00, 0.00, 0.00
102, 167778.73, -12894.30, 187500.00, -187500.02, 146315.83, -187500.02, -187500.02, -187500.02, 0.00, 0.00, 0.00
103, 166495.70, -13747.48, 187500.00, -187500.02, 146619.59, -187500.02, -187500.02, -187500.02, 0.00, 0.00, 0.00
104, 162294.20, -14324.70, 187500.00, -187500.02, 145606.48, -187500.02, -187500.02, -187500.02, 0.00, 0.00, 0.00
105, 163470.34, -13890.63, 187500.00, -187500.02, 145324.95, -187500.02, -187500.02, -187500.02, 0.00, 0.00, 0.00
106, 168024.34, -13596.01, 187500.00, -187500.02, 146464.89, -187500.02, -187500.02, -187500.02, 0.00, 0.00, 0.00
107, 167735.75, -14326.93, 187500.00, -187500.02, 147064.77, -187500.02, -187500.02, -187500.02, 0.00, 0.00, 0.00
108, 163322.41, -15083.02, 187500.00, -187500.02, 146162.25, -187500.02, -187500.02, -187500.02, 0.00, 0.00, 0.00
109, 163431.69, -14803.63, 187500.00, -187500.02, 145654.20, -187500.02, -187500.02, -187500.02, 0.00, 0.00, 0.00
110, 167871.56, -14312.29, 187500.00, -187500.02, 146651.78, -187500.02, -187500.02, -187500.02, 0.00, 0.00, 0.00
111, 168635.39, -14812.72, 187500.00, -187500.02, 147463.80, -187500.02, -187500.02, -187500.02, 0.00, 0.00, 0.00
112, 164283.38, -15685.13, 187500.00, -187500.02, 146704.27, -187500.02, -187500.02, -187500.02, 0.00, 0.00, 0.00
113, 163017.23, -15594.12, 187500.00, -187500.02, 145872.02, -187500.02, -187500.02, -187500.02, 0.00, 0.00, 0.00
114, 167065.83, -15051.78, 187500.00, -187500.02, 146554.11, -187500.02, -187500.02, -187500.02, 0.00, 0.00, 0.00
115, 168721.22, -15358.87, 187500.00, -187500.02, 147450.47, -187500.02, -187500.02, -187500.02, 0.00, 0.00, 0.00
116, 164809.95, -16382.55, 187500.00, -187500.02, 146843.22, -187500.02, -187500.02, -187500.02, 0.00, 0.00, 0.00
117, 162672.50, -16616.98, 187500.00, -187500.02, 145848.72, -187500.02, -187500.02, -187500.02, 0.00, 0.00, 0.00
118, 166183.19, -15970.52, 187500.00, -187500.02, 146315.98, -187500.02, -187500.02, -187500.02, 0.00, 0.00, 0.00
119, 168664.61, -16004.76, 187500.00, -187500.02, 147311.67, -187500.02, -187500.02, -187500.02, 0.00, 0.00, 0.00
120, 165534.64, -17094.48, 187500.00, -187500.02, 146961.84, -187500.02, -187500.02, -187500.02, 0.00, 0.00, 0.00
121, 162335.91, -17566.23, 187500.00, -187500.02, 145830.89, -187500.02, -187500.02, -187500.02, 0.00, 0.00, 0.00
122, 165065.45, -16891.99, 187500.00, -187500.02, 145985.58, -187500.02, -187500.02, -187500.02, 0.00, 0.00, 0.00
123, 168421.14, -16686.83, 187500.00, -187500.02, 147049.75, -187500.02, -187500.02, -187500.02, 0.00, 0.00, 0.00
124, 166341.13, -17746.99, 187500.00, -187500.02, 147019.05, -187500.02, -187500.02, -187500.02, 0.00, 0.00, 0.00
125, 162602.45, -18463.14, 187500.00, -187500.02, 145923.11, -187500.02, -187500.02, -187500.02, 0.00, 0.00, 0.00
126, 164296.17, -17875.05, 187500.00, -187500.02, 145802.45, -187500.02, -187500.02, -187500.02, 0.00, 0.00, 0.00
127, 168070.94, -17448.02, 187500.00, -187500.02, 146830.13, -187500.02, -187500.02, -187500.02, 0.00, 0.00, 0.00
128, 167005.55, -18374.34, 187500.00, -187500.02, 147078.03, -187500.02, -187500.02, -187500.02, 0.00, 0.00, 0.00
129, 162853.44, -19305.16, 187500.00, -187500.02, 146003.09, -187500.02, -187500.02, -187500.02, 0.00, 0.00, 0.00
130, 163630.66, -18901.95, 187500.00, -187500.02, 145610.70, -187500.02, -187500.02, -187500.02, 0.00, 0.00, 0.00
131, 167735.83, -18331.45, 187500.00, -187500.02, 146599.86, -187500.02, -187500.02, -187500.02, 0.00, 0.00, 0.00
132, 167481.22, -18962.64, 187500.00, -187500.02, 147088.53, -187500.02, -187500.02, -187500.02, 0.00, 0.00, 0.00
133, 163130.25, -19846.22, 187500.00, -187500.02, 146113.13, -187500.02, -187500.02, -187500.02, 0.00, 0.00, 0.00
134, 162606.50, -19635.22, 187500.00, -187500.02, 145373.69, -187500.02, -187500.02, -187500.02, 0.00, 0.00, 0.00
135, 166933.69, -19188.53, 187500.00, -187500.02, 146187.13, -187500.02, -187500.02, -187500.02, 0.00, 0.00, 0.00
136, 168046.52, -19727.63, 187500.00, -187500.02, 146990.81, -187500.02, -187500.02, -187500.02, 0.00, 0.00, 0.00
137, 163783.03, -20642.64, 187500.00, -187500.02, 146246.52, -187500.02, -187500.02, -187500.02, 0.00, 0.00, 0.00
138, 162121.73, -20586.11, 187500.00, -187500.02, 145303.45, -187500.02, -187500.02, -187500.02, 0.00, 0.00, 0.00
139, 166029.72, -20056.91, 187500.00, -187500.02, 145868.39, -187500.02, -187500.02, -187500.02, 0.00, 0.00, 0.00
140, 168271.95, -20400.86, 187500.00, -187500.02, 146863.56, -187500.02, -187500.02, -187500.02, 0.00, 0.00, 0.00
141, 164512.77, -21360.71, 187500.00, -187500.02, 146383.64, -187500.02, -187500.02, -187500.02, 0.00, 0.00, 0.00
142, 161751.39, -21494.51, 187500.00, -187500.02, 145279.78, -187500.02, -187500.02, -187500.02, 0.00, 0.00, 0.00
143, 165198.61, -20939.05, 187500.00, -187500.02, 145618.95, -187500.02, -187500.02, -187500.02, 0.00, 0.00, 0.00
144, 168353.25, -21072.02, 187500.00, -187500.02, 146739.44, -187500.02, -187500.02, -187500.02, 0.00, 0.00, 0.00
145, 165422.81, -22027.67, 187500.00, -187500.02, 146562.44, -187500.02, -187500.02, -187500.02, 0.00, 0.00, 0.00
146, 161731.42, -22360.33, 187500.00, -187500.02, 145382.48, -187500.02, -187500.02, -187500.02, 0.00, 0.00, 0.00
147, 164308.67, -21822.43, 187500.00, -187500.02, 145407.17, -187500.02, -187500.02, -187500.02, 0.00, 0.00, 0.00
148, 168116.89, -21753.41, 187500.00, -187500.02, 146530.39, -187500.02, -187500.02, -187500.02, 0.00, 0.00, 0.00
149, 166080.34, -22644.84, 187500.00, -187500.02, 146610.73, -187500.02, -187500.02, -187500.02, 0.00, 0.00, 0.00
150, 161826.92, -23170.02, 187500.00, -187500.02, 145428.72, -187500.02, -187500.02, -187500.02, 0.00, 0.00, 0.00
151, 163307.89, -22695.20, 187500.00, -187500.02, 145142.70, -187500.02, -187500.02, -187500.02, 0.00, 0.00, 0.00
152, 167631.53, -22435.38, 187500.00, -187500.02, 146228.45, -187500.02, -187500.02, -187500.02, 0.00, 0.00, 0.00
153, 166900.05, -23205.56, 187500.00, -187500.02, 146672.50, -187500.02, -187500.02, -187500.02, 0.00, 0.00, 0.00
154, 162596.02, -23894.42, 187500.00, -187500.02, 145694.34, -187500.02, -187500.02, -187500.02, 0.00, 0.00, 0.00
155, 163058.56, -23524.61, 187500.00, -187500.02, 145236.48, -187500.02, -187500.02, -187500.02, 0.00, 0.00, 0.00
156, 167598.58, -23116.11, 187500.00, -187500.02, 146269.31, -187500.02, -187500.02, -187500.02, 0.00, 0.00, 0.00
157, 168058.38, -23747.43, 187500.00, -187500.02, 147018.95, -187500.02, -187500.02, -187500.02, 0.00, 0.00, 0.00
158, 163747.84, -24577.57, 187500.00, -187500.02, 146232.28, -187500.02, -187500.02, -187500.02, 0.00, 0.00, 0.00
159, 163119.94, -24382.94, 187500.00, -187500.02, 145561.23, -187500.02, -187500.02, -187500.02, 0.00, 0.00, 0.00
160, 167544.17, -23853.04, 187500.00, -187500.02, 146465.97, -187500.02, -187500.02, -187500.02, 0.00, 0.00, 0.00
161, 168935.13, -24290.47, 187500.00, -187500.02, 147411.27, -187500.02, -187500.02, -187500.02, 0.00, 0.00, 0.00
162, 165223.11, -25455.35, 187500.00, -187500.02, 146852.63, -187500.02, -187500.02, -187500.02, 0.00, 0.00, 0.00
163, 163419.28, -25601.40, 187500.00, -187500.02, 146008.81, -187500.02, -187500.02, -187500.02, 0.00, 0.00, 0.00
164, 166849.13, -24854.02, 187500.00, -187500.02, 146566.83, -187500.02, -187500.02, -187500.02, 0.00, 0.00, 0.00
165, 169001.53, -24980.42, 187500.00, -187500.02, 147518.47, -187500.02, -187500.02, -187500.02, 0.00, 0.00, 0.00
166, 165787.95, -26160.79, 187500.00, -187500.02, 147109.56, -187500.02, -187500.02, -187500.02, 0.00, 0.00, 0.00
167, 163146.14, -26550.12, 187500.00, -187500.02, 146103.38, -187500.02, -187500.02, -187500.02, 0.00, 0.00, 0.00
168, 165975.88, -25798.12, 187500.00, -187500.02, 146394.84, -187500.02, -187500.02, -187500.02, 0.00, 0.00, 0.00
169, 168853.14, -25662.04, 187500.00, -187500.02, 147396.92, -187500.02, -187500.02, -187500.02, 0.00, 0.00, 0.00
170, 166408.44, -26779.02, 187500.00, -187500.02, 147230.56, -187500.02, -187500.02, -187500.02, 0.00, 0.00, 0.00
171, 162911.42, -27405.09, 187500.00, -187500.02, 146131.13, -187500.02, -187500.02, -187500.02, 0.00, 0.00, 0.00
172, 165005.52, -26745.22, 187500.00, -187500.02, 146121.27, -187500.02, -187500.02, -187500.02, 0.00, 0.00, 0.00
173, 168595.72, -26380.47, 187500.00, -187500.02, 147181.58, -187500.02, -187500.02, -187500.02, 0.00, 0.00, 0.00
174, 166971.08, -27354.22, 187500.00, -187500.02, 147275.89, -187500.02, -187500.02, -187500.02, 0.00, 0.00, 0.00
175, 162996.64, -28199.52, 187500.00, -187500.02, 146175.63, -187500.02, -187500.02, -187500.02, 0.00, 0.00, 0.00
176, 164019.75, -27685.16, 187500.00, -187500.02, 145856.95, -187500.02, -187500.02, -187500.02, 0.00, 0.00, 0.00
177, 168040.44, -27129.27, 187500.00, -187500.02, 146856.83, -187500.02, -187500.02, -187500.02, 0.00, 0.00, 0.00
178, 167555.75, -27919.59, 187500.00, -187500.02, 147252.86, -187500.02, -187500.02, -187500.02, 0.00, 0.00, 0.00
179, 163356.33, -28937.10, 187500.00, -187500.02, 146254.70, -187500.02, -187500.02, -187500.02, 0.00, 0.00, 0.00
180, 163223.97, -28619.64, 187500.00, -187500.02, 145643.09, -187500.02, -187500.02, -187500.02, 0.00, 0.00, 0.00
181, 167369.03, -27935.46, 187500.00, -187500.02, 146522.78, -187500.02, -187500.02, -187500.02, 0.00, 0.00, 0.00
182, 167901.27, -28497.67, 187500.00, -187500.02, 147168.38, -187500.02, -187500.02, -187500.02, 0.00, 0.00, 0.00
183, 163863.41, -29633.54, 187500.00, -187500.02, 146341.17, -187500.02, -187500.02, -187500.02, 0.00, 0.00, 0.00
184, 162568.20, -29549.99, 187500.00, -187500.02, 145498.39, -187500.02, -187500.02, -187500.02, 0.00, 0.00, 0.00
185, 166434.19, -28779.48, 187500.00, -187500.02, 146156.67, -187500.02, -187500.02, -187500.02, 0.00, 0.00, 0.00
186, 168053.19, -29085.38, 187500.00, -187500.02, 146994.41, -187500.02, -187500.02, -187500.02, 0.00, 0.00, 0.00
187, 164396.50, -30265.63, 187500.00, -187500.02, 146383.41, -187500.02, -187500.02, -187500.02, 0.00, 0.00, 0.00
188, 162206.25, -30452.28, 187500.00, -187500.02, 145379.25, -187500.02, -187500.02, -187500.02, 0.00, 0.00, 0.00
189, 165615.30, -29673.15, 187500.00, -187500.02, 145826.75, -187500.02, -187500.02, -187500.02, 0.00, 0.00, 0.00
190, 168041.22, -29714.43, 187500.00, -187500.02, 146801.11, -187500.02, -187500.02, -187500.02, 0.00, 0.00, 0.00
191, 165001.94, -30870.22, 187500.00, -187500.02, 146437.98, -187500.02, -187500.02, -187500.02, 0.00, 0.00, 0.00
192, 162002.94, -31316.69, 187500.00, -187500.02, 145350.39, -187500.02, -187500.02, -187500.02, 0.00, 0.00, 0.00
193, 164663.47, -30581.59, 187500.00, -187500.02, 145531.17, -187500.02, -187500.02, -187500.02, 0.00, 0.00, 0.00
194, 167847.11, -30371.24, 187500.00, -187500.02, 146569.56, -187500.02, -187500.02, -187500.02, 0.00, 0.00, 0.00
195, 165619.33, -31432.52, 187500.00, -187500.02, 146484.97, -187500.02, -187500.02, -187500.02, 0.00, 0.00, 0.00
196, 161866.09, -32120.95, 187500.00, -187500.02, 145335.48, -187500.02, -187500.02, -187500.02, 0.00, 0.00, 0.00
197, 163757.69, -31532.59, 187500.00, -187500.02, 145225.27, -187500.02, -187500.02, -187500.02, 0.00, 0.00, 0.00
198, 167658.47, -31141.25, 187500.00, -187500.02, 146303.31, -187500.02, -187500.02, -187500.02, 0.00, 0.00, 0.00
199, 166376.17, -31919.88, 187500.00, -187500.02, 146556.50, -187500.02, -187500.02, -187500.02, 0.00, 0.00, 0.00
200, 161861.14, -32538.86, 187500.00, -187500.02, 145415.92, -187500.02, -187500.02, -187500.02, 0.00, 0.00, 0.00
201, 162594.94, -32101.62, 187500.00, -187500.02, 144928.77, -187500.02, -187500.02, -187500.02, 0.00, 0.00, 0.00
202, 167014.48, -31716.45, 187500.00, -187500.02, 145923.41, -187500.02, -187500.02, -187500.02, 0.00, 0.00, 0.00
203, 167019.05, -32381.13, 187500.00, -187500.02, 146511.75, -187500.02, -187500.02, -187500.02, 0.00, 0.00, 0.00
204, 162715.59, -33152.08, 187500.00, -187500.02, 145626.44, -187500.02, -187500.02, -187500.02, 0.00, 0.00, 0.00
205, 162475.30, -32868.71, 187500.00, -187500.02, 145009.28, -187500.02, -187500.02, -187500.02, 0.00, 0.00, 0.00
206, 166974.55, -32376.77, 187500.00, -187500.02, 145937.69, -187500.02, -187500.02, -187500.02, 0.00, 0.00, 0.00
207, 168179.33, -32885.29, 187500.00, -187500.02, 146834.55, -187500.02, -187500.02, -187500.02, 0.00, 0.00, 0.00
208, 164021.41, -33759.89, 187500.00, -187500.02, 146190.28, -187500.02, -187500.02, -187500.02, 0.00, 0.00, 0.00
209, 162582.00, -33658.95, 187500.00, -187500.02, 145374.69, -187500.02, -187500.02, -187500.02, 0.00, 0.00, 0.00
210, 166815.72, -33100.83, 187500.00, -187500.02, 146112.64, -187500.02, -187500.02, -187500.02, 0.00, 0.00, 0.00
211, 169030.72, -33420.08, 187500.00, -187500.02, 147199.63, -187500.02, -187500.02, -187500.02, 0.00, 0.00, 0.00
212, 165312.61, -34365.49, 187500.00, -187500.02, 146784.58, -187500.02, -187500.02, -187500.02, 0.00, 0.00, 0.00
213, 162525.88, -34479.66, 187500.00, -187500.02, 145734.98, -187500.02, -187500.02, -187500.02, 0.00, 0.00, 0.00
214, 165908.30, -33910.81, 187500.00, -187500.02, 146084.92, -187500.02, -187500.02, -187500.02, 0.00, 0.00, 0.00
215, 168949.67, -34043.65, 187500.00, -187500.02, 147180.59, -187500.02, -187500.02, -187500.02, 0.00, 0.00, 0.00
216, 165973.13, -34990.78, 187500.00, -187500.02, 146989.30, -187500.02, -187500.02, -187500.02, 0.00, 0.00, 0.00
217, 162327.77, -35308.09, 187500.00, -187500.02, 145840.59, -187500.02, -187500.02, -187500.02, 0.00, 0.00, 0.00
218, 164910.00, -34760.63, 187500.00, -187500.02, 145885.61, -187500.02, -187500.02, -187500.02, 0.00, 0.00, 0.00
219, 168701.31, -34697.17, 187500.00, -187500.02, 147020.92, -187500.02, -187500.02, -187500.02, 0.00, 0.00, 0.00
220, 166637.19, -35590.32, 187500.00, -187500.02, 147094.91, -187500.02, -187500.02, -187500.02, 0.00, 0.00, 0.00
221, 162407.41, -36105.98, 187500.00, -187500.02, 145935.67, -187500.02, -187500.02, -187500.02, 0.00, 0.00, 0.00
222, 163852.42, -35627.67, 187500.00, -187500.02, 145646.22, -187500.02, -187500.02, -187500.02, 0.00, 0.00, 0.00
223, 168214.94, -35392.85, 187500.00, -187500.02, 146720.22, -187500.02, -187500.02, -187500.02, 0.00, 0.00, 0.00
224, 167324.59, -36188.81, 187500.00, -187500.02, 147107.69, -187500.02, -187500.02, -187500.02, 0.00, 0.00, 0.00
225, 162782.70, -36884.47, 187500.00, -187500.02, 146039.70, -187500.02, -187500.02, -187500.02, 0.00, 0.00, 0.00
226, 163187.52, -36530.48, 187500.00, -187500.02, 145494.36, -187500.02, -187500.02, -187500.02, 0.00, 0.00, 0.00
227, 167666.55, -36155.24, 187500.00, -187500.02, 146461.39, -187500.02, -187500.02, -187500.02, 0.00, 0.00, 0.00
228, 167911.80, -36813.99, 187500.00, -187500.02, 147106.69, -187500.02, -187500.02, -187500.02, 0.00, 0.00, 0.00
229, 163426.30, -37660.14, 187500.00, -187500.02, 146207.50, -187500.02, -187500.02, -187500.02, 0.00, 0.00, 0.00
230, 162629.77, -37492.99, 187500.00, -187500.02, 145429.78, -187500.02, -187500.02, -187500.02, 0.00, 0.00, 0.00
231, 167001.77, -37075.98, 187500.00, -187500.02, 146212.66, -187500.02, -187500.02, -187500.02, 0.00, 0.00, 0.00
232, 168534.89, -37600.48, 187500.00, -187500.02, 147132.92, -187500.02, -187500.02, -187500.02, 0.00, 0.00, 0.00
233, 164241.89, -38521.15, 187500.00, -187500.02, 146464.47, -187500.02, -187500.02, -187500.02, 0.00, 0.00, 0.00
234, 162290.09, -38502.78, 187500.00, -187500.02, 145490.50, -187500.02, -187500.02, -187500.02, 0.00, 0.00, 0.00
235, 166145.30, -37949.77, 187500.00, -187500.02, 146030.61, -187500.02, -187500.02, -187500.02, 0.00, 0.00, 0.00
236, 168528.70, -38219.52, 187500.00, -187500.02, 147033.81, -187500.02, -187500.02, -187500.02, 0.00, 0.00, 0.00
237, 164971.53, -39170.76, 187500.00, -187500.02, 146624.89, -187500.02, -187500.02, -187500.02, 0.00, 0.00, 0.00
238, 161952.38, -39347.45, 187500.00, -187500.02, 145506.47, -187500.02, -187500.02, -187500.02, 0.00, 0.00, 0.00
239, 165033.14, -38772.16, 187500.00, -187500.02, 145718.66, -187500.02, -187500.02, -187500.02, 0.00, 0.00, 0.00
240, 168415.53, -38836.42, 187500.00, -187500.02, 146808.55, -187500.02, -187500.02, -187500.02, 0.00, 0.00, 0.00
241, 165673.05, -39765.68, 187500.00, -187500.02, 146674.31, -187500.02, -187500.02, -187500.02, 0.00, 0.00, 0.00
242, 161765.94, -40142.82, 187500.00, -187500.02, 145482.25, -187500.02, -187500.02, -187500.02, 0.00, 0.00, 0.00
243, 164037.13, -39610.91, 187500.00, -187500.02, 145408.39, -187500.02, -187500.02, -187500.02, 0.00, 0.00, 0.00
244, 168079.50, -39485.23, 187500.00, -187500.02, 146524.47, -187500.02, -187500.02, -187500.02, 0.00, 0.00, 0.00
245, 166374.78, -40342.82, 187500.00, -187500.02, 146694.56, -187500.02, -187500.02, -187500.02, 0.00, 0.00, 0.00
246, 162081.91, -40914.24, 187500.00, -187500.02, 145569.53, -187500.02, -187500.02, -187500.02, 0.00, 0.00, 0.00
247, 163294.58, -40466.13, 187500.00, -187500.02, 145230.19, -187500.02, -187500.02, -187500.02, 0.00, 0.00, 0.00
248, 167688.09, -40166.89, 187500.00, -187500.02, 146283.67, -187500.02, -187500.02, -187500.02, 0.00, 0.00, 0.00
249, 167194.70, -40910.87, 187500.00, -187500.02, 146768.44, -187500.02, -187500.02, -187500.02, 0.00, 0.00, 0.00
250, 162583.95, -41643.06, 187500.00, -187500.02, 145753.19, -187500.02, -187500.02, -187500.02, 0.00, 0.00, 0.00
251, 162632.53, -41323.48, 187500.00, -187500.02, 145140.13, -187500.02, -187500.02, -187500.02, 0.00, 0.00, 0.00
252, 167144.06, -40887.53, 187500.00, -187500.02, 146074.44, -187500.02, -187500.02, -187500.02, 0.00, 0.00, 0.00
253, 167858.78, -41455.09, 187500.00, -187500.02, 146838.14, -187500.02, -187500.02, -187500.02, 0.00, 0.00, 0.00
254, 163590.72, -42295.47, 187500.00, -187500.02, 146086.23, -187500.02, -187500.02, -187500.02, 0.00, 0.00, 0.00
255, 162568.28, -42130.69, 187500.00, -187500.02, 145327.89, -187500.02, -187500.02, -187500.02, 0.00, 0.00, 0.00
0, 166932.34, -41595.77, 187500.00, -187500.02, 146128.39, -187500.02, -187500.02, -187500.02, 0.00, 0.00, 0.00
1, 168842.02, -41983.97, 187500.00, -187500.02, 147150.84, -187500.02, -187500.02, -187500.02, 0.00, 0.00, 0.00
2, 165011.61, -42900.51, 187500.00, -187500.02, 146672.33, -187500.02, -187500.02, -187500.02, 0.00, 0.00, 0.00
3, 162810.09, -42927.33, 187500.00, -187500.02, 145749.97, -187500.02, -187500.02, -187500.02, 0.00, 0.00, 0.00
4, 166651.73, -42347.32, 187500.00, -187500.02, 146303.19, -187500.02, -187500.02, -187500.02, 0.00, 0.00, 0.00
5, 169484.17, -42534.88, 187500.00, -187500.02, 147455.70, -187500.02, -187500.02, -187500.02, 0.00, 0.00, 0.00
6, 166138.36, -43477.11, 187500.00, -187500.02, 147192.22, -187500.02, -187500.02, -187500.02, 0.00, 0.00, 0.00
7, 162855.39, -43723.05, 187500.00, -187500.02, 146096.39, -187500.02, -187500.02, -187500.02, 0.00, 0.00, 0.00
8, 165707.22, -43157.75, 187500.00, -187500.02, 146257.61, -187500.02, -187500.02, -187500.02, 0.00, 0.00, 0.00
9, 169191.55, -43154.64, 187500.00, -187500.02, 147367.11, -187500.02, -187500.02, -187500.02, 0.00, 0.00, 0.00
10, 166713.36, -44067.07, 187500.00, -187500.02, 147320.00, -187500.02, -187500.02, -187500.02, 0.00, 0.00, 0.00
11, 162716.30, -44511.42, 187500.00, -187500.02, 146148.44, -187500.02, -187500.02, -187500.02, 0.00, 0.00, 0.00
12, 164633.36, -43995.70, 187500.00, -187500.02, 145991.94, -187500.02, -187500.02, -187500.02, 0.00, 0.00, 0.00
13, 168641.92, -43801.82, 187500.00, -187500.02, 147053.22, -187500.02, -187500.02, -187500.02, 0.00, 0.00, 0.00
14, 167310.84, -44629.88, 187500.00, -187500.02, 147304.77, -187500.02, -187500.02, -187500.02, 0.00, 0.00, 0.00
15, 162782.66, -45254.17, 187500.00, -187500.02, 146172.95, -187500.02, -187500.02, -187500.02, 0.00, 0.00, 0.00
16, 163568.63, -44834.22, 187500.00, -187500.02, 145706.30, -187500.02, -187500.02, -187500.02, 0.00, 0.00, 0.00
17, 167981.69, -44482.81, 187500.00, -187500.02, 146687.28, -187500.02, -187500.02, -187500.02, 0.00, 0.00, 0.00
18, 167825.03, -45178.28, 187500.00, -187500.02, 147221.59, -187500.02, -187500.02, -187500.02, 0.00, 0.00, 0.00
19, 163284.70, -45957.73, 187500.00, -187500.02, 146245.58, -187500.02, -187500.02, -187500.02, 0.00, 0.00, 0.00
20, 162975.03, -45690.23, 187500.00, -187500.02, 145566.78, -187500.02, -187500.02, -187500.02, 0.00, 0.00, 0.00
21, 167285.23, -45219.61, 187500.00, -187500.02, 146392.59, -187500.02, -187500.02, -187500.02, 0.00, 0.00, 0.00
22, 168355.53, -45752.95, 187500.00, -187500.02, 147184.20, -187500.02, -187500.02, -187500.02, 0.00, 0.00, 0.00
23, 164161.78, -46673.37, 187500.00, -187500.02, 146469.39, -187500.02, -187500.02, -187500.02, 0.00, 0.00, 0.00
24, 162598.91, -46644.18, 187500.00, -187500.02, 145586.25, -187500.02, -187500.02, -187500.02, 0.00, 0.00, 0.00
25, 166621.86, -46064.13, 187500.00, -187500.02, 146223.97, -187500.02, -187500.02, -187500.02, 0.00, 0.00, 0.00
26, 168604.59, -46304.12, 187500.00, -187500.02, 147181.63, -187500.02, -187500.02, -187500.02, 0.00, 0.00, 0.00
27, 164854.02, -47299.84, 187500.00, -187500.02, 146660.77, -187500.02, -187500.02, -187500.02, 0.00, 0.00, 0.00
28, 162299.91, -47536.66, 187500.00, -187500.02, 145595.19, -187500.02, -187500.02, -187500.02, 0.00, 0.00, 0.00
29, 165841.63, -46944.92, 187500.00, -187500.02, 146000.56, -187500.02, -187500.02, -187500.02, 0.00, 0.00, 0.00
30, 168641.02, -46952.39, 187500.00, -187500.02, 147062.38, -187500.02, -187500.02, -187500.02, 0.00, 0.00, 0.00
31, 165576.55, -47865.68, 187500.00, -187500.02, 146806.83, -187500.02, -187500.02, -187500.02, 0.00, 0.00, 0.00
32, 161980.27, -48187.92, 187500.00, -187500.02, 145622.92, -187500.02, -187500.02, -187500.02, 0.00, 0.00, 0.00
33, 164623.00, -47635.72, 187500.00, -187500.02, 145663.31, -187500.02, -187500.02, -187500.02, 0.00, 0.00, 0.00
34, 168421.34, -47568.29, 187500.00, -187500.02, 146777.06, -187500.02, -187500.02, -187500.02, 0.00, 0.00, 0.00
35, 166394.50, -48463.07, 187500.00, -187500.02, 146853.55, -187500.02, -187500.02, -187500.02, 0.00, 0.00, 0.00
36, 162219.25, -48971.17, 187500.00, -187500.02, 145713.83, -187500.02, -187500.02, -187500.02, 0.00, 0.00, 0.00
37, 163797.06, -48482.21, 187500.00, -187500.02, 145471.30, -187500.02, -187500.02, -187500.02, 0.00, 0.00, 0.00
38, 168049.53, -48235.31, 187500.00, -187500.02, 146547.17, -187500.02, -187500.02, -187500.02, 0.00, 0.00, 0.00
39, 167140.58, -49028.01, 187500.00, -187500.02, 146926.75, -187500.02, -187500.02, -187500.02, 0.00, 0.00, 0.00
40, 162572.30, -49702.88, 187500.00, -187500.02, 145860.91, -187500.02, -187500.02, -187500.02, 0.00, 0.00, 0.00
41, 163007.13, -49323.68, 187500.00, -187500.02, 145325.52, -187500.02, -187500.02, -187500.02, 0.00, 0.00, 0.00
42, 167514.88, -48923.00, 187500.00, -187500.02, 146305.55, -187500.02, -187500.02, -187500.02, 0.00, 0.00, 0.00
43, 167847.67, -49550.04, 187500.00, -187500.02, 146986.19, -187500.02, -187500.02, -187500.02, 0.00, 0.00, 0.00
44, 163471.28, -50350.01, 187500.00, -187500.02, 146148.48, -187500.02, -187500.02, -187500.02, 0.00, 0.00, 0.00
45, 162858.14, -50110.73, 187500.00, -187500.02, 145459.14, -187500.02, -187500.02, -187500.02, 0.00, 0.00, 0.00
46, 167450.22, -49600.02, 187500.00, -187500.02, 146355.91, -187500.02, -187500.02, -187500.02, 0.00, 0.00, 0.00
47, 169009.78, -50056.57, 187500.00, -187500.02, 147348.14, -187500.02, -187500.02, -187500.02, 0.00, 0.00, 0.00
48, 164991.08, -50967.05, 187500.00, -187500.02, 146787.72, -187500.02, -187500.02, -187500.02, 0.00, 0.00, 0.00
49, 163269.20, -50988.89, 187500.00, -187500.02, 145947.19, -187500.02, -187500.02, -187500.02, 0.00, 0.00, 0.00
50, 167288.45, -50368.74, 187500.00, -187500.02, 146620.16, -187500.02, -187500.02, -187500.02, 0.00, 0.00, 0.00
51, 169614.70, -50509.89, 187500.00, -187500.02, 147702.28, -187500.02, -187500.02, -187500.02, 0.00, 0.00, 0.00
52, 166219.77, -51582.06, 187500.00, -187500.02, 147345.84, -187500.02, -187500.02, -187500.02, 0.00, 0.00, 0.00
53, 163419.55, -51941.43, 187500.00, -187500.02, 146327.09, -187500.02, -187500.02, -187500.02, 0.00, 0.00, 0.00
54, 166434.02, -51271.26, 187500.00, -187500.02, 146634.88, -187500.02, -187500.02, -187500.02, 0.00, 0.00, 0.00
55, 169460.38, -51154.22, 187500.00, -187500.02, 147703.36, -187500.02, -187500.02, -187500.02, 0.00, 0.00, 0.00
56, 166802.95, -52182.45, 187500.00, -187500.02, 147540.53, -187500.02, -187500.02, -187500.02, 0.00, 0.00, 0.00
57, 163239.88, -52770.34, 187500.00, -187500.02, 146406.95, -187500.02, -187500.02, -187500.02, 0.00, 0.00, 0.00
58, 165523.38, -52188.04, 187500.00, -187500.02, 146419.33, -187500.02, -187500.02, -187500.02, 0.00, 0.00, 0.00
59, 169187.64, -51877.52, 187500.00, -187500.02, 147510.91, -187500.02, -187500.02, -187500.02, 0.00, 0.00, 0.00
60, 167324.11, -52728.21, 187500.00, -187500.02, 147599.61, -187500.02, -187500.02, -187500.02, 0.00, 0.00, 0.00
61, 163235.41, -53467.81, 187500.00, -187500.02, 146462.86, -187500.02, -187500.02, -187500.02, 0.00, 0.00, 0.00
62, 164481.75, -53043.97, 187500.00, -187500.02, 146160.88, -187500.02, -187500.02, -187500.02, 0.00, 0.00, 0.00
63, 168653.98, -52581.25, 187500.00, -187500.02, 147195.08, -187500.02, -187500.02, -187500.02, 0.00, 0.00, 0.00
64, 167996.28, -53301.78, 187500.00, -187500.02, 147606.41, -187500.02, -187500.02, -187500.02, 0.00, 0.00, 0.00
65, 163612.33, -54230.47, 187500.00, -187500.02, 146568.50, -187500.02, -187500.02, -187500.02, 0.00, 0.00, 0.00
66, 163766.13, -53950.43, 187500.00, -187500.02, 146008.31, -187500.02, -187500.02, -187500.02, 0.00, 0.00, 0.00
67, 167773.89, -53311.12, 187500.00, -187500.02, 146874.56, -187500.02, -187500.02, -187500.02, 0.00, 0.00, 0.00
68, 168223.27, -53837.71, 187500.00, -187500.02, 147481.36, -187500.02, -187500.02, -187500.02, 0.00, 0.00, 0.00
69, 164044.66, -54894.81, 187500.00, -187500.02, 146631.69, -187500.02, -187500.02, -187500.02, 0.00, 0.00, 0.00
70, 162954.16, -54831.44, 187500.00, -187500.02, 145811.72, -187500.02, -187500.02, -187500.02, 0.00, 0.00, 0.00
71, 166840.03, -54123.81, 187500.00, -187500.02, 146478.86, -187500.02, -187500.02, -187500.02, 0.00, 0.00, 0.00
72, 168376.88, -54410.45, 187500.00, -187500.02, 147290.91, -187500.02, -187500.02, -187500.02, 0.00, 0.00, 0.00
73, 164657.61, -55504.83, 187500.00, -187500.02, 146668.59, -187500.02, -187500.02, -187500.02, 0.00, 0.00, 0.00
74, 162687.28, -55689.23, 187500.00, -187500.02, 145724.66, -187500.02, -187500.02, -187500.02, 0.00, 0.00, 0.00
75, 166167.69, -54987.79, 187500.00, -187500.02, 146203.89, -187500.02, -187500.02, -187500.02, 0.00, 0.00, 0.00
76, 168585.75, -55040.83, 187500.00, -187500.02, 147188.64, -187500.02, -187500.02, -187500.02, 0.00, 0.00, 0.00
77, 165354.59, -56114.95, 187500.00, -187500.02, 146807.39, -187500.02, -187500.02, -187500.02, 0.00, 0.00, 0.00
78, 162381.38, -56541.24, 187500.00, -187500.02, 145721.50, -187500.02, -187500.02, -187500.02, 0.00, 0.00, 0.00
79, 165184.11, -55849.54, 187500.00, -187500.02, 145917.61, -187500.02, -187500.02, -187500.02, 0.00, 0.00, 0.00
80, 168461.03, -55652.54, 187500.00, -187500.02, 146982.89, -187500.02, -187500.02, -187500.02, 0.00, 0.00, 0.00
81, 166164.77, -56695.85, 187500.00, -187500.02, 146897.77, -187500.02, -187500.02, -187500.02, 0.00, 0.00, 0.00
82, 162546.81, -57364.57, 187500.00, -187500.02, 145796.31, -187500.02, -187500.02, -187500.02, 0.00, 0.00, 0.00
83, 164461.27, -56751.10, 187500.00, -187500.02, 145732.67, -187500.02, -187500.02, -187500.02, 0.00, 0.00, 0.00
84, 168148.97, -56332.21, 187500.00, -187500.02, 146772.91, -187500.02, -187500.02, -187500.02, 0.00, 0.00, 0.00
85, 166792.20, -57244.43, 187500.00, -187500.02, 146945.50, -187500.02, -187500.02, -187500.02, 0.00, 0.00, 0.00
86, 162734.73, -58119.45, 187500.00, -187500.02, 145875.91, -187500.02, -187500.02, -187500.02, 0.00, 0.00, 0.00
87, 163658.38, -57661.02, 187500.00, -187500.02, 145536.47, -187500.02, -187500.02, -187500.02, 0.00, 0.00, 0.00
88, 167711.53, -57071.76, 187500.00, -187500.02, 146532.59, -187500.02, -187500.02, -187500.02, 0.00, 0.00, 0.00
89, 167396.25, -57774.99, 187500.00, -187500.02, 146989.56, -187500.02, -187500.02, -187500.02, 0.00, 0.00, 0.00
90, 163246.25, -58805.54, 187500.00, -187500.02, 146036.86, -187500.02, -187500.02, -187500.02, 0.00, 0.00, 0.00
91, 163124.44, -58578.71, 187500.00, -187500.02, 145459.67, -187500.02, -187500.02, -187500.02, 0.00, 0.00, 0.00
92, 167189.91, -57878.54, 187500.00, -187500.02, 146321.13, -187500.02, -187500.02, -187500.02, 0.00, 0.00, 0.00
93, 167947.89, -58351.51, 187500.00, -187500.02, 147026.86, -187500.02, -187500.02, -187500.02, 0.00, 0.00, 0.00
94, 163863.05, -59478.53, 187500.00, -187500.02, 146239.05, -187500.02, -187500.02, -187500.02, 0.00, 0.00, 0.00
95, 162482.27, -59464.96, 187500.00, -187500.02, 145388.50, -187500.02, -187500.02, -187500.02, 0.00, 0.00, 0.00
96, 166291.27, -58682.85, 187500.00, -187500.02, 146032.30, -187500.02, -187500.02, -187500.02, 0.00, 0.00, 0.00
97, 168255.72, -58894.09, 187500.00, -187500.02, 146961.11, -187500.02, -187500.02, -187500.02, 0.00, 0.00, 0.00
98, 164866.59, -60022.12, 187500.00, -187500.02, 146498.88, -187500.02, -187500.02, -187500.02, 0.00, 0.00, 0.00
99, 162639.44, -60261.13, 187500.00, -187500.02, 145575.44, -187500.02, -187500.02, -187500.02, 0.00, 0.00, 0.00
100, 166142.55, -59517.84, 187500.00, -187500.02, 146080.72, -187500.02, -187500.02, -187500.02, 0.00, 0.00, 0.00
101, 168964.03, -59465.83, 187500.00, -187500.02, 147202.58, -187500.02, -187500.02, -187500.02, 0.00, 0.00, 0.00
102, 166140.98, -60513.23, 187500.00, -187500.02, 147009.41, -187500.02, -187500.02, -187500.02, 0.00, 0.00, 0.00
103, 162972.42, -61013.64, 187500.00, -187500.02, 145967.91, -187500.02, -187500.02, -187500.02, 0.00, 0.00, 0.00
104, 165672.11, -60433.04, 187500.00, -187500.02, 146154.05, -187500.02, -187500.02, -187500.02, 0.00, 0.00, 0.00
105, 169032.69, -60199.93, 187500.00, -187500.02, 147256.63, -187500.02, -187500.02, -187500.02, 0.00, 0.00, 0.00
106, 166855.25, -61095.45, 187500.00, -187500.02, 147259.64, -187500.02, -187500.02, -187500.02, 0.00, 0.00, 0.00
107, 162890.92, -61690.34, 187500.00, -187500.02, 146129.98, -187500.02, -187500.02, -187500.02, 0.00, 0.00, 0.00
108, 164548.91, -61223.91, 187500.00, -187500.02, 145943.23, -187500.02, -187500.02, -187500.02, 0.00, 0.00, 0.00
109, 168762.66, -60994.51, 187500.00, -187500.02, 147037.08, -187500.02, -187500.02, -187500.02, 0.00, 0.00, 0.00
110, 167779.98, -61801.10, 187500.00, -187500.02, 147414.38, -187500.02, -187500.02, -187500.02, 0.00, 0.00, 0.00
111, 163203.56, -62484.32, 187500.00, -187500.02, 146339.34, -187500.02, -187500.02, -187500.02, 0.00, 0.00, 0.00
112, 163701.83, -62117.60, 187500.00, -187500.02, 145832.31, -187500.02, -187500.02, -187500.02, 0.00, 0.00, 0.00
113, 168173.02, -61744.23, 187500.00, -187500.02, 146806.63, -187500.02, -187500.02, -187500.02, 0.00, 0.00, 0.00
114, 168283.47, -62412.71, 187500.00, -187500.02, 147411.56, -187500.02, -187500.02, -187500.02, 0.00, 0.00, 0.00
115, 163813.25, -63257.38, 187500.00, -187500.02, 146489.14, -187500.02, -187500.02, -187500.02, 0.00, 0.00, 0.00
116, 163153.25, -63078.10, 187500.00, -187500.02, 145741.80, -187500.02, -187500.02, -187500.02, 0.00, 0.00, 0.00
117, 167301.22, -62551.51, 187500.00, -187500.02, 146501.47, -187500.02, -187500.02, -187500.02, 0.00, 0.00, 0.00
118, 168382.48, -62899.08, 187500.00, -187500.02, 147283.66, -187500.02, -187500.02, -187500.02, 0.00, 0.00, 0.00
119, 164327.66, -63922.50, 187500.00, -187500.02, 146550.08, -187500.02, -187500.02, -187500.02, 0.00, 0.00, 0.00
120, 162754.94, -63989.85, 187500.00, -187500.02, 145655.72, -187500.02, -187500.02, -187500.02, 0.00, 0.00, 0.00
121, 166403.55, -63223.16, 187500.00, -187500.02, 146228.66, -187500.02, -187500.02, -187500.02, 0.00, 0.00, 0.00
122, 168529.44, -63359.50, 187500.00, -187500.02, 147156.30, -187500.02, -187500.02, -187500.02, 0.00, 0.00, 0.00
123, 165166.33, -64503.67, 187500.00, -187500.02, 146707.61, -187500.02, -187500.02, -187500.02, 0.00, 0.00, 0.00
124, 162436.31, -64836.86, 187500.00, -187500.02, 145655.98, -187500.02, -187500.02, -187500.02, 0.00, 0.00, 0.00
125, 165434.94, -64087.99, 187500.00, -187500.02, 145936.70, -187500.02, -187500.02, -187500.02, 0.00, 0.00, 0.00
126, 168407.67, -63967.70, 187500.00, -187500.02, 146962.56, -187500.02, -187500.02, -187500.02, 0.00, 0.00, 0.00
127, 165761.22, -65046.73, 187500.00, -187500.02, 146752.39, -187500.02, -187500.02, -187500.02, 0.00, 0.00, 0.00
128, 162419.64, -65635.70, 187500.00, -187500.02, 145668.30, -187500.02, -187500.02, -187500.02, 0.00, 0.00, 0.00
129, 164568.52, -64972.56, 187500.00, -187500.02, 145685.84, -187500.02, -187500.02, -187500.02, 0.00, 0.00, 0.00
130, 168168.84, -64623.61, 187500.00, -187500.02, 146735.42, -187500.02, -187500.02, -187500.02, 0.00, 0.00, 0.00
131, 166438.48, -65581.16, 187500.00, -187500.02, 146815.06, -187500.02, -187500.02, -187500.02, 0.00, 0.00, 0.00
132, 162421.34, -66387.30, 187500.00, -187500.02, 145699.59, -187500.02, -187500.02, -187500.02, 0.00, 0.00, 0.00
133, 163645.88, -65866.81, 187500.00, -187500.02, 145417.19, -187500.02, -187500.02, -187500.02, 0.00, 0.00, 0.00
134, 167728.17, -65316.54, 187500.00, -187500.02, 146451.44, -187500.02, -187500.02, -187500.02, 0.00, 0.00, 0.00
135, 167307.86, -66087.09, 187500.00, -187500.02, 146889.25, -187500.02, -187500.02, -187500.02, 0.00, 0.00, 0.00
136, 163400.77, -67062.18, 187500.00, -187500.02, 146019.27, -187500.02, -187500.02, -187500.02, 0.00, 0.00, 0.00
137, 163611.48, -66713.74, 187500.00, -187500.02, 145595.89, -187500.02, -187500.02, -187500.02, 0.00, 0.00, 0.00
138, 167757.70, -66016.19, 187500.00, -187500.02, 146562.58, -187500.02, -187500.02, -187500.02, 0.00, 0.00, 0.00
139, 168384.84, -66570.69, 187500.00, -187500.02, 147279.69, -187500.02, -187500.02, -187500.02, 0.00, 0.00, 0.00
140, 164421.69, -67671.27, 187500.00, -187500.02, 146544.48, -187500.02, -187500.02, -187500.02, 0.00, 0.00, 0.00
141, 163508.22, -67589.75, 187500.00, -187500.02, 145865.27, -187500.02, -187500.02, -187500.02, 0.00, 0.00, 0.00
142, 167280.92, -66839.09, 187500.00, -187500.02, 146594.53, -187500.02, -187500.02, -187500.02, 0.00, 0.00, 0.00
143, 168748.02, -67136.08, 187500.00, -187500.02, 147424.66, -187500.02, -187500.02, -187500.02, 0.00, 0.00, 0.00
144, 164965.44, -68242.00, 187500.00, -187500.02, 146805.11, -187500.02, -187500.02, -187500.02, 0.00, 0.00, 0.00
145, 162942.89, -68431.74, 187500.00, -187500.02, 145867.09, -187500.02, -187500.02, -187500.02, 0.00, 0.00, 0.00
146, 166460.81, -67804.13, 187500.00, -187500.02, 146348.11, -187500.02, -187500.02, -187500.02, 0.00, 0.00, 0.00
147, 168905.17, -67904.20, 187500.00, -187500.02, 147339.36, -187500.02, -187500.02, -187500.02, 0.00, 0.00, 0.00
148, 165680.64, -68890.47, 187500.00, -187500.02, 146995.59, -187500.02, -187500.02, -187500.02, 0.00, 0.00, 0.00
149, 162691.38, -69259.05, 187500.00, -187500.02, 145919.73, -187500.02, -187500.02, -187500.02, 0.00, 0.00, 0.00
150, 165608.89, -68722.65, 187500.00, -187500.02, 146117.03, -187500.02, -187500.02, -187500.02, 0.00, 0.00, 0.00
151, 169068.08, -68732.82, 187500.00, -187500.02, 147224.19, -187500.02, -187500.02, -187500.02, 0.00, 0.00, 0.00
152, 166654.28, -69666.52, 187500.00, -187500.02, 147198.70, -187500.02, -187500.02, -187500.02, 0.00, 0.00, 0.00
153, 162667.19, -70112.32, 187500.00, -187500.02, 146058.81, -187500.02, -187500.02, -187500.02, 0.00, 0.00, 0.00
154, 164530.84, -69585.98, 187500.00, -187500.02, 145908.41, -187500.02, -187500.02, -187500.02, 0.00, 0.00, 0.00
155, 168512.25, -69396.60, 187500.00, -187500.02, 146948.80, -187500.02, -187500.02, -187500.02, 0.00, 0.00, 0.00
156, 167084.45, -70234.55, 187500.00, -187500.02, 147162.36, -187500.02, -187500.02, -187500.02, 0.00, 0.00, 0.00
157, 162640.41, -70858.24, 187500.00, -187500.02, 146023.09, -187500.02, -187500.02, -187500.02, 0.00, 0.00, 0.00
158, 163598.64, -70434.57, 187500.00, -187500.02, 145605.09, -187500.02, -187500.02, -187500.02, 0.00, 0.00, 0.00
159, 167987.61, -70087.22, 187500.00, -187500.02, 146609.02, -187500.02, -187500.02, -187500.02, 0.00, 0.00, 0.00
160, 167734.06, -70794.50, 187500.00, -187500.02, 147129.30, -187500.02, -187500.02, -187500.02, 0.00, 0.00, 0.00
161, 163177.36, -71572.95, 187500.00, -187500.02, 146155.45, -187500.02, -187500.02, -187500.02, 0.00, 0.00, 0.00
162, 162705.47, -71280.20, 187500.00, -187500.02, 145433.23, -187500.02, -187500.02, -187500.02, 0.00, 0.00, 0.00
163, 167046.73, -70805.16, 187500.00, -187500.02, 146234.67, -187500.02, -187500.02, -187500.02, 0.00, 0.00, 0.00
164, 167965.42, -71341.38, 187500.00, -187500.02, 146971.00, -187500.02, -187500.02, -187500.02, 0.00, 0.00, 0.00
165, 163724.91, -72229.64, 187500.00, -187500.02, 146204.30, -187500.02, -187500.02, -187500.02, 0.00, 0.00, 0.00
166, 162234.45, -72117.88, 187500.00, -187500.02, 145313.77, -187500.02, -187500.02, -187500.02, 0.00, 0.00, 0.00
167, 166339.69, -71566.73, 187500.00, -187500.02, 145950.67, -187500.02, -187500.02, -187500.02, 0.00, 0.00, 0.00
168, 168360.89, -71908.29, 187500.00, -187500.02, 146907.30, -187500.02, -187500.02, -187500.02, 0.00, 0.00, 0.00
169, 164593.77, -72854.19, 187500.00, -187500.02, 146400.77, -187500.02, -187500.02, -187500.02, 0.00, 0.00, 0.00
170, 162034.39, -72945.09, 187500.00, -187500.02, 145370.05, -187500.02, -187500.02, -187500.02, 0.00, 0.00, 0.00
171, 165468.38, -72358.09, 187500.00, -187500.02, 145723.63, -187500.02, -187500.02, -187500.02, 0.00, 0.00, 0.00
172, 168320.70, -72491.55, 187500.00, -187500.02, 146750.44, -187500.02, -187500.02, -187500.02, 0.00, 0.00, 0.00
173, 165292.31, -73441.44, 187500.00, -187500.02, 146498.11, -187500.02, -187500.02, -187500.02, 0.00, 0.00, 0.00
174, 161838.77, -73738.34, 187500.00, -187500.02, 145371.69, -187500.02, -187500.02, -187500.02, 0.00, 0.00, 0.00
175, 164565.92, -73169.23, 187500.00, -187500.02, 145468.67, -187500.02, -187500.02, -187500.02, 0.00, 0.00, 0.00
176, 168362.66, -73088.68, 187500.00, -187500.02, 146618.08, -187500.02, -187500.02, -187500.02, 0.00, 0.00, 0.00
177, 166374.78, -73966.93, 187500.00, -187500.02, 146731.22, -187500.02, -187500.02, -187500.02, 0.00, 0.00, 0.00
178, 162478.88, -74452.14, 187500.00, -187500.02, 145697.36, -187500.02, -187500.02, -187500.02, 0.00, 0.00, 0.00
179, 164439.52, -73945.52, 187500.00, -187500.02, 145633.44, -187500.02, -187500.02, -187500.02, 0.00, 0.00, 0.00
180, 168799.05, -73689.25, 187500.00, -187500.02, 146837.41, -187500.02, -187500.02, -187500.02, 0.00, 0.00, 0.00
181, 167856.14, -74473.20, 187500.00, -187500.02, 147269.14, -187500.02, -187500.02, -187500.02, 0.00, 0.00, 0.00
182, 163554.48, -75150.48, 187500.00, -187500.02, 146321.63, -187500.02, -187500.02, -187500.02, 0.00, 0.00, 0.00
183, 164028.22, -74769.22, 187500.00, -187500.02, 145886.81, -187500.02, -187500.02, -187500.02, 0.00, 0.00, 0.00
184, 168459.58, -74383.36, 187500.00, -187500.02, 146882.77, -187500.02, -187500.02, -187500.02, 0.00, 0.00, 0.00
185, 168601.28, -75044.68, 187500.00, -187500.02, 147524.13, -187500.02, -187500.02, -187500.02, 0.00, 0.00, 0.00
186, 164033.48, -75862.29, 187500.00, -187500.02, 146619.86, -187500.02, -187500.02, -187500.02, 0.00, 0.00, 0.00
187, 163403.50, -75635.64, 187500.00, -187500.02, 145895.06, -187500.02, -187500.02, -187500.02, 0.00, 0.00, 0.00
188, 167599.55, -75133.53, 187500.00, -187500.02, 146676.33, -187500.02, -187500.02, -187500.02, 0.00, 0.00, 0.00
189, 168877.92, -75615.59, 187500.00, -187500.02, 147500.47, -187500.02, -187500.02, -187500.02, 0.00, 0.00, 0.00
190, 164810.94, -76532.52, 187500.00, -187500.02, 146846.31, -187500.02, -187500.02, -187500.02, 0.00, 0.00, 0.00
191, 163033.34, -76489.77, 187500.00, -187500.02, 145940.19, -187500.02, -187500.02, -187500.02, 0.00, 0.00, 0.00
192, 166902.97, -75924.07, 187500.00, -187500.02, 146505.95, -187500.02, -187500.02, -187500.02, 0.00, 0.00, 0.00
193, 169142.73, -76203.91, 187500.00, -187500.02, 147480.34, -187500.02, -187500.02, -187500.02, 0.00, 0.00, 0.00
194, 165635.00, -77163.61, 187500.00, -187500.02, 147064.69, -187500.02, -187500.02, -187500.02, 0.00, 0.00, 0.00
195, 162707.53, -77321.52, 187500.00, -187500.02, 145994.61, -187500.02, -187500.02, -187500.02, 0.00, 0.00, 0.00
196, 165873.98, -76738.23, 187500.00, -187500.02, 146250.80, -187500.02, -187500.02, -187500.02, 0.00, 0.00, 0.00
197, 169108.63, -76816.44, 187500.00, -187500.02, 147325.17, -187500.02, -187500.02, -187500.02, 0.00, 0.00, 0.00
198, 166401.88, -77760.17, 187500.00, -187500.02, 147196.69, -187500.02, -187500.02, -187500.02, 0.00, 0.00, 0.00
199, 162667.97, -78123.91, 187500.00, -187500.02, 146065.77, -187500.02, -187500.02, -187500.02, 0.00, 0.00, 0.00
200, 164927.13, -77571.99, 187500.00, -187500.02, 146022.33, -187500.02, -187500.02, -187500.02, 0.00, 0.00, 0.00
201, 168757.77, -77448.93, 187500.00, -187500.02, 147095.19, -187500.02, -187500.02, -187500.02, 0.00, 0.00, 0.00
202, 167001.86, -78321.05, 187500.00, -187500.02, 147213.52, -187500.02, -187500.02, -187500.02, 0.00, 0.00, 0.00
203, 162778.66, -78879.88, 187500.00, -187500.02, 146098.81, -187500.02, -187500.02, -187500.02, 0.00, 0.00, 0.00
204, 163975.92, -78405.87, 187500.00, -187500.02, 145768.02, -187500.02, -187500.02, -187500.02, 0.00, 0.00, 0.00
205, 168251.92, -78107.52, 187500.00, -187500.02, 146779.14, -187500.02, -187500.02, -187500.02, 0.00, 0.00, 0.00
206, 167647.84, -78868.44, 187500.00, -187500.02, 147204.84, -187500.02, -187500.02, -187500.02, 0.00, 0.00, 0.00
207, 163124.98, -79593.02, 187500.00, -187500.02, 146179.31, -187500.02, -187500.02, -187500.02, 0.00, 0.00, 0.00
208, 163269.83, -79252.40, 187500.00, -187500.02, 145595.91, -187500.02, -187500.02, -187500.02, 0.00, 0.00, 0.00
209, 167723.95, -78823.34, 187500.00, -187500.02, 146519.06, -187500.02, -187500.02, -187500.02, 0.00, 0.00, 0.00
210, 168361.33, -79432.64, 187500.00, -187500.02, 147241.39, -187500.02, -187500.02, -187500.02, 0.00, 0.00, 0.00
211, 163911.58, -80284.76, 187500.00, -187500.02, 146417.28, -187500.02, -187500.02, -187500.02, 0.00, 0.00, 0.00
212, 162836.28, -80112.47, 187500.00, -187500.02, 145604.28, -187500.02, -187500.02, -187500.02, 0.00, 0.00, 0.00
213, 167018.33, -79585.87, 187500.00, -187500.02, 146323.03, -187500.02, -187500.02, -187500.02, 0.00, 0.00, 0.00
214, 168681.59, -80003.62, 187500.00, -187500.02, 147220.34, -187500.02, -187500.02, -187500.02, 0.00, 0.00, 0.00
215, 164615.58, -80932.52, 187500.00, -187500.02, 146599.97, -187500.02, -187500.02, -187500.02, 0.00, 0.00, 0.00
216, 162475.03, -80953.79, 187500.00, -187500.02, 145610.36, -187500.02, -187500.02, -187500.02, 0.00, 0.00, 0.00
217, 166189.94, -80371.88, 187500.00, -187500.02, 146089.13, -187500.02, -187500.02, -187500.02, 0.00, 0.00, 0.00
218, 168914.05, -80570.13, 187500.00, -187500.02, 147152.61, -187500.02, -187500.02, -187500.02, 0.00, 0.00, 0.00
219, 165799.47, -81512.14, 187500.00, -187500.02, 146900.22, -187500.02, -187500.02, -187500.02, 0.00, 0.00, 0.00
220, 162713.91, -81718.96, 187500.00, -187500.02, 145870.45, -187500.02, -187500.02, -187500.02, 0.00, 0.00, 0.00
221, 165776.53, -81124.83, 187500.00, -187500.02, 146121.28, -187500.02, -187500.02, -187500.02, 0.00, 0.00, 0.00
222, 169465.98, -81124.65, 187500.00, -187500.02, 147328.91, -187500.02, -187500.02, -187500.02, 0.00, 0.00, 0.00
223, 167236.31, -82041.65, 187500.00, -187500.02, 147410.22, -187500.02, -187500.02, -187500.02, 0.00, 0.00, 0.00
224, 163427.70, -82466.73, 187500.00, -187500.02, 146383.05, -187500.02, -187500.02, -187500.02, 0.00, 0.00, 0.00
225, 165290.19, -81933.87, 187500.00, -187500.02, 146292.56, -187500.02, -187500.02, -187500.02, 0.00, 0.00, 0.00
226, 169242.64, -81752.77, 187500.00, -187500.02, 147377.70, -187500.02, -187500.02, -187500.02, 0.00, 0.00, 0.00
227, 167834.13, -82594.12, 187500.00, -187500.02, 147620.55, -187500.02, -187500.02, -187500.02, 0.00, 0.00, 0.00
228, 163430.56, -83204.95, 187500.00, -187500.02, 146534.33, -187500.02, -187500.02, -187500.02, 0.00, 0.00, 0.00
229, 164285.34, -82767.10, 187500.00, -187500.02, 146124.23, -187500.02, -187500.02, -187500.02, 0.00, 0.00, 0.00
230, 168662.80, -82424.31, 187500.00, -187500.02, 147122.22, -187500.02, -187500.02, -187500.02, 0.00, 0.00, 0.00
231, 168346.25, -83133.20, 187500.00, -187500.02, 147623.86, -187500.02, -187500.02, -187500.02, 0.00, 0.00, 0.00
232, 163825.89, -83898.43, 187500.00, -187500.02, 146647.13, -187500.02, -187500.02, -187500.02, 0.00, 0.00, 0.00
233, 163472.34, -83598.70, 187500.00, -187500.02, 145960.97, -187500.02, -187500.02, -187500.02, 0.00, 0.00, 0.00
234, 167749.25, -83126.49, 187500.00, -187500.02, 146760.78, -187500.02, -187500.02, -187500.02, 0.00, 0.00, 0.00
235, 168662.39, -83673.13, 187500.00, -187500.02, 147496.61, -187500.02, -187500.02, -187500.02, 0.00, 0.00, 0.00
236, 164344.14, -84552.00, 187500.00, -187500.02, 146712.47, -187500.02, -187500.02, -187500.02, 0.00, 0.00, 0.00
237, 162967.55, -84437.78, 187500.00, -187500.02, 145846.45, -187500.02, -187500.02, -187500.02, 0.00, 0.00, 0.00
238, 166961.64, -83888.69, 187500.00, -187500.02, 146478.52, -187500.02, -187500.02, -187500.02, 0.00, 0.00, 0.00
239, 168865.41, -84238.52, 187500.00, -187500.02, 147390.50, -187500.02, -187500.02, -187500.02, 0.00, 0.00, 0.00
240, 165151.95, -85181.58, 187500.00, -187500.02, 146873.39, -187500.02, -187500.02, -187500.02, 0.00, 0.00, 0.00
241, 162649.84, -85265.04, 187500.00, -187500.02, 145847.50, -187500.02, -187500.02, -187500.02, 0.00, 0.00, 0.00
242, 166125.02, -84683.52, 187500.00, -187500.02, 146225.69, -187500.02, -187500.02, -187500.02, 0.00, 0.00, 0.00
243, 169009.41, -84830.05, 187500.00, -187500.02, 147269.45, -187500.02, -187500.02, -187500.02, 0.00, 0.00, 0.00
244, 165943.66, -85781.08, 187500.00, -187500.02, 147018.92, -187500.02, -187500.02, -187500.02, 0.00, 0.00, 0.00
245, 162508.17, -86088.92, 187500.00, -187500.02, 145888.28, -187500.02, -187500.02, -187500.02, 0.00, 0.00, 0.00
246, 165125.42, -85492.38, 187500.00, -187500.02, 145972.06, -187500.02, -187500.02, -187500.02, 0.00, 0.00, 0.00
247, 168644.83, -85312.80, 187500.00, -187500.02, 147039.31, -187500.02, -187500.02, -187500.02, 0.00, 0.00, 0.00
248, 166562.63, -86200.55, 187500.00, -187500.02, 147057.39, -187500.02, -187500.02, -187500.02, 0.00, 0.00, 0.00
249, 162624.09, -86823.98, 187500.00, -187500.02, 145930.78, -187500.02, -187500.02, -187500.02, 0.00, 0.00, 0.00
250, 164240.36, -86339.58, 187500.00, -187500.02, 145736.13, -187500.02, -187500.02, -187500.02, 0.00, 0.00, 0.00
251, 168196.31, -85967.33, 187500.00, -187500.02, 146767.56, -187500.02, -187500.02, -187500.02, 0.00, 0.00, 0.00
252, 167109.64, -86716.52, 187500.00, -187500.02, 147050.17, -187500.02, -187500.02, -187500.02, 0.00, 0.00, 0.00
253, 162847.19, -87481.51, 187500.00, -187500.02, 145993.61, -187500.02, -187500.02, -187500.02, 0.00, 0.00, 0.00
254, 163523.75, -87167.87, 187500.00, -187500.02, 145548.31, -187500.02, -187500.02, -187500.02, 0.00, 0.00, 0.00
255, 167854.16, -86792.20, 187500.00, -187500.02, 146526.55, -187500.02, -187500.02, -187500.02, 0.00, 0.00, 0.00
0, 167942.69, -87447.06, 187500.00, -187500.02, 147121.20, -187500.02, -187500.02, -187500.02, 0.00, 0.00, 0.00
1, 163492.97, -88242.54, 187500.00, -187500.02, 146224.91, -187500.02, -187500.02, -187500.02, 0.00, 0.00, 0.00
2, 162854.27, -87999.53, 187500.00, -187500.02, 145496.17, -187500.02, -187500.02, -187500.02, 0.00, 0.00, 0.00
3, 167252.23, -87510.34, 187500.00, -187500.02, 146316.97, -187500.02, -187500.02, -187500.02, 0.00, 0.00, 0.00
4, 168566.59, -87979.34, 187500.00, -187500.02, 147190.64, -187500.02, -187500.02, -187500.02, 0.00, 0.00, 0.00
5, 164603.61, -88855.63, 187500.00, -187500.02, 146581.19, -187500.02, -187500.02, -187500.02, 0.00, 0.00, 0.00
6, 162980.84, -88778.71, 187500.00, -187500.02, 145755.03, -187500.02, -187500.02, -187500.02, 0.00, 0.00, 0.00
7, 167092.05, -88212.01, 187500.00, -187500.02, 146432.28, -187500.02, -187500.02, -187500.02, 0.00, 0.00, 0.00
8, 169526.38, -88486.38, 187500.00, -187500.02, 147530.00, -187500.02, -187500.02, -187500.02, 0.00, 0.00, 0.00
9, 166058.88, -89410.15, 187500.00, -187500.02, 147200.27, -187500.02, -187500.02, -187500.02, 0.00, 0.00, 0.00
10, 163217.48, -89545.71, 187500.00, -187500.02, 146192.20, -187500.02, -187500.02, -187500.02, 0.00, 0.00, 0.00
11, 166401.78, -88968.50, 187500.00, -187500.02, 146509.53, -187500.02, -187500.02, -187500.02, 0.00, 0.00, 0.00
12, 169505.19, -89053.41, 187500.00, -187500.02, 147588.34, -187500.02, -187500.02, -187500.02, 0.00, 0.00, 0.00
13, 166704.77, -89983.72, 187500.00, -187500.02, 147445.52, -187500.02, -187500.02, -187500.02, 0.00, 0.00, 0.00
14, 162852.75, -90319.73, 187500.00, -187500.02, 146269.70, -187500.02, -187500.02, -187500.02, 0.00, 0.00, 0.00
15, 165207.77, -89769.66, 187500.00, -187500.02, 146232.17, -187500.02, -187500.02, -187500.02, 0.00, 0.00, 0.00
16, 169087.05, -89657.63, 187500.00, -187500.02, 147324.17, -187500.02, -187500.02, -187500.02, 0.00, 0.00, 0.00
17, 167285.13, -90525.03, 187500.00, -187500.02, 147450.66, -187500.02, -187500.02, -187500.02, 0.00, 0.00, 0.00
18, 163015.95, -91063.04, 187500.00, -187500.02, 146320.86, -187500.02, -187500.02, -187500.02, 0.00, 0.00, 0.00
19, 164332.67, -90590.30, 187500.00, -187500.02, 146009.50, -187500.02, -187500.02, -187500.02, 0.00, 0.00, 0.00
20, 168598.67, -90306.32, 187500.00, -187500.02, 147041.34, -187500.02, -187500.02, -187500.02, 0.00, 0.00, 0.00
21, 167827.31, -91059.75, 187500.00, -187500.02, 147426.58, -187500.02, -187500.02, -187500.02, 0.00, 0.00, 0.00
22, 163369.52, -91769.69, 187500.00, -187500.02, 146396.83, -187500.02, -187500.02, -187500.02, 0.00, 0.00, 0.00
23, 163609.33, -91420.55, 187500.00, -187500.02, 145841.28, -187500.02, -187500.02, -187500.02, 0.00, 0.00, 0.00
24, 168029.19, -90992.52, 187500.00, -187500.02, 146773.38, -187500.02, -187500.02, -187500.02, 0.00, 0.00, 0.00
25, 168437.42, -91594.00, 187500.00, -187500.02, 147438.00, -187500.02, -187500.02, -187500.02, 0.00, 0.00, 0.00
26, 164075.41, -92433.22, 187500.00, -187500.02, 146599.97, -187500.02, -187500.02, -187500.02, 0.00, 0.00, 0.00
27, 162967.03, -92239.09, 187500.00, -187500.02, 145779.66, -187500.02, -187500.02, -187500.02, 0.00, 0.00, 0.00
28, 167063.70, -91707.62, 187500.00, -187500.02, 146469.36, -187500.02, -187500.02, -187500.02, 0.00, 0.00, 0.00
29, 168588.94, -92119.94, 187500.00, -187500.02, 147307.36, -187500.02, -187500.02, -187500.02, 0.00, 0.00, 0.00
30, 164681.56, -93036.34, 187500.00, -187500.02, 146685.98, -187500.02, -187500.02, -187500.02, 0.00, 0.00, 0.00
31, 162522.36, -93031.11, 187500.00, -187500.02, 145704.53, -187500.02, -187500.02, -187500.02, 0.00, 0.00, 0.00
32, 166102.25, -92439.93, 187500.00, -187500.02, 146145.16, -187500.02, -187500.02, -187500.02, 0.00, 0.00, 0.00
33, 168729.69, -92651.64, 187500.00, -187500.02, 147144.86, -187500.02, -187500.02, -187500.02, 0.00, 0.00, 0.00
34, 165394.23, -93588.77, 187500.00, -187500.02, 146795.17, -187500.02, -187500.02, -187500.02, 0.00, 0.00, 0.00
35, 162204.77, -93784.81, 187500.00, -187500.02, 145681.42, -187500.02, -187500.02, -187500.02, 0.00, 0.00, 0.00
36, 165127.89, -93194.34, 187500.00, -187500.02, 145851.31, -187500.02, -187500.02, -187500.02, 0.00, 0.00, 0.00
37, 168690.13, -93207.33, 187500.00, -187500.02, 146965.64, -187500.02, -187500.02, -187500.02, 0.00, 0.00, 0.00
38, 166189.94, -94114.70, 187500.00, -187500.02, 146906.34, -187500.02, -187500.02, -187500.02, 0.00, 0.00, 0.00
39, 162287.14, -94513.30, 187500.00, -187500.02, 145760.34, -187500.02, -187500.02, -187500.02, 0.00, 0.00, 0.00
40, 164375.84, -93970.22, 187500.00, -187500.02, 145670.36, -187500.02, -187500.02, -187500.02, 0.00, 0.00, 0.00
41, 168381.19, -93784.16, 187500.00, -187500.02, 146756.98, -187500.02, -187500.02, -187500.02, 0.00, 0.00, 0.00
42, 166913.91, -94608.98, 187500.00, -187500.02, 146971.34, -187500.02, -187500.02, -187500.02, 0.00, 0.00, 0.00
43, 162547.06, -95195.12, 187500.00, -187500.02, 145857.83, -187500.02, -187500.02, -187500.02, 0.00, 0.00, 0.00
44, 163509.00, -94742.80, 187500.00, -187500.02, 145464.00, -187500.02, -187500.02, -187500.02, 0.00, 0.00, 0.00
45, 167933.55, -94383.52, 187500.00, -187500.02, 146496.91, -187500.02, -187500.02, -187500.02, 0.00, 0.00, 0.00
46, 167815.13, -95069.72, 187500.00, -187500.02, 147065.44, -187500.02, -187500.02, -187500.02, 0.00, 0.00, 0.00
47, 163490.00, -95798.55, 187500.00, -187500.02, 146186.58, -187500.02, -187500.02, -187500.02, 0.00, 0.00, 0.00
48, 163489.42, -95471.02, 187500.00, -187500.02, 145647.36, -187500.02, -187500.02, -187500.02, 0.00, 0.00, 0.00
49, 167932.45, -94980.56, 187500.00, -187500.02, 146610.98, -187500.02, -187500.02, -187500.02, 0.00, 0.00, 0.00
50, 168816.08, -95500.33, 187500.00, -187500.02, 147419.83, -187500.02, -187500.02, -187500.02, 0.00, 0.00, 0.00
51, 164636.94, -96344.71, 187500.00, -187500.02, 146718.77, -187500.02, -187500.02, -187500.02, 0.00, 0.00, 0.00
52, 163411.03, -96193.77, 187500.00, -187500.02, 145945.39, -187500.02, -187500.02, -187500.02, 0.00, 0.00, 0.00
53, 167566.69, -95622.19, 187500.00, -187500.02, 146684.06, -187500.02, -187500.02, -187500.02, 0.00, 0.00, 0.00
54, 169643.34, -95961.76, 187500.00, -187500.02, 147709.44, -187500.02, -187500.02, -187500.02, 0.00, 0.00, 0.00
55, 165911.55, -96887.19, 187500.00, -187500.02, 147261.48, -187500.02, -187500.02, -187500.02, 0.00, 0.00, 0.00
56, 163380.42, -96945.19, 187500.00, -187500.02, 146280.11, -187500.02, -187500.02, -187500.02, 0.00, 0.00, 0.00
57, 166722.17, -96346.38, 187500.00, -187500.02, 146662.67, -187500.02, -187500.02, -187500.02, 0.00, 0.00, 0.00
58, 169555.17, -96488.59, 187500.00, -187500.02, 147702.61, -187500.02, -187500.02, -187500.02, 0.00, 0.00, 0.00
59, 166520.64, -97425.39, 187500.00, -187500.02, 147448.75, -187500.02, -187500.02, -187500.02, 0.00, 0.00, 0.00
60, 163093.59, -97689.39, 187500.00, -187500.02, 146333.14, -187500.02, -187500.02, -187500.02, 0.00, 0.00, 0.00
61, 165682.95, -97103.30, 187500.00, -187500.02, 146406.78, -187500.02, -187500.02, -187500.02, 0.00, 0.00, 0.00
62, 169342.89, -97047.12, 187500.00, -187500.02, 147497.13, -187500.02, -187500.02, -187500.02, 0.00, 0.00, 0.00
63, 167181.72, -97935.62, 187500.00, -187500.02, 147525.63, -187500.02, -187500.02, -187500.02, 0.00, 0.00, 0.00
64, 163109.03, -98398.55, 187500.00, -187500.02, 146384.39, -187500.02, -187500.02, -187500.02, 0.00, 0.00, 0.00
65, 168730.61, -98290.34, 187500.00, -187500.02, 147140.20, -187500.02, -187500.02, -187500.02, 0.00, 0.00, 0.00
66, 167293.06, -99113.24, 187500.00, -187500.02, 147337.27, -187500.02, -187500.02, -187500.02, 0.00, 0.00, 0.00
67, 162910.03, -99695.52, 187500.00, -187500.02, 146219.55, -187500.02, -187500.02, -187500.02, 0.00, 0.00, 0.00
68, 163793.80, -99235.13, 187500.00, -187500.02, 145804.53, -187500.02, -187500.02, -187500.02, 0.00, 0.00, 0.00
69, 168082.25, -98881.30, 187500.00, -187500.02, 146775.63, -187500.02, -187500.02, -187500.02, 0.00, 0.00, 0.00
70, 167847.83, -99583.26, 187500.00, -187500.02, 147276.44, -187500.02, -187500.02, -187500.02, 0.00, 0.00, 0.00
71, 163273.47, -100317.84, 187500.00, -187500.02, 146289.13, -187500.02, -187500.02, -187500.02, 0.00, 0.00, 0.00
72, 163021.59, -99994.50, 187500.00, -187500.02, 145615.94, -187500.02, -187500.02, -187500.02, 0.00, 0.00, 0.00
73, 167381.70, -99515.95, 187500.00, -187500.02, 146459.80, -187500.02, -187500.02, -187500.02, 0.00, 0.00, 0.00
74, 168170.86, -100048.06, 187500.00, -187500.02, 147167.44, -187500.02, -187500.02, -187500.02, 0.00, 0.00, 0.00
75, 163701.69, -100890.88, 187500.00, -187500.02, 146345.97, -187500.02, -187500.02, -187500.02, 0.00, 0.00, 0.00
76, 162179.58, -100734.84, 187500.00, -187500.02, 145421.81, -187500.02, -187500.02, -187500.02, 0.00, 0.00, 0.00
77, 166331.64, -100174.39, 187500.00, -187500.02, 146040.75, -187500.02, -187500.02, -187500.02, 0.00, 0.00, 0.00
78, 168343.08, -100518.67, 187500.00, -187500.02, 146971.52, -187500.02, -187500.02, -187500.02, 0.00, 0.00, 0.00
79, 164582.08, -101435.03, 187500.00, -187500.02, 146460.09, -187500.02, -187500.02, -187500.02, 0.00, 0.00, 0.00
80, 162141.66, -101485.61, 187500.00, -187500.02, 145473.22, -187500.02, -187500.02, -187500.02, 0.00, 0.00, 0.00
81, 165618.11, -100885.35, 187500.00, -187500.02, 145876.95, -187500.02, -187500.02, -187500.02, 0.00, 0.00, 0.00
82, 168483.70, -101024.05, 187500.00, -187500.02, 146911.81, -187500.02, -187500.02, -187500.02, 0.00, 0.00, 0.00
83, 165354.00, -101945.38, 187500.00, -187500.02, 146642.50, -187500.02, -187500.02, -187500.02, 0.00, 0.00, 0.00
84, 161960.16, -102198.30, 187500.00, -187500.02, 145526.25, -187500.02, -187500.02, -187500.02, 0.00, 0.00, 0.00
85, 164619.31, -101606.42, 187500.00, -187500.02, 145614.08, -187500.02, -187500.02, -187500.02, 0.00, 0.00, 0.00
86, 168302.08, -101545.67, 187500.00, -187500.02, 146696.08, -187500.02, -187500.02, -187500.02, 0.00, 0.00, 0.00
87, 166064.50, -102424.38, 187500.00, -187500.02, 146699.88, -187500.02, -187500.02, -187500.02, 0.00, 0.00, 0.00
88, 162024.91, -102878.46, 187500.00, -187500.02, 145576.14, -187500.02, -187500.02, -187500.02, 0.00, 0.00, 0.00
89, 163767.11, -102349.02, 187500.00, -187500.02, 145395.39, -187500.02, -187500.02, -187500.02, 0.00, 0.00, 0.00
90, 168028.52, -102093.42, 187500.00, -187500.02, 146493.86, -187500.02, -187500.02, -187500.02, 0.00, 0.00, 0.00
91, 167138.53, -102865.98, 187500.00, -187500.02, 146875.67, -187500.02, -187500.02, -187500.02, 0.00, 0.00, 0.00
92, 162937.48, -103485.55, 187500.00, -187500.02, 145926.33, -187500.02, -187500.02, -187500.02, 0.00, 0.00, 0.00
93, 163725.56, -103051.38, 187500.00, -187500.02, 145576.97, -187500.02, -187500.02, -187500.02, 0.00, 0.00, 0.00
94, 168191.23, -102635.23, 187500.00, -187500.02, 146636.36, -187500.02, -187500.02, -187500.02, 0.00, 0.00, 0.00
95, 168438.50, -103272.59, 187500.00, -187500.02, 147319.19, -187500.02, -187500.02, -187500.02, 0.00, 0.00, 0.00
96, 164143.98, -104037.63, 187500.00, -187500.02, 146537.77, -187500.02, -187500.02, -187500.02, 0.00, 0.00, 0.00
97, 163609.38, -103748.97, 187500.00, -187500.02, 145929.75, -187500.02, -187500.02, -187500.02, 0.00, 0.00, 0.00
98, 167993.58, -103223.37, 187500.00, -187500.02, 146812.91, -187500.02, -187500.02, -187500.02, 0.00, 0.00, 0.00
99, 169380.91, -103694.21, 187500.00, -187500.02, 147724.47, -187500.02, -187500.02, -187500.02, 0.00, 0.00, 0.00
100, 165250.00, -104576.50, 187500.00, -187500.02, 147116.00, -187500.02, -187500.02, -187500.02, 0.00, 0.00, 0.00
101, 163329.02, -104487.20, 187500.00, -187500.02, 146219.81, -187500.02, -187500.02, -187500.02, 0.00, 0.00, 0.00
102, 167055.44, -103899.63, 187500.00, -187500.02, 146747.11, -187500.02, -187500.02, -187500.02, 0.00, 0.00, 0.00
103, 169340.25, -104182.53, 187500.00, -187500.02, 147698.53, -187500.02, -187500.02, -187500.02, 0.00, 0.00, 0.00
104, 165721.77, -105110.02, 187500.00, -187500.02, 147259.52, -187500.02, -187500.02, -187500.02, 0.00, 0.00, 0.00
105, 162827.67, -105217.50, 187500.00, -187500.02, 146178.19, -187500.02, -187500.02, -187500.02, 0.00, 0.00, 0.00
106, 166112.53, -104614.59, 187500.00, -187500.02, 146474.94, -187500.02, -187500.02, -187500.02, 0.00, 0.00, 0.00
107, 169073.16, -104681.64, 187500.00, -187500.02, 147483.75, -187500.02, -187500.02, -187500.02, 0.00, 0.00, 0.00
108, 166283.39, -105603.00, 187500.00, -187500.02, 147286.50, -187500.02, -187500.02, -187500.02, 0.00, 0.00, 0.00
109, 162660.59, -105921.27, 187500.00, -187500.02, 146149.84, -187500.02, -187500.02, -187500.02, 0.00, 0.00, 0.00
110, 165033.67, -105345.63, 187500.00, -187500.02, 146148.31, -187500.02, -187500.02, -187500.02, 0.00, 0.00, 0.00
111, 168730.58, -105215.55, 187500.00, -187500.02, 147190.86, -187500.02, -187500.02, -187500.02, 0.00, 0.00, 0.00
112, 166905.80, -106069.46, 187500.00, -187500.02, 147269.42, -187500.02, -187500.02, -187500.02, 0.00, 0.00, 0.00
113, 162668.13, -106579.20, 187500.00, -187500.02, 146138.58, -187500.02, -187500.02, -187500.02, 0.00, 0.00, 0.00
114, 164017.77, -106078.60, 187500.00, -187500.02, 145840.48, -187500.02, -187500.02, -187500.02, 0.00, 0.00, 0.00
115, 168233.63, -105776.34, 187500.00, -187500.02, 146857.86, -187500.02, -187500.02, -187500.02, 0.00, 0.00, 0.00
116, 167471.31, -106516.63, 187500.00, -187500.02, 147226.94, -187500.02, -187500.02, -187500.02, 0.00, 0.00, 0.00
117, 162908.36, -107191.68, 187500.00, -187500.02, 146175.53, -187500.02, -187500.02, -187500.02, 0.00, 0.00, 0.00
118, 163099.84, -106809.44, 187500.00, -187500.02, 145592.31, -187500.02, -187500.02, -187500.02, 0.00, 0.00, 0.00
119, 167523.02, -106367.55, 187500.00, -187500.02, 146495.45, -187500.02, -187500.02, -187500.02, 0.00, 0.00, 0.00
120, 167877.22, -106953.63, 187500.00, -187500.02, 147123.53, -187500.02, -187500.02, -187500.02, 0.00, 0.00, 0.00
121, 163459.94, -107760.20, 187500.00, -187500.02, 146253.05, -187500.02, -187500.02, -187500.02, 0.00, 0.00, 0.00
122, 162446.50, -107537.26, 187500.00, -187500.02, 145451.80, -187500.02, -187500.02, -187500.02, 0.00, 0.00, 0.00
123, 166616.25, -106990.63, 187500.00, -187500.02, 146147.91, -187500.02, -187500.02, -187500.02, 0.00, 0.00, 0.00
124, 168135.66, -107396.87, 187500.00, -187500.02, 146984.73, -187500.02, -187500.02, -187500.02, 0.00, 0.00, 0.00
125, 164154.17, -108291.18, 187500.00, -187500.02, 146357.86, -187500.02, -187500.02, -187500.02, 0.00, 0.00, 0.00
126, 161981.33, -108256.78, 187500.00, -187500.02, 145373.75, -187500.02, -187500.02, -187500.02, 0.00, 0.00, 0.00
127, 165718.22, -107657.66, 187500.00, -187500.02, 145842.73, -187500.02, -187500.02, -187500.02, 0.00, 0.00, 0.00
128, 168289.94, -107863.39, 187500.00, -187500.02, 146843.56, -187500.02, -187500.02, -187500.02, 0.00, 0.00, 0.00
129, 164872.00, -108781.31, 187500.00, -187500.02, 146462.39, -187500.02, -187500.02, -187500.02, 0.00, 0.00, 0.00
130, 161820.98, -108953.91, 187500.00, -187500.02, 145376.59, -187500.02, -187500.02, -187500.02, 0.00, 0.00, 0.00
131, 164912.84, -108350.66, 187500.00, -187500.02, 145608.75, -187500.02, -187500.02, -187500.02, 0.00, 0.00, 0.00
132, 168262.67, -108351.51, 187500.00, -187500.02, 146690.41, -187500.02, -187500.02, -187500.02, 0.00, 0.00, 0.00
133, 165765.72, -109253.49, 187500.00, -187500.02, 146605.17, -187500.02, -187500.02, -187500.02, 0.00, 0.00, 0.00
134, 162003.83, -109633.76, 187500.00, -187500.02, 145506.36, -187500.02, -187500.02, -187500.02, 0.00, 0.00, 0.00
135, 164084.38, -109068.80, 187500.00, -187500.02, 145440.83, -187500.02, -187500.02, -187500.02, 0.00, 0.00, 0.00
136, 168073.63, -108879.44, 187500.00, -187500.02, 146521.16, -187500.02, -187500.02, -187500.02, 0.00, 0.00, 0.00
137, 166572.33, -109698.91, 187500.00, -187500.02, 146725.25, -187500.02, -187500.02, -187500.02, 0.00, 0.00, 0.00
138, 162221.63, -110264.99, 187500.00, -187500.02, 145634.02, -187500.02, -187500.02, -187500.02, 0.00, 0.00, 0.00
139, 163054.19, -109785.46, 187500.00, -187500.02, 145223.80, -187500.02, -187500.02, -187500.02, 0.00, 0.00, 0.00
140, 167566.97, -109427.90, 187500.00, -187500.02, 146242.56, -187500.02, -187500.02, -187500.02, 0.00, 0.00, 0.00
141, 167454.19, -110113.45, 187500.00, -187500.02, 146803.50, -187500.02, -187500.02, -187500.02, 0.00, 0.00, 0.00
142, 163145.38, -110823.84, 187500.00, -187500.02, 145938.47, -187500.02, -187500.02, -187500.02, 0.00, 0.00, 0.00
143, 163027.42, -110465.05, 187500.00, -187500.02, 145387.45, -187500.02, -187500.02, -187500.02, 0.00, 0.00, 0.00
144, 167510.52, -109967.07, 187500.00, -187500.02, 146323.33, -187500.02, -187500.02, -187500.02, 0.00, 0.00, 0.00
145, 168613.27, -110495.64, 187500.00, -187500.02, 147178.77, -187500.02, -187500.02, -187500.02, 0.00, 0.00, 0.00
146, 164418.27, -111323.24, 187500.00, -187500.02, 146522.70, -187500.02, -187500.02, -187500.02, 0.00, 0.00, 0.00
147, 163226.30, -111148.54, 187500.00, -187500.02, 145791.84, -187500.02, -187500.02, -187500.02, 0.00, 0.00, 0.00
148, 167438.98, -110569.20, 187500.00, -187500.02, 146561.33, -187500.02, -187500.02, -187500.02, 0.00, 0.00, 0.00
149, 169426.31, -110907.95, 187500.00, -187500.02, 147568.06, -187500.02, -187500.02, -187500.02, 0.00, 0.00, 0.00
150, 165572.86, -111819.05, 187500.00, -187500.02, 147092.69, -187500.02, -187500.02, -187500.02, 0.00, 0.00, 0.00
151, 163003.20, -111851.61, 187500.00, -187500.02, 146093.41, -187500.02, -187500.02, -187500.02, 0.00, 0.00, 0.00
152, 166448.05, -111243.55, 187500.00, -187500.02, 146485.39, -187500.02, -187500.02, -187500.02, 0.00, 0.00, 0.00
153, 169295.02, -111389.78, 187500.00, -187500.02, 147518.22, -187500.02, -187500.02, -187500.02, 0.00, 0.00, 0.00
154, 166135.42, -112313.73, 187500.00, -187500.02, 147238.48, -187500.02, -187500.02, -187500.02, 0.00, 0.00, 0.00
155, 162883.27, -112562.73, 187500.00, -187500.02, 146163.63, -187500.02, -187500.02, -187500.02, 0.00, 0.00, 0.00
156, 165580.39, -111969.63, 187500.00, -187500.02, 146304.92, -187500.02, -187500.02, -187500.02, 0.00, 0.00, 0.00
157, 169051.47, -111907.85, 187500.00, -187500.02, 147344.69, -187500.02, -187500.02, -187500.02, 0.00, 0.00, 0.00
158, 166914.38, -112793.76, 187500.00, -187500.02, 147354.56, -187500.02, -187500.02, -187500.02, 0.00, 0.00, 0.00
159, 162738.06, -113231.97, 187500.00, -187500.02, 146205.80, -187500.02, -187500.02, -187500.02, 0.00, 0.00, 0.00
160, 164442.84, -112696.53, 187500.00, -187500.02, 145994.95, -187500.02, -187500.02, -187500.02, 0.00, 0.00, 0.00
161, 168658.28, -112460.66, 187500.00, -187500.02, 147057.67, -187500.02, -187500.02, -187500.02, 0.00, 0.00, 0.00
162, 167515.13, -113251.34, 187500.00, -187500.02, 147347.48, -187500.02, -187500.02, -187500.02, 0.00, 0.00, 0.00
163, 163078.30, -113877.53, 187500.00, -187500.02, 146285.97, -187500.02, -187500.02, -187500.02, 0.00, 0.00, 0.00
164, 163692.06, -113448.53, 187500.00, -187500.02, 145831.20, -187500.02, -187500.02, -187500.02, 0.00, 0.00, 0.00
165, 167996.20, -113049.76, 187500.00, -187500.02, 146768.28, -187500.02, -187500.02, -187500.02, 0.00, 0.00, 0.00
166, 168054.31, -113704.91, 187500.00, -187500.02, 147321.66, -187500.02, -187500.02, -187500.02, 0.00, 0.00, 0.00
167, 163520.16, -114476.73, 187500.00, -187500.02, 146400.45, -187500.02, -187500.02, -187500.02, 0.00, 0.00, 0.00
168, 162890.20, -114192.53, 187500.00, -187500.02, 145668.23, -187500.02, -187500.02, -187500.02, 0.00, 0.00, 0.00
169, 167273.83, -113682.06, 187500.00, -187500.02, 146465.70, -187500.02, -187500.02, -187500.02, 0.00, 0.00, 0.00
170, 168433.27, -114158.38, 187500.00, -187500.02, 147254.94, -187500.02, -187500.02, -187500.02, 0.00, 0.00, 0.00
171, 164238.02, -115030.77, 187500.00, -187500.02, 146538.88, -187500.02, -187500.02, -187500.02, 0.00, 0.00, 0.00
172, 162615.81, -114937.74, 187500.00, -187500.02, 145652.88, -187500.02, -187500.02, -187500.02, 0.00, 0.00, 0.00
173, 166436.50, -114349.93, 187500.00, -187500.02, 146214.28, -187500.02, -187500.02, -187500.02, 0.00, 0.00, 0.00
174, 168581.45, -114628.37, 187500.00, -187500.02, 147142.72, -187500.02, -187500.02, -187500.02, 0.00, 0.00, 0.00
175, 164994.56, -115551.90, 187500.00, -187500.02, 146681.84, -187500.02, -187500.02, -187500.02, 0.00, 0.00, 0.00
176, 162240.48, -115655.92, 187500.00, -187500.02, 145641.30, -187500.02, -187500.02, -187500.02, 0.00, 0.00, 0.00
177, 165394.47, -115041.16, 187500.00, -187500.02, 145908.42, -187500.02, -187500.02, -187500.02, 0.00, 0.00, 0.00
178, 168465.63, -115112.53, 187500.00, -187500.02, 146923.52, -187500.02, -187500.02, -187500.02, 0.00, 0.00, 0.00
179, 165621.17, -116029.06, 187500.00, -187500.02, 146720.67, -187500.02, -187500.02, -187500.02, 0.00, 0.00, 0.00
180, 161993.92, -116340.27, 187500.00, -187500.02, 145575.03, -187500.02, -187500.02, -187500.02, 0.00, 0.00, 0.00
181, 164577.03, -115767.17, 187500.00, -187500.02, 145623.98, -187500.02, -187500.02, -187500.02, 0.00, 0.00, 0.00
182, 168298.50, -115640.34, 187500.00, -187500.02, 146701.52, -187500.02, -187500.02, -187500.02, 0.00, 0.00, 0.00
183, 166374.17, -116492.28, 187500.00, -187500.02, 146776.95, -187500.02, -187500.02, -187500.02, 0.00, 0.00, 0.00
184, 162211.92, -116997.97, 187500.00, -187500.02, 145666.11, -187500.02, -187500.02, -187500.02, 0.00, 0.00, 0.00
185, 163547.03, -116487.66, 187500.00, -187500.02, 145390.42, -187500.02, -187500.02, -187500.02, 0.00, 0.00, 0.00
186, 167780.88, -116187.29, 187500.00, -187500.02, 146405.70, -187500.02, -187500.02, -187500.02, 0.00, 0.00, 0.00
187, 166971.92, -116931.02, 187500.00, -187500.02, 146767.52, -187500.02, -187500.02, -187500.02, 0.00, 0.00, 0.00
188, 162527.89, -117609.71, 187500.00, -187500.02, 145750.47, -187500.02, -187500.02, -187500.02, 0.00, 0.00, 0.00
189, 162695.34, -117220.91, 187500.00, -187500.02, 145195.81, -187500.02, -187500.02, -187500.02, 0.00, 0.00, 0.00
190, 167071.33, -116777.94, 187500.00, -187500.02, 146082.92, -187500.02, -187500.02, -187500.02, 0.00, 0.00, 0.00
191, 167414.34, -117365.74, 187500.00, -187500.02, 146695.81, -187500.02, -187500.02, -187500.02, 0.00, 0.00, 0.00
192, 163057.63, -118171.92, 187500.00, -187500.02, 145833.08, -187500.02, -187500.02, -187500.02, 0.00, 0.00, 0.00
193, 162187.31, -117950.95, 187500.00, -187500.02, 145079.22, -187500.02, -187500.02, -187500.02, 0.00, 0.00, 0.00
194, 166425.09, -117402.40, 187500.00, -187500.02, 145823.41, -187500.02, -187500.02, -187500.02, 0.00, 0.00, 0.00
195, 168029.95, -117791.59, 187500.00, -187500.02, 146698.88, -187500.02, -187500.02, -187500.02, 0.00, 0.00, 0.00
196, 164274.61, -118667.04, 187500.00, -187500.02, 146165.55, -187500.02, -187500.02, -187500.02, 0.00, 0.00, 0.00
197, 162322.94, -118613.84, 187500.00, -187500.02, 145310.14, -187500.02, -187500.02, -187500.02, 0.00, 0.00, 0.00
198, 166238.17, -118005.74, 187500.00, -187500.02, 145910.50, -187500.02, -187500.02, -187500.02, 0.00, 0.00, 0.00
199, 168743.23, -118200.98, 187500.00, -187500.02, 146966.45, -187500.02, -187500.02, -187500.02, 0.00, 0.00, 0.00
200, 165536.67, -119109.07, 187500.00, -187500.02, 146683.27, -187500.02, -187500.02, -187500.02, 0.00, 0.00, 0.00
201, 162800.56, -119266.24, 187500.00, -187500.02, 145762.45, -187500.02, -187500.02, -187500.02, 0.00, 0.00, 0.00
202, 165957.61, -118647.95, 187500.00, -187500.02, 146114.52, -187500.02, -187500.02, -187500.02, 0.00, 0.00, 0.00
203, 169389.19, -118647.17, 187500.00, -187500.02, 147278.72, -187500.02, -187500.02, -187500.02, 0.00, 0.00, 0.00
204, 166955.52, -119545.59, 187500.00, -187500.02, 147281.05, -187500.02, -187500.02, -187500.02, 0.00, 0.00, 0.00
205, 163119.97, -119917.30, 187500.00, -187500.02, 146234.47, -187500.02, -187500.02, -187500.02, 0.00, 0.00, 0.00
206, 165198.97, -119355.56, 187500.00, -187500.02, 146194.63, -187500.02, -187500.02, -187500.02, 0.00, 0.00, 0.00
207, 169082.25, -119174.45, 187500.00, -187500.02, 147268.31, -187500.02, -187500.02, -187500.02, 0.00, 0.00, 0.00
208, 167502.73, -119996.54, 187500.00, -187500.02, 147444.06, -187500.02, -187500.02, -187500.02, 0.00, 0.00, 0.00
209, 163242.34, -120557.39, 187500.00, -187500.02, 146384.44, -187500.02, -187500.02, -187500.02, 0.00, 0.00, 0.00
210, 164115.23, -120072.54, 187500.00, -187500.02, 146009.53, -187500.02, -187500.02, -187500.02, 0.00, 0.00, 0.00
211, 168496.67, -119727.34, 187500.00, -187500.02, 146993.66, -187500.02, -187500.02, -187500.02, 0.00, 0.00, 0.00
212, 168077.13, -120427.15, 187500.00, -187500.02, 147457.78, -187500.02, -187500.02, -187500.02, 0.00, 0.00, 0.00
213, 163538.56, -121143.23, 187500.00, -187500.02, 146470.33, -187500.02, -187500.02, -187500.02, 0.00, 0.00, 0.00
214, 163460.56, -120803.59, 187500.00, -187500.02, 145866.66, -187500.02, -187500.02, -187500.02, 0.00, 0.00, 0.00
215, 167794.31, -120325.72, 187500.00, -187500.02, 146733.98, -187500.02, -187500.02, -187500.02, 0.00, 0.00, 0.00
216, 168427.52, -120860.26, 187500.00, -187500.02, 147412.34, -187500.02, -187500.02, -187500.02, 0.00, 0.00, 0.00
217, 164217.23, -121701.87, 187500.00, -187500.02, 146630.17, -187500.02, -187500.02, -187500.02, 0.00, 0.00, 0.00
218, 162901.67, -121529.42, 187500.00, -187500.02, 145810.27, -187500.02, -187500.02, -187500.02, 0.00, 0.00, 0.00
219, 166896.45, -120958.41, 187500.00, -187500.02, 146448.77, -187500.02, -187500.02, -187500.02, 0.00, 0.00, 0.00
220, 168763.58, -121312.45, 187500.00, -187500.02, 147338.47, -187500.02, -187500.02, -187500.02, 0.00, 0.00, 0.00
221, 164851.78, -122218.33, 187500.00, -187500.02, 146768.45, -187500.02, -187500.02, -187500.02, 0.00, 0.00, 0.00
222, 162390.78, -122241.82, 187500.00, -187500.02, 145747.61, -187500.02, -187500.02, -187500.02, 0.00, 0.00, 0.00
223, 165879.48, -121627.77, 187500.00, -187500.02, 146126.63, -187500.02, -187500.02, -187500.02, 0.00, 0.00, 0.00
224, 168629.56, -121768.43, 187500.00, -187500.02, 147109.59, -187500.02, -187500.02, -187500.02, 0.00, 0.00, 0.00
225, 165572.84, -122691.31, 187500.00, -187500.02, 146824.88, -187500.02, -187500.02, -187500.02, 0.00, 0.00, 0.00
226, 162273.88, -122922.61, 187500.00, -187500.02, 145741.77, -187500.02, -187500.02, -187500.02, 0.00, 0.00, 0.00
227, 165021.38, -122319.74, 187500.00, -187500.02, 145871.48, -187500.02, -187500.02, -187500.02, 0.00, 0.00, 0.00
228, 168533.91, -122262.59, 187500.00, -187500.02, 146927.56, -187500.02, -187500.02, -187500.02, 0.00, 0.00, 0.00
229, 166284.92, -123144.56, 187500.00, -187500.02, 146902.20, -187500.02, -187500.02, -187500.02, 0.00, 0.00, 0.00
230, 162237.41, -123575.44, 187500.00, -187500.02, 145774.41, -187500.02, -187500.02, -187500.02, 0.00, 0.00, 0.00
231, 163979.61, -123026.99, 187500.00, -187500.02, 145587.70, -187500.02, -187500.02, -187500.02, 0.00, 0.00, 0.00
232, 168255.25, -122790.13, 187500.00, -187500.02, 146667.16, -187500.02, -187500.02, -187500.02, 0.00, 0.00, 0.00
233, 167050.94, -123579.30, 187500.00, -187500.02, 146957.70, -187500.02, -187500.02, -187500.02, 0.00, 0.00, 0.00
234, 162612.13, -124195.95, 187500.00, -187500.02, 145907.52, -187500.02, -187500.02, -187500.02, 0.00, 0.00, 0.00
235, 163129.34, -123747.91, 187500.00, -187500.02, 145436.05, -187500.02, -187500.02, -187500.02, 0.00, 0.00, 0.00
236, 167382.39, -123341.99, 187500.00, -187500.02, 146344.31, -187500.02, -187500.02, -187500.02, 0.00, 0.00, 0.00
237, 167345.94, -123993.88, 187500.00, -187500.02, 146848.75, -187500.02, -187500.02, -187500.02, 0.00, 0.00, 0.00
238, 162886.09, -124756.19, 187500.00, -187500.02, 145906.91, -187500.02, -187500.02, -187500.02, 0.00, 0.00, 0.00
239, 162406.67, -124462.82, 187500.00, -187500.02, 145213.27, -187500.02, -187500.02, -187500.02, 0.00, 0.00, 0.00
240, 166663.67, -123945.25, 187500.00, -187500.02, 145993.50, -187500.02, -187500.02, -187500.02, 0.00, 0.00, 0.00
241, 167878.38, -124429.85, 187500.00, -187500.02, 146769.39, -187500.02, -187500.02, -187500.02, 0.00, 0.00, 0.00
242, 163710.34, -125295.70, 187500.00, -187500.02, 146072.09, -187500.02, -187500.02, -187500.02, 0.00, 0.00, 0.00
243, 162005.48, -125180.41, 187500.00, -187500.02, 145183.73, -187500.02, -187500.02, -187500.02, 0.00, 0.00, 0.00
244, 165937.73, -124584.30, 187500.00, -187500.02, 145765.42, -187500.02, -187500.02, -187500.02, 0.00, 0.00, 0.00
245, 168341.27, -124861.51, 187500.00, -187500.02, 146763.22, -187500.02, -187500.02, -187500.02, 0.00, 0.00, 0.00
246, 164966.33, -125769.10, 187500.00, -187500.02, 146412.84, -187500.02, -187500.02, -187500.02, 0.00, 0.00, 0.00
247, 162396.19, -125842.30, 187500.00, -187500.02, 145501.98, -187500.02, -187500.02, -187500.02, 0.00, 0.00, 0.00
248, 165752.80, -125207.83, 187500.00, -187500.02, 145909.91, -187500.02, -187500.02, -187500.02, 0.00, 0.00, 0.00
249, 168889.47, -125269.92, 187500.00, -187500.02, 147016.98, -187500.02, -187500.02, -187500.02, 0.00, 0.00, 0.00
250, 166224.02, -126172.55, 187500.00, -187500.02, 146919.05, -187500.02, -187500.02, -187500.02, 0.00, 0.00, 0.00
251, 162858.63, -126456.82, 187500.00, -187500.02, 145937.19, -187500.02, -187500.02, -187500.02, 0.00, 0.00, 0.00
252, 165447.97, -125856.16, 187500.00, -187500.02, 146093.09, -187500.02, -187500.02, -187500.02, 0.00, 0.00, 0.00
253, 169318.77, -125733.63, 187500.00, -187500.02, 147270.00, -187500.02, -187500.02, -187500.02, 0.00, 0.00, 0.00
254, 167416.80, -126587.58, 187500.00, -187500.02, 147425.22, -187500.02, -187500.02, -187500.02, 0.00, 0.00, 0.00
255, 163146.36, -127076.05, 187500.00, -187500.02, 146339.45, -187500.02, -187500.02, -187500.02, 0.00, 0.00, 0.00
0, 164652.73, -126564.45, 187500.00, -187500.02, 146122.63, -187500.02, -187500.02, -187500.02, 0.00, 0.00, 0.00
1, 168835.33, -126275.84, 187500.00, -187500.02, 147166.88, -187500.02, -187500.02, -187500.02, 0.00, 0.00, 0.00
2, 168047.45, -127033.16, 187500.00, -187500.02, 147547.34, -187500.02, -187500.02, -187500.02, 0.00, 0.00, 0.00
3, 163688.55, -127702.30, 187500.00, -187500.02, 146574.27, -187500.02, -187500.02, -187500.02, 0.00, 0.00, 0.00
4, 163963.92, -127302.10, 187500.00, -187500.02, 146086.61, -187500.02, -187500.02, -187500.02, 0.00, 0.00, 0.00
5, 168104.06, -126856.90, 187500.00, -187500.02, 146953.97, -187500.02, -187500.02, -187500.02, 0.00, 0.00, 0.00
6, 168438.19, -127460.23, 187500.00, -187500.02, 147541.20, -187500.02, -187500.02, -187500.02, 0.00, 0.00, 0.00
7, 131180.63, -123953.27, 187500.00, -187500.02, 123588.52, -187500.02, -187500.02, 0.00, 0.00, 0.00, 0.00
8, 134920.27, -123994.64, 187500.00, -187500.02, 123878.82, -187500.02, -187500.02, 0.00, 0.00, 0.00, 0.00
9, 132908.97, -124765.00, 187500.00, -187500.02, 123201.11, -187500.02, -187500.02, 0.00, 0.00, 0.00, 0.00
10, 131119.75, -124742.34, 187500.00, -187500.02, 122079.93, -187500.02, -187500.02, 0.00, 0.00, 0.00, 0.00
11, 135125.70, -123965.70, 187500.00, -187500.02, 122403.24, -187500.02, -187500.02, 0.00, 0.00, 0.00, 0.00
12, 139035.95, -123862.12, 187500.00, -187500.02, 123554.92, -187500.02, -187500.02, 0.00, 0.00, 0.00, 0.00
13, 137211.78, -124662.47, 187500.00, -187500.02, 123597.16, -187500.02, -187500.02, 0.00, 0.00, 0.00, 0.00
14, 134417.38, -124887.71, 187500.00, -187500.02, 122773.52, -187500.02, -187500.02, 0.00, 0.00, 0.00, 0.00
15, 137397.27, -124177.33, 187500.00, -187500.02, 123092.04, -187500.02, -187500.02, 0.00, 0.00, 0.00, 0.00
16, 141733.64, -123902.27, 187500.00, -187500.02, 124449.97, -187500.02, -187500.02, 0.00, 0.00, 0.00, 0.00
17, 140545.08, -124653.59, 187500.00, -187500.02, 124855.50, -187500.02, -187500.02, 0.00, 0.00, 0.00, 0.00
18, 137022.45, -125094.71, 187500.00, -187500.02, 124090.04, -187500.02, -187500.02, 0.00, 0.00, 0.00, 0.00
19, 138952.66, -124489.63, 187500.00, -187500.02, 124180.32, -187500.02, -187500.02, 0.00, 0.00, 0.00, 0.00
20, 143577.86, -124054.79, 187500.00, -187500.02, 125528.76, -187500.02, -187500.02, 0.00, 0.00, 0.00, 0.00
21, 143347.50, -124707.51, 187500.00, -187500.02, 126213.34, -187500.02, -187500.02, 0.00, 0.00, 0.00, 0.00
22, 139590.69, -125341.78, 187500.00, -187500.02, 125571.90, -187500.02, -187500.02, 0.00, 0.00, 0.00, 0.00
23, 140273.64, -124879.10, 187500.00, -187500.02, 125407.95, -187500.02, -187500.02, 0.00, 0.00, 0.00, 0.00
24, 145071.38, -124319.19, 187500.00, -187500.02, 126677.86, -187500.02, -187500.02, 0.00, 0.00, 0.00, 0.00
25, 145881.73, -124822.15, 187500.00, -187500.02, 127636.73, -187500.02, -187500.02, 0.00, 0.00, 0.00, 0.00
26, 142026.52, -125587.45, 187500.00, -187500.02, 127130.10, -187500.02, -187500.02, 0.00, 0.00, 0.00, 0.00
27, 141464.05, -125308.13, 187500.00, -187500.02, 126687.18, -187500.02, -187500.02, 0.00, 0.00, 0.00, 0.00
28, 146080.94, -124664.21, 187500.00, -187500.02, 127747.21, -187500.02, -187500.02, 0.00, 0.00, 0.00, 0.00
29, 148020.06, -124992.63, 187500.00, -187500.02, 128911.70, -187500.02, -187500.02, 0.00, 0.00, 0.00, 0.00
30, 144446.44, -125851.13, 187500.00, -187500.02, 128606.77, -187500.02, -187500.02, 0.00, 0.00, 0.00, 0.00
31, 142480.81, -125783.09, 187500.00, -187500.02, 127908.01, -187500.02, -187500.02, 0.00, 0.00, 0.00, 0.00
32, 146268.72, -125100.56, 187500.00, -187500.02, 128595.30, -187500.02, -187500.02, 0.00, 0.00, 0.00, 0.00
33, 148984.19, -125234.61, 187500.00, -187500.02, 129755.54, -187500.02, -187500.02, 0.00, 0.00, 0.00, 0.00
