%OpenBCI Raw EEG Data
%
%Sample Rate = 250.0 Hz
%First Column = SampleIndex
%Other Columns = EEG data in microvolts followed by Accel Data (in G) interleaved with Aux Data
0, -187500.02, -187500.02, -187500.02, -187500.02, 185375.08, -187500.02, -187500.02, -187500.02, 0.00, 0.00, 0.00
1, -187500.02, -187500.02, -187500.02, -187500.02, 185340.33, -187500.02, -187500.02, -187500.02, 0.00, 0.00, 0.00
2, -187500.02, -187500.02, -187500.02, -187500.02, 187500.00, -187500.02, -187500.02, -187500.02, 0.00, 0.00, 0.00
3, -187500.02, -187500.02, -187500.02, -187500.02, 187500.00, -187500.02, -187500.02, -187500.02, 0.00, 0.00, 0.00
4, -187500.02, -187500.02, -187500.02, -187500.02, 186662.73, -187500.02, -187500.02, -187500.02, 0.00, 0.00, 0.00
5, -187500.02, -187500.02, -187500.02, -187500.02, 185385.67, -187500.02, -187500.02, -187500.02, 0.00, 0.00, 0.00
6, -187500.02, -187500.02, -187500.02, -187500.02, 187500.00, -187500.02, -187500.02, -187500.02, 0.00, 0.00, 0.00
7, -187500.02, -187500.02, -187500.02, -187500.02, 187500.00, -187500.02, -187500.02, -187500.02, 0.00, 0.00, 0.00
8, -187500.02, -187500.02, -187500.02, -187500.02, 187500.00, -187500.02, -187500.02, -187500.02, 0.00, 0.00, 0.00
9, -187500.02, -187500.02, -187500.02, -187500.02, 185859.64, -187500.02, -187500.02, -187500.02, 0.00, 0.00, 0.00
10, -187500.02, -187500.02, -187500.02, -187500.02, 187500.00, -187500.02, -187500.02, -187500.02, 0.00, 0.00, 0.00
11, -187500.02, -187500.02, -187500.02, -187500.02, 187500.00, -187500.02, -187500.02, -187500.02, 0.00, 0.00, 0.00
12, -187500.02, -187500.02, -187500.02, -187500.02, 187500.00, -187500.02, -187500.02, -187500.02, 0.00, 0.00, 0.00
13, -187500.02, -187500.02, -187500.02, -187500.02, 185807.00, -187500.02, -187500.02, -187500.02, 0.00, 0.00, 0.00
14, -187500.02, -187500.02, -187500.02, -187500.02, 187500.00, -187500.02, -187500.02, -187500.02, 0.00, 0.00, 0.00
15, -187500.02, -187500.02, -187500.02, -187500.02, 187500.00, -187500.02, -187500.02, -187500.02, 0.00, 0.00, 0.00
16, -187500.02, -187500.02, -187500.02, -187500.02, 187500.00, -187500.02, -187500.02, -187500.02, 0.00, 0.00, 0.00
17, -187500.02, -187500.02, -187500.02, -187500.02, 185534.72, -187500.02, -187500.02, -187500.02, 0.00, 0.00, 0.00
18, -187500.02, -187500.02, -187500.02, -187500.02, 187500.00, -187500.02, -187500.02, -187500.02, 0.00, 0.00, 0.00
19, -187500.02, -187500.02, -187500.02, -187500.02, 187500.00, -187500.02, -187500.02, -187500.02, 0.00, 0.00, 0.00
20, -187500.02, -187500.02, -187500.02, -187500.02, 187500.00, -187500.02, -187500.02, -187500.02, 0.00, 0.00, 0.00
21, -187500.02, -187500.02, -187500.02, -187500.02, 185647.19, -187500.02, -187500.02, -187500.02, 0.00, 0.00, 0.00
22, -187500.02, -187500.02, -187500.02, -187500.02, 186458.88, -187500.02, -187500.02, -187500.02, 0.00, 0.00, 0.00
23, -187500.02, -187500.02, -187500.02, -187500.02, 187500.00, -187500.02, -187500.02, -187500.02, 0.00, 0.00, 0.00
24, -187500.02, -187500.02, -187500.02, -187500.02, 187500.00, -187500.02, -187500.02, -187500.02, 0.00, 0.00, 0.00
25, -187500.02, -187500.02, -187500.02, -187500.02, 185949.44, -187500.02, -187500.02, -187500.02, 0.00, 0.00, 0.00
26, -187500.02, -187500.02, -187500.02, -187500.02, 185353.25, -187500.02, -187500.02, -187500.02, 0.00, 0.00, 0.00
27, -187500.02, -187500.02, -187500.02, -187500.02, 187500.00, -187500.02, -187500.02, -187500.02, 0.00, 0.00, 0.00
28, -187500.02, -187500.02, -187500.02, -187500.02, 187500.00, -187500.02, -187500.02, -187500.02, 0.00, 0.00, 0.00
29, -187500.02, -187500.02, -187500.02, -187500.02, 186668.55, -187500.02, -187500.02, -187500.02, 0.00, 0.00, 0.00
30, -187500.02, -187500.02, -187500.02, -187500.02, 184684.45, -187500.02, -187500.02, -187500.02, 0.00, 0.00, 0.00
31, -187500.02, -187500.02, -187500.02, -187500.02, 187500.00, -187500.02, -187500.02, -187500.02, 0.00, 0.00, 0.00
32, -187500.02, -187500.02, -187500.02, -187500.02, 187500.00, -187500.02, -187500.02, -187500.02, 0.00, 0.00, 0.00
33, -187500.02, -187500.02, -187500.02, -187500.02, 187500.00, -187500.02, -187500.02, -187500.02, 0.00, 0.00, 0.00
34, -187500.02, -187500.02, -187500.02, -187500.02, 184322.73, -187500.02, -187500.02, -187500.02, 0.00, 0.00, 0.00
35, -187500.02, -187500.02, -187500.02, -187500.02, 187500.00, -187500.02, -187500.02, -187500.02, 0.00, 0.00, 0.00
36, -187500.02, -187500.02, -187500.02, -187500.02, 187500.00, -187500.02, -187500.02, -187500.02, 0.00, 0.00, 0.00
37, -187500.02, -187500.02, -187500.02, -187500.02, 187500.00, -187500.02, -187500.02, -187500.02, 0.00, 0.00, 0.00
38, -187500.02, -187500.02, -187500.02, -187500.02, 184225.00, -187500.02, -187500.02, -187500.02, 0.00, 0.00, 0.00
39, -187500.02, -187500.02, -187500.02, -187500.02, 187224.11, -187500.02, -187500.02, -187500.02, 0.00, 0.00, 0.00
40, -187500.02, -187500.02, -187500.02, -187500.02, 187500.00, -187500.02, -187500.02, -187500.02, 0.00, 0.00, 0.00
41, -187500.02, -187500.02, -187500.02, -187500.02, 187500.00, -187500.02, -187500.02, -187500.02, 0.00, 0.00, 0.00
42, -187500.02, -187500.02, -187500.02, -187500.02, 184601.27, -187500.02, -187500.02, -187500.02, 0.00, 0.00, 0.00
43, -187500.02, -187500.02, -187500.02, -187500.02, 186404.17, -187500.02, -187500.02, -187500.02, 0.00, 0.00, 0.00
44, -187500.02, -187500.02, -187500.02, -187500.02, 187500.00, -187500.02, -187500.02, -187500.02, 0.00, 0.00, 0.00
45, -187500.02, -187500.02, -187500.02, -187500.02, 187500.00, -187500.02, -187500.02, -187500.02, 0.00, 0.00, 0.00
46, -187500.02, -187500.02, -187500.02, -187500.02, 185779.52, -187500.02, -187500.02, -187500.02, 0.00, 0.00, 0.00
47, -187500.02, -187500.02, -187500.02, -187500.02, 186435.42, -187500.02, -187500.02, -187500.02, 0.00, 0.00, 0.00
48, -187500.02, -187500.02, -187500.02, -187500.02, 187500.00, -187500.02, -187500.02, -187500.02, 0.00, 0.00, 0.00
49, -187500.02, -187500.02, -187500.02, -187500.02, 187500.00, -187500.02, -187500.02, -187500.02, 0.00, 0.00, 0.00
50, -187500.02, -187500.02, -187500.02, -187500.02, 187276.19, -187500.02, -187500.02, -187500.02, 0.00, 0.00, 0.00
51, -187500.02, -187500.02, -187500.02, -187500.02, 186416.14, -187500.02, -187500.02, -187500.02, 0.00, 0.00, 0.00
52, -187500.02, -187500.02, -187500.02, -187500.02, 187500.00, -187500.02, -187500.02, -187500.02, 0.00, 0.00, 0.00
53, -187500.02, -187500.02, -187500.02, -187500.02, 187500.00, -187500.02, -187500.02, -187500.02, 0.00, 0.00, 0.00
54, -187500.02, -187500.02, -187500.02, -187500.02, 187500.00, -187500.02, -187500.02, -187500.02, 0.00, 0.00, 0.00
55, -187500.02, -187500.02, -187500.02, -187500.02, 185948.92, -187500.02, -187500.02, -187500.02, 0.00, 0.00, 0.00
56, -187500.02, -187500.02, -187500.02, -187500.02, 187500.00, -187500.02, -187500.02, -187500.02, 0.00, 0.00, 0.00
57, -187500.02, -187500.02, -187500.02, -187500.02, 187500.00, -187500.02, -187500.02, -187500.02, 0.00, 0.00, 0.00
58, -187500.02, -187500.02, -187500.02, -187500.02, 187500.00, -187500.02, -187500.02, -187500.02, 0.00, 0.00, 0.00
59, -187500.02, -187500.02, -187500.02, -187500.02, 185270.98, -187500.02, -187500.02, -187500.02, 0.00, 0.00, 0.00
60, -187500.02, -187500.02, -187500.02, -187500.02, 187500.00, -187500.02, -187500.02, -187500.02, 0.00, 0.00, 0.00
61, -187500.02, -187500.02, -187500.02, -187500.02, 187500.00, -187500.02, -187500.02, -187500.02, 0.00, 0.00, 0.00
62, -187500.02, -187500.02, -187500.02, -187500.02, 187500.00, -187500.02, -187500.02, -187500.02, 0.00, 0.00, 0.00
63, -187500.02, -187500.02, -187500.02, -187500.02, 185076.38, -187500.02, -187500.02, -187500.02, 0.00, 0.00, 0.00
64, -187500.02, -187500.02, -187500.02, -187500.02, 187500.00, -187500.02, -187500.02, -187500.02, 0.00, 0.00, 0.00
65, -187500.02, -187500.02, -187500.02, -187500.02, 187500.00, -187500.02, -187500.02, -187500.02, 0.00, 0.00, 0.00
66, -187500.02, -187500.02, -187500.02, -187500.02, 187500.00, -187500.02, -187500.02, -187500.02, 0.00, 0.00, 0.00
67, -187500.02, -187500.02, -187500.02, -187500.02, 185385.70, -187500.02, -187500.02, -187500.02, 0.00, 0.00, 0.00
68, -187500.02, -187500.02, -187500.02, -187500.02, 186632.28, -187500.02, -187500.02, -187500.02, 0.00, 0.00, 0.00
69, -187500.02, -187500.02, -187500.02, -187500.02, 187500.00, -187500.02, -187500.02, -187500.02, 0.00, 0.00, 0.00
70, -187500.02, -187500.02, -187500.02, -187500.02, 187500.00, -187500.02, -187500.02, -187500.02, 0.00, 0.00, 0.00
71, -187500.02, -187500.02, -187500.02, -187500.02, 185470.09, -187500.02, -187500.02, -187500.02, 0.00, 0.00, 0.00
72, -187500.02, -187500.02, -187500.02, -187500.02, 185292.41, -187500.02, -187500.02, -187500.02, 0.00, 0.00, 0.00
73, -187500.02, -187500.02, -187500.02, -187500.02, 187500.00, -187500.02, -187500.02, -187500.02, 0.00, 0.00, 0.00
74, -187500.02, -187500.02, -187500.02, -187500.02, 187500.00, -187500.02, -187500.02, -187500.02, 0.00, 0.00, 0.00
75, -187500.02, -187500.02, -187500.02, -187500.02, 185978.22, -187500.02, -187500.02, -187500.02, 0.00, 0.00, 0.00
76, -187500.02, -187500.02, -187500.02, -187500.02, 184399.00, -187500.02, -187500.02, -187500.02, 0.00, 0.00, 0.00
77, -187500.02, -187500.02, -187500.02, -187500.02, 187500.00, -187500.02, -187500.02, -187500.02, 0.00, 0.00, 0.00
78, -187500.02, -187500.02, -187500.02, -187500.02, 187500.00, -187500.02, -187500.02, -187500.02, 0.00, 0.00, 0.00
79, -187500.02, -187500.02, -187500.02, -187500.02, 186728.88, -187500.02, -187500.02, -187500.02, 0.00, 0.00, 0.00
80, -187500.02, -187500.02, -187500.02, -187500.02, 183720.22, -187500.02, -187500.02, -187500.02, 0.00, 0.00, 0.00
81, -187500.02, -187500.02, -187500.02, -187500.02, 187500.00, -187500.02, -187500.02, -187500.02, 0.00, 0.00, 0.00
82, -187500.02, -187500.02, -187500.02, -187500.02, 187500.00, -187500.02, -187500.02, -187500.02, 0.00, 0.00, 0.00
83, -187500.02, -187500.02, -187500.02, -187500.02, 187500.00, -187500.02, -187500.02, -187500.02, 0.00, 0.00, 0.00
84, -187500.02, -187500.02, -187500.02, -187500.02, 183746.44, -187500.02, -187500.02, -187500.02, 0.00, 0.00, 0.00
85, -187500.02, -187500.02, -187500.02, -187500.02, 187328.27, -187500.02, -187500.02, -187500.02, 0.00, 0.00, 0.00
86, -187500.02, -187500.02, -187500.02, -187500.02, 187500.00, -187500.02, -187500.02, -187500.02, 0.00, 0.00, 0.00
87, -187500.02, -187500.02, -187500.02, -187500.02, 187500.00, -187500.02, -187500.02, -187500.02, 0.00, 0.00, 0.00
88, -187500.02, -187500.02, -187500.02, -187500.02, 184648.48, -187500.02, -187500.02, -187500.02, 0.00, 0.00, 0.00
89, -187500.02, -187500.02, -187500.02, -187500.02, 187017.89, -187500.02, -187500.02, -187500.02, 0.00, 0.00, 0.00
90, -187500.02, -187500.02, -187500.02, -187500.02, 187500.00, -187500.02, -187500.02, -187500.02, 0.00, 0.00, 0.00
91, -187500.02, -187500.02, -187500.02, -187500.02, 187500.00, -187500.02, -187500.02, -187500.02, 0.00, 0.00, 0.00
92, -187500.02, -187500.02, -187500.02, -187500.02, 185791.66, -187500.02, -187500.02, -187500.02, 0.00, 0.00, 0.00
93, -187500.02, -187500.02, -187500.02, -187500.02, 186712.98, -187500.02, -187500.02, -187500.02, 0.00, 0.00, 0.00
94, -187500.02, -187500.02, -187500.02, -187500.02, 187500.00, -187500.02, -187500.02, -187500.02, 0.00, 0.00, 0.00
95, -187500.02, -187500.02, -187500.02, -187500.02, 187500.00, -187500.02, -187500.02, -187500.02, 0.00, 0.00, 0.00
96, -187500.02, -187500.02, -187500.02, -187500.02, 186821.08, -187500.02, -187500.02, -187500.02, 0.00, 0.00, 0.00
97, -187500.02, -187500.02, -187500.02, -187500.02, 185913.69, -187500.02, -187500.02, -187500.02, 0.00, 0.00, 0.00
98, -187500.02, -187500.02, -187500.02, -187500.02, 187500.00, -187500.02, -187500.02, -187500.02, 0.00, 0.00, 0.00
99, -187500.02, -187500.02, -187500.02, -187500.02, 187500.00, -187500.02, -187500.02, -187500.02, 0.00, 0.00, 0.00
100, -187500.02, -187500.02, -187500.02, -187500.02, 187359.16, -187500.02, -187500.02, -187500.02, 0.00, 0.00, 0.00
101, -187500.02, -187500.02, -187500.02, -187500.02, 185220.47, -187500.02, -187500.02, -187500.02, 0.00, 0.00, 0.00
102, -187500.02, -187500.02, -187500.02, -187500.02, 187500.00, -187500.02, -187500.02, -187500.02, 0.00, 0.00, 0.00
103, -187500.02, -187500.02, -187500.02, -187500.02, 187500.00, -187500.02, -187500.02, -187500.02, 0.00, 0.00, 0.00
104, -187500.02, -187500.02, -187500.02, -187500.02, 187500.00, -187500.02, -187500.02, -187500.02, 0.00, 0.00, 0.00
105, -187500.02, -187500.02, -187500.02, -187500.02, 184558.38, -187500.02, -187500.02, -187500.02, 0.00, 0.00, 0.00
106, -187500.02, -187500.02, -187500.02, -187500.02, 187500.00, -187500.02, -187500.02, -187500.02, 0.00, 0.00, 0.00
107, -187500.02, -187500.02, -187500.02, -187500.02, 187500.00, -187500.02, -187500.02, -187500.02, 0.00, 0.00, 0.00
108, -187500.02, -187500.02, -187500.02, -187500.02, 187500.00, -187500.02, -187500.02, -187500.02, 0.00, 0.00, 0.00
109, -187500.02, -187500.02, -187500.02, -187500.02, 184263.94, -187500.02, -187500.02, -187500.02, 0.00, 0.00, 0.00
110, -187500.02, -187500.02, -187500.02, -187500.02, 187136.86, -187500.02, -187500.02, -187500.02, 0.00, 0.00, 0.00
111, -187500.02, -187500.02, -187500.02, -187500.02, 187500.00, -187500.02, -187500.02, -187500.02, 0.00, 0.00, 0.00
112, -187500.02, -187500.02, -187500.02, -187500.02, 187500.00, -187500.02, -187500.02, -187500.02, 0.00, 0.00, 0.00
113, -187500.02, -187500.02, -187500.02, -187500.02, 184528.38, -187500.02, -187500.02, -187500.02, 0.00, 0.00, 0.00
114, -187500.02, -187500.02, -187500.02, -187500.02, 186126.86, -187500.02, -187500.02, -187500.02, 0.00, 0.00, 0.00
115, -187500.02, -187500.02, -187500.02, -187500.02, 187500.00, -187500.02, -187500.02, -187500.02, 0.00, 0.00, 0.00
116, -187500.02, -187500.02, -187500.02, -187500.02, 187500.00, -187500.02, -187500.02, -187500.02, 0.00, 0.00, 0.00
117, -187500.02, -187500.02, -187500.02, -187500.02, 184757.19, -187500.02, -187500.02, -187500.02, 0.00, 0.00, 0.00
118, -187500.02, -187500.02, -187500.02, -187500.02, 185013.94, -187500.02, -187500.02, -187500.02, 0.00, 0.00, 0.00
119, -187500.02, -187500.02, -187500.02, -187500.02, 187500.00, -187500.02, -187500.02, -187500.02, 0.00, 0.00, 0.00
120, -187500.02, -187500.02, -187500.02, -187500.02, 187500.00, -187500.02, -187500.02, -187500.02, 0.00, 0.00, 0.00
121, -187500.02, -187500.02, -187500.02, -187500.02, 185495.00, -187500.02, -187500.02, -187500.02, 0.00, 0.00, 0.00
122, -187500.02, -187500.02, -187500.02, -187500.02, 184296.97, -187500.02, -187500.02, -187500.02, 0.00, 0.00, 0.00
123, -187500.02, -187500.02, -187500.02, -187500.02, 187500.00, -187500.02, -187500.02, -187500.02, 0.00, 0.00, 0.00
124, -187500.02, -187500.02, -187500.02, -187500.02, 187500.00, -187500.02, -187500.02, -187500.02, 0.00, 0.00, 0.00
125, -187500.02, -187500.02, -187500.02, -187500.02, 186893.28, -187500.02, -187500.02, -187500.02, 0.00, 0.00, 0.00
126, -187500.02, -187500.02, -187500.02, -187500.02, 184532.48, -187500.02, -187500.02, -187500.02, 0.00, 0.00, 0.00
127, -187500.02, -187500.02, -187500.02, -187500.02, 187500.00, -187500.02, -187500.02, -187500.02, 0.00, 0.00, 0.00
128, -187500.02, -187500.02, -187500.02, -187500.02, 187500.00, -187500.02, -187500.02, -187500.02, 0.00, 0.00, 0.00
129, -187500.02, -187500.02, -187500.02, -187500.02, 187500.00, -187500.02, -187500.02, -187500.02, 0.00, 0.00, 0.00
130, -187500.02, -187500.02, -187500.02, -187500.02, 185102.97, -187500.02, -187500.02, -187500.02, 0.00, 0.00, 0.00
131, -187500.02, -187500.02, -187500.02, -187500.02, 187500.00, -187500.02, -187500.02, -187500.02, 0.00, 0.00, 0.00
132, -187500.02, -187500.02, -187500.02, -187500.02, 187500.00, -187500.02, -187500.02, -187500.02, 0.00, 0.00, 0.00
133, -187500.02, -187500.02, -187500.02, -187500.02, 187500.00, -187500.02, -187500.02, -187500.02, 0.00, 0.00, 0.00
134, -187500.02, -187500.02, -187500.02, -187500.02, 185477.25, -187500.02, -187500.02, -187500.02, 0.00, 0.00, 0.00
135, -187500.02, -187500.02, -187500.02, -187500.02, 187500.00, -187500.02, -187500.02, -187500.02, 0.00, 0.00, 0.00
136, -187500.02, -187500.02, -187500.02, -187500.02, 187500.00, -187500.02, -187500.02, -187500.02, 0.00, 0.00, 0.00
137, -187500.02, -187500.02, -187500.02, -187500.02, 187500.00, -187500.02, -187500.02, -187500.02, 0.00, 0.00, 0.00
138, -187500.02, -187500.02, -187500.02, -187500.02, 185613.64, -187500.02, -187500.02, -187500.02, 0.00, 0.00, 0.00
139, -187500.02, -187500.02, -187500.02, -187500.02, 186680.63, -187500.02, -187500.02, -187500.02, 0.00, 0.00, 0.00
140, -187500.02, -187500.02, -187500.02, -187500.02, 187500.00, -187500.02, -187500.02, -187500.02, 0.00, 0.00, 0.00
141, -187500.02, -187500.02, -187500.02, -187500.02, 187500.00, -187500.02, -187500.02, -187500.02, 0.00, 0.00, 0.00
142, -187500.02, -187500.02, -187500.02, -187500.02, 186078.98, -187500.02, -187500.02, -187500.02, 0.00, 0.00, 0.00
143, -187500.02, -187500.02, -187500.02, -187500.02, 185628.28, -187500.02, -187500.02, -187500.02, 0.00, 0.00, 0.00
144, -187500.02, -187500.02, -187500.02, -187500.02, 187500.00, -187500.02, -187500.02, -187500.02, 0.00, 0.00, 0.00
145, -187500.02, -187500.02, -187500.02, -187500.02, 187500.00, -187500.02, -187500.02, -187500.02, 0.00, 0.00, 0.00
146, -187500.02, -187500.02, -187500.02, -187500.02, 186565.38, -187500.02, -187500.02, -187500.02, 0.00, 0.00, 0.00
147, -187500.02, -187500.02, -187500.02, -187500.02, 184765.19, -187500.02, -187500.02, -187500.02, 0.00, 0.00, 0.00
148, -187500.02, -187500.02, -187500.02, -187500.02, 187500.00, -187500.02, -187500.02, -187500.02, 0.00, 0.00, 0.00
149, -187500.02, -187500.02, -187500.02, -187500.02, 187500.00, -187500.02, -187500.02, -187500.02, 0.00, 0.00, 0.00
150, -187500.02, -187500.02, -187500.02, -187500.02, 187221.92, -187500.02, -187500.02, -187500.02, 0.00, 0.00, 0.00
151, -187500.02, -187500.02, -187500.02, -187500.02, 184201.97, -187500.02, -187500.02, -187500.02, 0.00, 0.00, 0.00
152, -187500.02, -187500.02, -187500.02, -187500.02, 187500.00, -187500.02, -187500.02, -187500.02, 0.00, 0.00, 0.00
153, -187500.02, -187500.02, -187500.02, -187500.02, 187500.00, -187500.02, -187500.02, -187500.02, 0.00, 0.00, 0.00
154, -187500.02, -187500.02, -187500.02, -187500.02, 187500.00, -187500.02, -187500.02, -187500.02, 0.00, 0.00, 0.00
155, -187500.02, -187500.02, -187500.02, -187500.02, 183835.58, -187500.02, -187500.02, -187500.02, 0.00, 0.00, 0.00
156, -187500.02, -187500.02, -187500.02, -187500.02, 187047.30, -187500.02, -187500.02, -187500.02, 0.00, 0.00, 0.00
157, -187500.02, -187500.02, -187500.02, -187500.02, 187500.00, -187500.02, -187500.02, -187500.02, 0.00, 0.00, 0.00
158, -187500.02, -187500.02, -187500.02, -187500.02, 187500.00, -187500.02, -187500.02, -187500.02, 0.00, 0.00, 0.00
159, -187500.02, -187500.02, -187500.02, -187500.02, 183923.72, -187500.02, -187500.02, -187500.02, 0.00, 0.00, 0.00
160, -187500.02, -187500.02, -187500.02, -187500.02, 186246.89, -187500.02, -187500.02, -187500.02, 0.00, 0.00, 0.00
161, -187500.02, -187500.02, -187500.02, -187500.02, 187500.00, -187500.02, -187500.02, -187500.02, 0.00, 0.00, 0.00
162, -187500.02, -187500.02, -187500.02, -187500.02, 187500.00, -187500.02, -187500.02, -187500.02, 0.00, 0.00, 0.00
163, -187500.02, -187500.02, -187500.02, -187500.02, 185208.22, -187500.02, -187500.02, -187500.02, 0.00, 0.00, 0.00
164, -187500.02, -187500.02, -187500.02, -187500.02, 186145.64, -187500.02, -187500.02, -187500.02, 0.00, 0.00, 0.00
165, -187500.02, -187500.02, -187500.02, -187500.02, 187500.00, -187500.02, -187500.02, -187500.02, 0.00, 0.00, 0.00
166, -187500.02, -187500.02, -187500.02, -187500.02, 187500.00, -187500.02, -187500.02, -187500.02, 0.00, 0.00, 0.00
167, -187500.02, -187500.02, -187500.02, -187500.02, 186858.03, -187500.02, -187500.02, -187500.02, 0.00, 0.00, 0.00
168, -187500.02, -187500.02, -187500.02, -187500.02, 186345.41, -187500.02, -187500.02, -187500.02, 0.00, 0.00, 0.00
169, -187500.02, -187500.02, -187500.02, -187500.02, 187500.00, -187500.02, -187500.02, -187500.02, 0.00, 0.00, 0.00
170, -187500.02, -187500.02, -187500.02, -187500.02, 187500.00, -187500.02, -187500.02, -187500.02, 0.00, 0.00, 0.00
171, -187500.02, -187500.02, -187500.02, -187500.02, 187500.00, -187500.02, -187500.02, -187500.02, 0.00, 0.00, 0.00
172, -187500.02, -187500.02, -187500.02, -187500.02, 185945.03, -187500.02, -187500.02, -187500.02, 0.00, 0.00, 0.00
173, -187500.02, -187500.02, -187500.02, -187500.02, 187500.00, -187500.02, -187500.02, -187500.02, 0.00, 0.00, 0.00
174, -187500.02, -187500.02, -187500.02, -187500.02, 187500.00, -187500.02, -187500.02, -187500.02, 0.00, 0.00, 0.00
175, -187500.02, -187500.02, -187500.02, -187500.02, 187500.00, -187500.02, -187500.02, -187500.02, 0.00, 0.00, 0.00
176, -187500.02, -187500.02, -187500.02, -187500.02, 185442.66, -187500.02, -187500.02, -187500.02, 0.00, 0.00, 0.00
177, -187500.02, -187500.02, -187500.02, -187500.02, 187500.00, -187500.02, -187500.02, -187500.02, 0.00, 0.00, 0.00
178, -187500.02, -187500.02, -187500.02, -187500.02, 187500.00, -187500.02, -187500.02, -187500.02, 0.00, 0.00, 0.00
179, -187500.02, -187500.02, -187500.02, -187500.02, 187500.00, -187500.02, -187500.02, -187500.02, 0.00, 0.00, 0.00
180, -187500.02, -187500.02, -187500.02, -187500.02, 185086.05, -187500.02, -187500.02, -187500.02, 0.00, 0.00, 0.00
181, -187500.02, -187500.02, -187500.02, -187500.02, 187500.00, -187500.02, -187500.02, -187500.02, 0.00, 0.00, 0.00
182, -187500.02, -187500.02, -187500.02, -187500.02, 187500.00, -187500.02, -187500.02, -187500.02, 0.00, 0.00, 0.00
183, -187500.02, -187500.02, -187500.02, -187500.02, 187500.00, -187500.02, -187500.02, -187500.02, 0.00, 0.00, 0.00
184, -187500.02, -187500.02, -187500.02, -187500.02, 184919.64, -187500.02, -187500.02, -187500.02, 0.00, 0.00, 0.00
185, -187500.02, -187500.02, -187500.02, -187500.02, 186436.08, -187500.02, -187500.02, -187500.02, 0.00, 0.00, 0.00
186, -187500.02, -187500.02, -187500.02, -187500.02, 187500.00, -187500.02, -187500.02, -187500.02, 0.00, 0.00, 0.00
187, -187500.02, -187500.02, -187500.02, -187500.02, 187500.00, -187500.02, -187500.02, -187500.02, 0.00, 0.00, 0.00
188, -187500.02, -187500.02, -187500.02, -187500.02, 185383.81, -187500.02, -187500.02, -187500.02, 0.00, 0.00, 0.00
189, -187500.02, -187500.02, -187500.02, -187500.02, 185703.00, -187500.02, -187500.02, -187500.02, 0.00, 0.00, 0.00
190, -187500.02, -187500.02, -187500.02, -187500.02, 187500.00, -187500.02, -187500.02, -187500.02, 0.00, 0.00, 0.00
191, -187500.02, -187500.02, -187500.02, -187500.02, 187500.00, -187500.02, -187500.02, -187500.02, 0.00, 0.00, 0.00
192, -187500.02, -187500.02, -187500.02, -187500.02, 186062.73, -187500.02, -187500.02, -187500.02, 0.00, 0.00, 0.00
193, -187500.02, -187500.02, -187500.02, -187500.02, 184896.70, -187500.02, -187500.02, -187500.02, 0.00, 0.00, 0.00
194, -187500.02, -187500.02, -187500.02, -187500.02, 187500.00, -187500.02, -187500.02, -187500.02, 0.00, 0.00, 0.00
195, -187500.02, -187500.02, -187500.02, -187500.02, 187500.00, -187500.02, -187500.02, -187500.02, 0.00, 0.00, 0.00
196, -187500.02, -187500.02, -187500.02, -187500.02, 187094.47, -187500.02, -187500.02, -187500.02, 0.00, 0.00, 0.00
197, -187500.02, -187500.02, -187500.02, -187500.02, 187470.95, -187500.02, -126933.20, -187500.02, 0.00, 0.00, 0.00
198, -184319.23, -185876.47, -182631.88, -181131.25, 187500.00, -187500.02, -11188.92, -187500.02, 0.00, 0.00, 0.00
199, -185261.28, -186190.89, -182406.41, -181109.34, 187500.00, -187500.02, -1650.43, -187500.02, 0.00, 0.00, 0.00
200, -184682.05, -186401.06, -182803.00, -181418.48, 187500.00, -187500.02, -2455.83, -187500.02, 0.00, 0.00, 0.00
201, -183397.64, -185839.48, -183028.33, -181083.39, 187500.00, -187500.02, -2973.63, -187500.02, 0.00, 0.00, 0.00
202, -184604.14, -186309.66, -183634.48, -181446.84, 187500.00, -187500.02, -4483.27, -187500.02, 0.00, 0.00, 0.00
203, -186696.78, -187500.02, -184425.78, -182457.75, 187500.00, -187500.02, -5815.81, -187500.02, 0.00, 0.00, 0.00
204, -186475.03, -187500.02, -184840.11, -182861.53, 187500.00, -187500.02, -5909.33, -187500.02, 0.00, 0.00, 0.00
205, -184940.47, -187323.17, -184998.20, -182477.95, 187500.00, -187500.02, -5724.75, -187500.02, 0.00, 0.00, 0.00
206, -185652.31, -187500.02, -185516.81, -182632.95, 187500.00, -187500.02, -6692.81, -187500.02, 0.00, 0.00, 0.00
207, -187500.02, -187500.02, -186285.63, -183585.78, 187500.00, -187500.02, -8135.07, -187500.02, 0.00, 0.00, 0.00
208, -187500.02, -187500.02, -186761.42, -184152.02, 187500.00, -187500.02, -8337.89, -187500.02, 0.00, 0.00, 0.00
209, -186508.89, -187500.02, -186921.02, -183830.38, 187500.00, -187500.02, -7966.74, -187500.02, 0.00, 0.00, 0.00
210, -186694.25, -187500.02, -187329.92, -183798.64, 187500.00, -187500.02, -8745.25, -187500.02, 0.00, 0.00, 0.00
211, -187500.02, -187500.02, -187500.02, -184660.20, 187500.00, -187500.02, -10210.21, -187500.02, 0.00, 0.00, 0.00
212, -187500.02, -187500.02, -187500.02, -185373.00, 187500.00, -187500.02, -10535.38, -187500.02, 0.00, 0.00, 0.00
213, -187500.02, -187500.02, -187500.02, -185132.66, 187500.00, -187500.02, -10168.59, -187500.02, 0.00, 0.00, 0.00
214, -187500.02, -187500.02, -187500.02, -184939.11, 187500.00, -187500.02, -10571.23, -187500.02, 0.00, 0.00, 0.00
215, -187500.02, -187500.02, -187500.02, -185684.56, 187500.00, -187500.02, -11906.17, -187500.02, 0.00, 0.00, 0.00
216, -187500.02, -187500.02, -187500.02, -186505.70, 187500.00, -187500.02, -12554.88, -187500.02, 0.00, 0.00, 0.00
217, -187500.02, -187500.02, -187500.02, -186410.77, 187500.00, -187500.02, -12095.45, -187500.02, 0.00, 0.00, 0.00
218, -187500.02, -187500.02, -187500.02, -186095.20, 187500.00, -187500.02, -12252.18, -187500.02, 0.00, 0.00, 0.00
219, -187500.02, -187500.02, -187500.02, -186696.72, 187500.00, -187500.02, -13474.99, -187500.02, 0.00, 0.00, 0.00
220, -187500.02, -187500.02, -187500.02, -187500.02, 187500.00, -187500.02, -14421.93, -187500.02, 0.00, 0.00, 0.00
221, -187500.02, -187500.02, -187500.02, -187500.02, 187500.00, -187500.02, -14142.17, -187500.02, 0.00, 0.00, 0.00
222, -187500.02, -187500.02, -187500.02, -187250.17, 187500.00, -187500.02, -14123.75, -187500.02, 0.00, 0.00, 0.00
223, -187500.02, -187500.02, -187500.02, -187500.02, 187500.00, -187500.02, -15237.85, -187500.02, 0.00, 0.00, 0.00
224, -187500.02, -187500.02, -187500.02, -187500.02, 187500.00, -187500.02, -16274.57, -187500.02, 0.00, 0.00, 0.00
225, -187500.02, -187500.02, -187500.02, -187500.02, 187500.00, -187500.02, -15982.64, -187500.02, 0.00, 0.00, 0.00
226, -187500.02, -187500.02, -187500.02, -187500.02, 187500.00, -187500.02, -15676.66, -187500.02, 0.00, 0.00, 0.00
227, -187500.02, -187500.02, -187500.02, -187500.02, 187500.00, -187500.02, -16608.73, -187500.02, 0.00, 0.00, 0.00
228, -187500.02, -187500.02, -187500.02, -187500.02, 187500.00, -187500.02, -17816.22, -187500.02, 0.00, 0.00, 0.00
229, -187500.02, -187500.02, -187500.02, -187500.02, 187500.00, -187500.02, -17821.07, -187500.02, 0.00, 0.00, 0.00
230, -187500.02, -187500.02, -187500.02, -187500.02, 187500.00, -187500.02, -17472.78, -187500.02, 0.00, 0.00, 0.00
231, -187500.02, -187500.02, -187500.02, -187500.02, 187500.00, -187500.02, -18307.89, -187500.02, 0.00, 0.00, 0.00
232, -187500.02, -187500.02, -187500.02, -187500.02, 187500.00, -187500.02, -19629.90, -187500.02, 0.00, 0.00, 0.00
233, -187500.02, -187500.02, -187500.02, -187500.02, 187500.00, -187500.02, -19784.47, -187500.02, 0.00, 0.00, 0.00
234, -187500.02, -187500.02, -187500.02, -187500.02, 187500.00, -187500.02, -19330.21, -187500.02, 0.00, 0.00, 0.00
235, -187500.02, -187500.02, -187500.02, -187500.02, 187500.00, -187500.02, -20018.82, -187500.02, 0.00, 0.00, 0.00
236, -187500.02, -187500.02, -187500.02, -187500.02, 187500.00, -187500.02, -21467.84, -187500.02, 0.00, 0.00, 0.00
237, -187500.02, -187500.02, -187500.02, -187500.02, 187500.00, -187500.02, -21987.72, -187500.02, 0.00, 0.00, 0.00
238, -187500.02, -187500.02, -187500.02, -187500.02, 187500.00, -187500.02, -21550.43, -187500.02, 0.00, 0.00, 0.00
239, -187500.02, -187500.02, -187500.02, -187500.02, 187500.00, -187500.02, -21960.30, -187500.02, 0.00, 0.00, 0.00
240, -187500.02, -187500.02, -187500.02, -187500.02, 187500.00, -187500.02, -23253.46, -187500.02, 0.00, 0.00, 0.00
241, -187500.02, -187500.02, -187500.02, -187500.02, 187500.00, -187500.02, -24077.12, -187500.02, 0.00, 0.00, 0.00
242, -187500.02, -187500.02, -187500.02, -187500.02, 187500.00, -187500.02, -23663.52, -187500.02, 0.00, 0.00, 0.00
243, -187500.02, -187500.02, -187500.02, -187500.02, 187500.00, -187500.02, -23699.80, -187500.02, 0.00, 0.00, 0.00
244, -187500.02, -187500.02, -187500.02, -187500.02, 187500.00, -187500.02, -24979.64, -187500.02, 0.00, 0.00, 0.00
245, -187500.02, -187500.02, -187500.02, -187500.02, 187500.00, -187500.02, -26033.43, -187500.02, 0.00, 0.00, 0.00
246, -187500.02, -187500.02, -187500.02, -187500.02, 187500.00, -187500.02, -25927.22, -187500.02, 0.00, 0.00, 0.00
247, -187500.02, -187500.02, -187500.02, -187500.02, 187500.00, -187500.02, -25616.15, -187500.02, 0.00, 0.00, 0.00
248, -187500.02, -187500.02, -187500.02, -187500.02, 187500.00, -187500.02, -26580.85, -187500.02, 0.00, 0.00, 0.00
249, -187500.02, -187500.02, -187500.02, -187500.02, 187500.00, -187500.02, -27767.53, -187500.02, 0.00, 0.00, 0.00
250, -187500.02, -187500.02, -187500.02, -187500.02, 187500.00, -187500.02, -27526.98, -187500.02, 0.00, 0.00, 0.00
251, -187500.02, -187500.02, -187500.02, -187500.02, 187500.00, -187500.02, -27130.35, -187500.02, 0.00, 0.00, 0.00
252, -187500.02, -187500.02, -187500.02, -187500.02, 187500.00, -187500.02, -28073.07, -187500.02, 0.00, 0.00, 0.00
253, -187500.02, -187500.02, -187500.02, -187500.02, 187500.00, -187500.02, -29356.78, -187500.02, 0.00, 0.00, 0.00
254, -187500.02, -187500.02, -187500.02, -187500.02, 187500.00, -187500.02, -29314.69, -187500.02, 0.00, 0.00, 0.00
255, -187500.02, -187500.02, -187500.02, -187500.02, 187500.00, -187500.02, -28857.76, -187500.02, 0.00, 0.00, 0.00
0, -187500.02, -187500.02, -187500.02, -187500.02, 187500.00, -187500.02, -29402.58, -187500.02, 0.00, 0.00, 0.00
1, -187500.02, -187500.02, -187500.02, -187500.02, 187500.00, -187500.02, -30659.15, -187500.02, 0.00, 0.00, 0.00
2, -187500.02, -187500.02, -187500.02, -187500.02, 187500.00, -187500.02, -30878.13, -187500.02, 0.00, 0.00, 0.00
3, -187500.02, -187500.02, -187500.02, -187500.02, 187500.00, -187500.02, -30268.31, -187500.02, 0.00, 0.00, 0.00
4, -187500.02, -187500.02, -187500.02, -187500.02, 187500.00, -187500.02, -30789.42, -187500.02, 0.00, 0.00, 0.00
5, -187500.02, -187500.02, -187500.02, -187500.02, 187500.00, -187500.02, -32094.36, -187500.02, 0.00, 0.00, 0.00
6, -187500.02, -187500.02, -187500.02, -187500.02, 187500.00, -187500.02, -32590.59, -187500.02, 0.00, 0.00, 0.00
7, -187500.02, -187500.02, -187500.02, -187500.02, 187500.00, -187500.02, -32134.97, -187500.02, 0.00, 0.00, 0.00
8, -187500.02, -187500.02, -187500.02, -187500.02, 187500.00, -187500.02, -32294.60, -187500.02, 0.00, 0.00, 0.00
9, -187500.02, -187500.02, -187500.02, -187500.02, 187500.00, -187500.02, -33594.63, -187500.02, 0.00, 0.00, 0.00
10, -187500.02, -187500.02, -187500.02, -187500.02, 187500.00, -187500.02, -34336.35, -187500.02, 0.00, 0.00, 0.00
11, -187500.02, -187500.02, -187500.02, -187500.02, 187500.00, -187500.02, -33818.90, -187500.02, 0.00, 0.00, 0.00
12, -187500.02, -187500.02, -187500.02, -187500.02, 187500.00, -187500.02, -33668.61, -187500.02, 0.00, 0.00, 0.00
13, -187500.02, -187500.02, -187500.02, -187500.02, 187500.00, -187500.02, -34857.32, -187500.02, 0.00, 0.00, 0.00
14, -187500.02, -187500.02, -187500.02, -187500.02, 187500.00, -187500.02, -35705.35, -187500.02, 0.00, 0.00, 0.00
15, -187500.02, -187500.02, -187500.02, -187500.02, 187500.00, -187500.02, -35312.09, -187500.02, 0.00, 0.00, 0.00
16, -187500.02, -187500.02, -187500.02, -187500.02, 187500.00, -187500.02, -35104.13, -187500.02, 0.00, 0.00, 0.00
17, -187500.02, -187500.02, -187500.02, -187500.02, 187500.00, -187500.02, -36021.78, -187500.02, 0.00, 0.00, 0.00
18, -187500.02, -187500.02, -187500.02, -187500.02, 187500.00, -187500.02, -37155.32, -187500.02, 0.00, 0.00, 0.00
19, -187500.02, -187500.02, -187500.02, -187500.02, 187500.00, -187500.02, -36800.38, -187500.02, 0.00, 0.00, 0.00
20, -187500.02, -187500.02, -187500.02, -187500.02, 187500.00, -187500.02, -36325.63, -187500.02, 0.00, 0.00, 0.00
21, -187500.02, -187500.02, -187500.02, -187500.02, 187500.00, -187500.02, -37148.22, -187500.02, 0.00, 0.00, 0.00
22, -187500.02, -187500.02, -187500.02, -187500.02, 187500.00, -187500.02, -38238.49, -187500.02, 0.00, 0.00, 0.00
23, -187500.02, -187500.02, -187500.02, -187500.02, 187500.00, -187500.02, -38285.79, -187500.02, 0.00, 0.00, 0.00
24, -187500.02, -187500.02, -187500.02, -187500.02, 187500.00, -187500.02, -37709.36, -187500.02, 0.00, 0.00, 0.00
25, -187500.02, -187500.02, -187500.02, -187500.02, 187500.00, -187500.02, -38266.05, -187500.02, 0.00, 0.00, 0.00
26, -187500.02, -187500.02, -187500.02, -187500.02, 187500.00, -187500.02, -39559.12, -187500.02, 0.00, 0.00, 0.00
27, -187500.02, -187500.02, -187500.02, -187500.02, 187500.00, -187500.02, -39806.58, -187500.02, 0.00, 0.00, 0.00
28, -187500.02, -187500.02, -187500.02, -187500.02, 187500.00, -187500.02, -39037.72, -187500.02, 0.00, 0.00, 0.00
29, -187500.02, -187500.02, -187500.02, -187500.02, 187500.00, -187500.02, -39352.55, -187500.02, 0.00, 0.00, 0.00
30, -187500.02, -187500.02, -187500.02, -187500.02, 187500.00, -187500.02, -40641.84, -187500.02, 0.00, 0.00, 0.00
31, -187500.02, -187500.02, -187500.02, -187500.02, 187500.00, -187500.02, -41176.47, -187500.02, 0.00, 0.00, 0.00
32, -187500.02, -187500.02, -187500.02, -187500.02, 187500.00, -187500.02, -40612.31, -187500.02, 0.00, 0.00, 0.00
33, -187500.02, -187500.02, -187500.02, -187500.02, 187500.00, -187500.02, -40627.02, -187500.02, 0.00, 0.00, 0.00
34, -187500.02, -187500.02, -187500.02, -187500.02, 187500.00, -187500.02, -41772.48, -187500.02, 0.00, 0.00, 0.00
35, -187500.02, -187500.02, -187500.02, -187500.02, 187500.00, -187500.02, -42537.74, -187500.02, 0.00, 0.00, 0.00
36, -187500.02, -187500.02, -187500.02, -187500.02, 187500.00, -187500.02, -42117.37, -187500.02, 0.00, 0.00, 0.00
37, -187500.02, -187500.02, -187500.02, -187500.02, 187500.00, -187500.02, -41907.62, -187500.02, 0.00, 0.00, 0.00
38, -187500.02, -187500.02, -187500.02, -187500.02, 187500.00, -187500.02, -42976.32, -187500.02, 0.00, 0.00, 0.00
39, -187500.02, -187500.02, -187500.02, -187500.02, 187500.00, -187500.02, -43920.33, -187500.02, 0.00, 0.00, 0.00
40, -187500.02, -187500.02, -187500.02, -187500.02, 187500.00, -187500.02, -43628.35, -187500.02, 0.00, 0.00, 0.00
41, -187500.02, -187500.02, -187500.02, -187500.02, 187500.00, -187500.02, -43300.16, -187500.02, 0.00, 0.00, 0.00
42, -187500.02, -187500.02, -187500.02, -187500.02, 187500.00, -187500.02, -44165.48, -187500.02, 0.00, 0.00, 0.00
43, -187500.02, -187500.02, -187500.02, -187500.02, 187500.00, -187500.02, -45308.93, -187500.02, 0.00, 0.00, 0.00
44, -187500.02, -187500.02, -187500.02, -187500.02, 187500.00, -187500.02, -45071.42, -187500.02, 0.00, 0.00, 0.00
45, -187500.02, -187500.02, -187500.02, -187500.02, 187500.00, -187500.02, -44585.52, -187500.02, 0.00, 0.00, 0.00
46, -187500.02, -187500.02, -187500.02, -187500.02, 187500.00, -187500.02, -45300.75, -187500.02, 0.00, 0.00, 0.00
47, -187500.02, -187500.02, -187500.02, -187500.02, 187500.00, -187500.02, -46592.93, -187500.02, 0.00, 0.00, 0.00
48, -187500.02, -187500.02, -187500.02, -187500.02, 187500.00, -187500.02, -46748.89, -187500.02, 0.00, 0.00, 0.00
49, -187500.02, -187500.02, -187500.02, -187500.02, 187500.00, -187500.02, -46054.29, -187500.02, 0.00, 0.00, 0.00
50, -187500.02, -187500.02, -187500.02, -187500.02, 187500.00, -187500.02, -46509.87, -187500.02, 0.00, 0.00, 0.00
51, -187500.02, -187500.02, -187500.02, -187500.02, 187500.00, -187500.02, -47605.35, -187500.02, 0.00, 0.00, 0.00
52, -187500.02, -187500.02, -187500.02, -187500.02, 187500.00, -187500.02, -47806.78, -187500.02, 0.00, 0.00, 0.00
53, -187500.02, -187500.02, -187500.02, -187500.02, 187500.00, -187500.02, -47148.10, -187500.02, 0.00, 0.00, 0.00
54, -187500.02, -187500.02, -187500.02, -187500.02, 187500.00, -187500.02, -47370.50, -187500.02, 0.00, 0.00, 0.00
55, -187500.02, -187500.02, -187500.02, -187500.02, 187500.00, -187500.02, -48579.53, -187500.02, 0.00, 0.00, 0.00
56, -187500.02, -187500.02, -187500.02, -187500.02, 187500.00, -187500.02, -49175.16, -187500.02, 0.00, 0.00, 0.00
57, -187500.02, -187500.02, -187500.02, -187500.02, 187500.00, -187500.02, -48739.36, -187500.02, 0.00, 0.00, 0.00
58, -187500.02, -187500.02, -187500.02, -187500.02, 187500.00, -187500.02, -48846.96, -187500.02, 0.00, 0.00, 0.00
59, -187500.02, -187500.02, -187500.02, -187500.02, 187500.00, -187500.02, -49970.68, -187500.02, 0.00, 0.00, 0.00
60, -187500.02, -187500.02, -187500.02, -187500.02, 187500.00, -187500.02, -50803.93, -187500.02, 0.00, 0.00, 0.00
61, -187500.02, -187500.02, -187500.02, -187500.02, 187500.00, -187500.02, -50315.41, -187500.02, 0.00, 0.00, 0.00
62, -187500.02, -187500.02, -187500.02, -187500.02, 187500.00, -187500.02, -50089.25, -187500.02, 0.00, 0.00, 0.00
63, -187500.02, -187500.02, -187500.02, -187500.02, 187500.00, -187500.02, -51078.36, -187500.02, 0.00, 0.00, 0.00
64, -187500.02, -187500.02, -187500.02, -187500.02, 187500.00, -187500.02, -52131.55, -187500.02, 0.00, 0.00, 0.00
65, -187500.02, -187500.02, -187500.02, -187500.02, 187500.00, -187500.02, -51746.52, -187500.02, 0.00, 0.00, 0.00
66, -187500.02, -187500.02, -187500.02, -187500.02, 187500.00, -187500.02, -51279.68, -187500.02, 0.00, 0.00, 0.00
67, -187500.02, -187500.02, -187500.02, -187500.02, 187500.00, -187500.02, -52148.12, -187500.02, 0.00, 0.00, 0.00
68, -187500.02, -187500.02, -187500.02, -187500.02, 187500.00, -187500.02, -53265.90, -187500.02, 0.00, 0.00, 0.00
69, -187500.02, -187500.02, -187500.02, -187500.02, 187500.00, -187500.02, -53214.07, -187500.02, 0.00, 0.00, 0.00
70, -187500.02, -187500.02, -187500.02, -187500.02, 187500.00, -187500.02, -52527.76, -187500.02, 0.00, 0.00, 0.00
71, -187500.02, -187500.02, -187500.02, -187500.02, 187500.00, -187500.02, -53138.36, -187500.02, 0.00, 0.00, 0.00
72, -187500.02, -187500.02, -187500.02, -187500.02, 187500.00, -187500.02, -54373.23, -187500.02, 0.00, 0.00, 0.00
73, -187500.02, -187500.02, -187500.02, -187500.02, 187500.00, -187500.02, -54450.84, -187500.02, 0.00, 0.00, 0.00
74, -187500.02, -187500.02, -187500.02, -187500.02, 187500.00, -187500.02, -53672.32, -187500.02, 0.00, 0.00, 0.00
75, -187500.02, -187500.02, -187500.02, -187500.02, 187500.00, -187500.02, -53962.86, -187500.02, 0.00, 0.00, 0.00
76, -187500.02, -187500.02, -187500.02, -187500.02, 187500.00, -187500.02, -55445.96, -187500.02, 0.00, 0.00, 0.00
77, -187500.02, -187500.02, -187500.02, -187500.02, 187500.00, -187500.02, -55833.92, -187500.02, 0.00, 0.00, 0.00
78, -187500.02, -187500.02, -187500.02, -187500.02, 187500.00, -187500.02, -54973.87, -187500.02, 0.00, 0.00, 0.00
79, -187500.02, -187500.02, -187500.02, -187500.02, 187500.00, -187500.02, -54856.12, -187500.02, 0.00, 0.00, 0.00
80, -187500.02, -187500.02, -187500.02, -187500.02, 187500.00, -187500.02, -56264.68, -187500.02, 0.00, 0.00, 0.00
81, -187500.02, -187500.02, -187500.02, -187500.02, 187500.00, -187500.02, -56939.91, -187500.02, 0.00, 0.00, 0.00
82, -187500.02, -187500.02, -187500.02, -187500.02, 187500.00, -187500.02, -56202.77, -187500.02, 0.00, 0.00, 0.00
83, -187500.02, -187500.02, -187500.02, -187500.02, 187500.00, -187500.02, -55841.76, -187500.02, 0.00, 0.00, 0.00
84, -187500.02, -187500.02, -187500.02, -187500.02, 187500.00, -187500.02, -57143.77, -187500.02, 0.00, 0.00, 0.00
85, -187500.02, -187500.02, -187500.02, -187500.02, 187500.00, -187500.02, -57932.81, -187500.02, 0.00, 0.00, 0.00
86, -187500.02, -187500.02, -187500.02, -187500.02, 187500.00, -187500.02, -57278.49, -187500.02, 0.00, 0.00, 0.00
87, -187500.02, -187500.02, -187500.02, -187500.02, 187500.00, -187500.02, -56564.93, -187500.02, 0.00, 0.00, 0.00
88, -187500.02, -187500.02, -187500.02, -187500.02, 187500.00, -187500.02, -57653.60, -187500.02, 0.00, 0.00, 0.00
89, -187500.02, -187500.02, -187500.02, -187500.02, 187500.00, -187500.02, -58776.66, -187500.02, 0.00, 0.00, 0.00
90, -187500.02, -187500.02, -187500.02, -187500.02, 187500.00, -187500.02, -58443.08, -187500.02, 0.00, 0.00, 0.00
91, -187500.02, -187500.02, -187500.02, -187500.02, 187500.00, -187500.02, -57796.34, -187500.02, 0.00, 0.00, 0.00
92, -187500.02, -187500.02, -187500.02, -187500.02, 187500.00, -187500.02, -58662.80, -187500.02, 0.00, 0.00, 0.00
93, -187500.02, -187500.02, -187500.02, -187500.02, 187500.00, -187500.02, -59968.07, -187500.02, 0.00, 0.00, 0.00
94, -187500.02, -187500.02, -187500.02, -187500.02, 187500.00, -187500.02, -59908.95, -187500.02, 0.00, 0.00, 0.00
95, -187500.02, -187500.02, -187500.02, -187500.02, 187500.00, -187500.02, -59234.71, -187500.02, 0.00, 0.00, 0.00
96, -187500.02, -187500.02, -187500.02, -187500.02, 187500.00, -187500.02, -59851.35, -187500.02, 0.00, 0.00, 0.00
97, -187500.02, -187500.02, -187500.02, -187500.02, 187500.00, -187500.02, -61305.38, -187500.02, 0.00, 0.00, 0.00
98, -187500.02, -187500.02, -187500.02, -187500.02, 187500.00, -187500.02, -61575.16, -187500.02, 0.00, 0.00, 0.00
99, -187500.02, -187500.02, -187500.02, -187500.02, 187500.00, -187500.02, -60804.50, -187500.02, 0.00, 0.00, 0.00
100, -187500.02, -187500.02, -187500.02, -187500.02, 187500.00, -187500.02, -60894.33, -187500.02, 0.00, 0.00, 0.00
101, -187500.02, -187500.02, -187500.02, -187500.02, 187500.00, -187500.02, -62482.71, -187500.02, 0.00, 0.00, 0.00
102, -187500.02, -187500.02, -187500.02, -187500.02, 187500.00, -187500.02, -63070.96, -187500.02, 0.00, 0.00, 0.00
103, -187500.02, -187500.02, -187500.02, -187500.02, 187500.00, -187500.02, -62186.69, -187500.02, 0.00, 0.00, 0.00
104, -187500.02, -187500.02, -187500.02, -187500.02, 187500.00, -187500.02, -62095.69, -187500.02, 0.00, 0.00, 0.00
105, -187500.02, -187500.02, -187500.02, -187500.02, 187500.00, -187500.02, -63678.62, -187500.02, 0.00, 0.00, 0.00
106, -187500.02, -187500.02, -187500.02, -187500.02, 187500.00, -187500.02, -64380.53, -187500.02, 0.00, 0.00, 0.00
107, -187500.02, -187500.02, -187500.02, -187500.02, 187500.00, -187500.02, -63721.29, -187500.02, 0.00, 0.00, 0.00
108, -187500.02, -187500.02, -187500.02, -187500.02, 187500.00, -187500.02, -63231.00, -187500.02, 0.00, 0.00, 0.00
109, -187500.02, -187500.02, -187500.02, -187500.02, 187500.00, -187500.02, -64721.80, -187500.02, 0.00, 0.00, 0.00
110, -187500.02, -187500.02, -187500.02, -187500.02, 187500.00, -187500.02, -65723.27, -187500.02, 0.00, 0.00, 0.00
111, -187500.02, -187500.02, -187500.02, -187500.02, 187500.00, -187500.02, -65100.08, -187500.02, 0.00, 0.00, 0.00
112, -187500.02, -187500.02, -187500.02, -187500.02, 187500.00, -187500.02, -64342.80, -187500.02, 0.00, 0.00, 0.00
113, -187500.02, -187500.02, -187500.02, -187500.02, 187500.00, -187500.02, -65595.93, -187500.02, 0.00, 0.00, 0.00
114, -187500.02, -187500.02, -187500.02, -187500.02, 187500.00, -187500.02, -66847.74, -187500.02, 0.00, 0.00, 0.00
115, -187500.02, -187500.02, -187500.02, -187500.02, 187500.00, -187500.02, -66522.97, -187500.02, 0.00, 0.00, 0.00
116, -187500.02, -187500.02, -187500.02, -187500.02, 187500.00, -187500.02, -65652.39, -187500.02, 0.00, 0.00, 0.00
117, -187500.02, -187500.02, -187500.02, -187500.02, 187500.00, -187500.02, -66549.32, -187500.02, 0.00, 0.00, 0.00
118, -187500.02, -187500.02, -187500.02, -187500.02, 187500.00, -187500.02, -67971.25, -187500.02, 0.00, 0.00, 0.00
119, -187500.02, -187500.02, -187500.02, -187500.02, 187500.00, -187500.02, -67972.57, -187500.02, 0.00, 0.00, 0.00
120, -187500.02, -187500.02, -187500.02, -187500.02, 187500.00, -187500.02, -66972.40, -187500.02, 0.00, 0.00, 0.00
121, -187500.02, -187500.02, -187500.02, -187500.02, 187500.00, -187500.02, -67517.63, -187500.02, 0.00, 0.00, 0.00
122, -187500.02, -187500.02, -187500.02, -187500.02, 187500.00, -187500.02, -69147.82, -187500.02, 0.00, 0.00, 0.00
123, -187500.02, -187500.02, -187500.02, -187500.02, 187500.00, -187500.02, -69408.96, -187500.02, 0.00, 0.00, 0.00
124, -187500.02, -187500.02, -187500.02, -187500.02, 187500.00, -187500.02, -68357.38, -187500.02, 0.00, 0.00, 0.00
125, -187500.02, -187500.02, -187500.02, -187500.02, 187500.00, -187500.02, -68404.59, -187500.02, 0.00, 0.00, 0.00
126, -187500.02, -187500.02, -187500.02, -187500.02, 187500.00, -187500.02, -70191.78, -187500.02, 0.00, 0.00, 0.00
127, -187500.02, -187500.02, -187500.02, -187500.02, 187500.00, -187500.02, -70657.28, -187500.02, 0.00, 0.00, 0.00
128, -187500.02, -187500.02, -187500.02, -187500.02, 187500.00, -187500.02, -69821.41, -187500.02, 0.00, 0.00, 0.00
129, -187500.02, -187500.02, -187500.02, -187500.02, 187500.00, -187500.02, -69302.19, -187500.02, 0.00, 0.00, 0.00
130, -187500.02, -187500.02, -187500.02, -187500.02, 187500.00, -187500.02, -71036.45, -187500.02, 0.00, 0.00, 0.00
131, -187500.02, -187500.02, -187500.02, -187500.02, 187500.00, -187500.02, -71817.76, -187500.02, 0.00, 0.00, 0.00
132, -187500.02, -187500.02, -187500.02, -187500.02, 187500.00, -187500.02, -71085.18, -187500.02, 0.00, 0.00, 0.00
133, -187500.02, -187500.02, -187500.02, -187500.02, 187500.00, -187500.02, -70264.13, -187500.02, 0.00, 0.00, 0.00
134, -187500.02, -187500.02, -187500.02, -187500.02, 187500.00, -187500.02, -71677.91, -187500.02, 0.00, 0.00, 0.00
135, -187500.02, -187500.02, -187500.02, -187500.02, 187500.00, -187500.02, -72655.37, -187500.02, 0.00, 0.00, 0.00
136, -187500.02, -187500.02, -187500.02, -187500.02, 187500.00, -187500.02, -72140.39, -187500.02, 0.00, 0.00, 0.00
137, -187500.02, -187500.02, -187500.02, -187500.02, 187500.00, -187500.02, -71080.38, -187500.02, 0.00, 0.00, 0.00
138, -187500.02, -187500.02, -187500.02, -187500.02, 187500.00, -187500.02, -72234.13, -187500.02, 0.00, 0.00, 0.00
139, -187500.02, -187500.02, -187500.02, -187500.02, 187500.00, -187500.02, -73504.52, -187500.02, 0.00, 0.00, 0.00
140, -187500.02, -187500.02, -187500.02, -187500.02, 187500.00, -187500.02, -73308.45, -187500.02, 0.00, 0.00, 0.00
141, -187500.02, -187500.02, -187500.02, -187500.02, 187500.00, -187500.02, -72351.61, -187500.02, 0.00, 0.00, 0.00
142, -187500.02, -187500.02, -187500.02, -187500.02, 187500.00, -187500.02, -72946.84, -187500.02, 0.00, 0.00, 0.00
143, -187500.02, -187500.02, -187500.02, -187500.02, 187500.00, -187500.02, -74373.51, -187500.02, 0.00, 0.00, 0.00
144, -187500.02, -187500.02, -187500.02, -187500.02, 187500.00, -187500.02, -74566.06, -187500.02, 0.00, 0.00, 0.00
145, -187500.02, -187500.02, -187500.02, -187500.02, 187500.00, -187500.02, -73826.71, -187500.02, 0.00, 0.00, 0.00
146, -187500.02, -187500.02, -187500.02, -187500.02, 187500.00, -187500.02, -74275.09, -187500.02, 0.00, 0.00, 0.00
147, -187500.02, -187500.02, -187500.02, -187500.02, 187500.00, -187500.02, -75912.73, -187500.02, 0.00, 0.00, 0.00
148, -187500.02, -187500.02, -187500.02, -187500.02, 187500.00, -187500.02, -76244.73, -187500.02, 0.00, 0.00, 0.00
149, -187500.02, -187500.02, -187500.02, -187500.02, 187500.00, -187500.02, -75441.98, -187500.02, 0.00, 0.00, 0.00
150, -187500.02, -187500.02, -187500.02, -187500.02, 187500.00, -187500.02, -75397.64, -187500.02, 0.00, 0.00, 0.00
151, -187500.02, -187500.02, -187500.02, -187500.02, 187500.00, -187500.02, -77027.04, -187500.02, 0.00, 0.00, 0.00
152, -187500.02, -187500.02, -187500.02, -187500.02, 187500.00, -187500.02, -77638.71, -187500.02, 0.00, 0.00, 0.00
153, -187500.02, -187500.02, -187500.02, -187500.02, 187500.00, -187500.02, -76829.60, -187500.02, 0.00, 0.00, 0.00
154, -187500.02, -187500.02, -187500.02, -187500.02, 187500.00, -187500.02, -76371.86, -187500.02, 0.00, 0.00, 0.00
155, -187500.02, -187500.02, -187500.02, -187500.02, 187500.00, -187500.02, -78066.15, -187500.02, 0.00, 0.00, 0.00
156, -187500.02, -187500.02, -187500.02, -187500.02, 187500.00, -187500.02, -79104.20, -187500.02, 0.00, 0.00, 0.00
157, -187500.02, -187500.02, -187500.02, -187500.02, 187500.00, -187500.02, -78432.13, -187500.02, 0.00, 0.00, 0.00
158, -187500.02, -187500.02, -187500.02, -187500.02, 187500.00, -187500.02, -77553.11, -187500.02, 0.00, 0.00, 0.00
159, -187500.02, -187500.02, -187500.02, -187500.02, 187500.00, -187500.02, -78983.44, -187500.02, 0.00, 0.00, 0.00
160, -187500.02, -187500.02, -187500.02, -187500.02, 187500.00, -187500.02, -80148.80, -187500.02, 0.00, 0.00, 0.00
161, -187500.02, -187500.02, -187500.02, -187500.02, 187500.00, -187500.02, -79835.20, -187500.02, 0.00, 0.00, 0.00
162, -187500.02, -187500.02, -187500.02, -187500.02, 187500.00, -187500.02, -78776.55, -187500.02, 0.00, 0.00, 0.00
163, -187500.02, -187500.02, -187500.02, -187500.02, 187500.00, -187500.02, -79923.60, -187500.02, 0.00, 0.00, 0.00
164, -187500.02, -187500.02, -187500.02, -187500.02, 187500.00, -187500.02, -81395.02, -187500.02, 0.00, 0.00, 0.00
165, -187500.02, -187500.02, -187500.02, -187500.02, 187500.00, -187500.02, -81258.83, -187500.02, 0.00, 0.00, 0.00
166, -187500.02, -187500.02, -187500.02, -187500.02, 187500.00, -187500.02, -80117.97, -187500.02, 0.00, 0.00, 0.00
167, -187500.02, -187500.02, -187500.02, -187500.02, 187500.00, -187500.02, -80754.26, -187500.02, 0.00, 0.00, 0.00
168, -187500.02, -187500.02, -187500.02, -187500.02, 187500.00, -187500.02, -82405.65, -187500.02, 0.00, 0.00, 0.00
169, -187500.02, -187500.02, -187500.02, -187500.02, 187500.00, -187500.02, -82516.52, -187500.02, 0.00, 0.00, 0.00
170, -187500.02, -187500.02, -187500.02, -187500.02, 187500.00, -187500.02, -81416.43, -187500.02, 0.00, 0.00, 0.00
171, -187500.02, -187500.02, -187500.02, -187500.02, 187500.00, -187500.02, -81630.52, -187500.02, 0.00, 0.00, 0.00
172, -187500.02, -187500.02, -187500.02, -187500.02, 187500.00, -187500.02, -83425.29, -187500.02, 0.00, 0.00, 0.00
173, -187500.02, -187500.02, -187500.02, -187500.02, 187500.00, -187500.02, -83771.81, -187500.02, 0.00, 0.00, 0.00
174, -187500.02, -187500.02, -187500.02, -187500.02, 187500.00, -187500.02, -82656.37, -187500.02, 0.00, 0.00, 0.00
175, -187500.02, -187500.02, -187500.02, -187500.02, 187500.00, -187500.02, -85140.61, -187500.02, 0.00, 0.00, 0.00
176, -187500.02, -187500.02, -187500.02, -187500.02, 187500.00, -187500.02, -85897.21, -187500.02, 0.00, 0.00, 0.00
177, -187500.02, -187500.02, -187500.02, -187500.02, 187500.00, -187500.02, -85048.88, -187500.02, 0.00, 0.00, 0.00
178, -187500.02, -187500.02, -187500.02, -187500.02, 187500.00, -187500.02, -84188.98, -187500.02, 0.00, 0.00, 0.00
179, -187500.02, -187500.02, -187500.02, -187500.02, 187500.00, -187500.02, -85813.93, -187500.02, 0.00, 0.00, 0.00
180, -187500.02, -187500.02, -187500.02, -187500.02, 187500.00, -187500.02, -86727.67, -187500.02, 0.00, 0.00, 0.00
181, -187500.02, -187500.02, -187500.02, -187500.02, 187500.00, -187500.02, -86032.38, -187500.02, 0.00, 0.00, 0.00
182, -187500.02, -187500.02, -187500.02, -187500.02, 187500.00, -187500.02, -84952.41, -187500.02, 0.00, 0.00, 0.00
183, -187500.02, -187500.02, -187500.02, -187500.02, 187500.00, -187500.02, -86228.02, -187500.02, 0.00, 0.00, 0.00
184, -187500.02, -187500.02, -187500.02, -187500.02, 187500.00, -187500.02, -87484.99, -187500.02, 0.00, 0.00, 0.00
185, -187500.02, -187500.02, -187500.02, -187500.02, 187500.00, -187500.02, -87191.11, -187500.02, 0.00, 0.00, 0.00
186, -187500.02, -187500.02, -187500.02, -187500.02, 187500.00, -187500.02, -86115.59, -187500.02, 0.00, 0.00, 0.00
187, -187500.02, -187500.02, -187500.02, -187500.02, 187500.00, -187500.02, -86937.76, -187500.02, 0.00, 0.00, 0.00
188, -187500.02, -187500.02, -187500.02, -187500.02, 187500.00, -187500.02, -88495.23, -187500.02, 0.00, 0.00, 0.00
189, -187500.02, -187500.02, -187500.02, -187500.02, 187500.00, -187500.02, -88612.93, -187500.02, 0.00, 0.00, 0.00
190, -187500.02, -187500.02, -187500.02, -187500.02, 187500.00, -187500.02, -87707.73, -187500.02, 0.00, 0.00, 0.00
191, -187500.02, -187500.02, -187500.02, -187500.02, 187500.00, -187500.02, -88129.26, -187500.02, 0.00, 0.00, 0.00
192, -187500.02, -187500.02, -187500.02, -187500.02, 187500.00, -187500.02, -89649.63, -187500.02, 0.00, 0.00, 0.00
193, -187500.02, -187500.02, -187500.02, -187500.02, 187500.00, -187500.02, -90097.82, -187500.02, 0.00, 0.00, 0.00
194, -187500.02, -187500.02, -187500.02, -187500.02, 187500.00, -187500.02, -89180.06, -187500.02, 0.00, 0.00, 0.00
195, -187500.02, -187500.02, -187500.02, -187500.02, 187500.00, -187500.02, -89131.02, -187500.02, 0.00, 0.00, 0.00
196, -187500.02, -187500.02, -187500.02, -187500.02, 187500.00, -187500.02, -90872.22, -187500.02, 0.00, 0.00, 0.00
197, -187500.02, -187500.02, -187500.02, -187500.02, 187500.00, -187500.02, -91493.82, -187500.02, 0.00, 0.00, 0.00
198, -187500.02, -187500.02, -187500.02, -187500.02, 187500.00, -187500.02, -90597.12, -187500.02, 0.00, 0.00, 0.00
199, -187500.02, -187500.02, -187500.02, -187500.02, 187500.00, -187500.02, -90098.90, -187500.02, 0.00, 0.00, 0.00
200, -187500.02, -187500.02, -187500.02, -187500.02, 187500.00, -187500.02, -91806.44, -187500.02, 0.00, 0.00, 0.00
201, -187500.02, -187500.02, -187500.02, -187500.02, 187500.00, -187500.02, -92657.16, -187500.02, 0.00, 0.00, 0.00
202, -187500.02, -187500.02, -187500.02, -187500.02, 187500.00, -187500.02, -92004.38, -187500.02, 0.00, 0.00, 0.00
203, -187500.02, -187500.02, -187500.02, -187500.02, 187500.00, -187500.02, -91223.34, -187500.02, 0.00, 0.00, 0.00
204, -187500.02, -187500.02, -187500.02, -187500.02, 187500.00, -187500.02, -92827.13, -187500.02, 0.00, 0.00, 0.00
205, -187500.02, -187500.02, -187500.02, -187500.02, 187500.00, -187500.02, -93965.26, -187500.02, 0.00, 0.00, 0.00
206, -187500.02, -187500.02, -187500.02, -187500.02, 187500.00, -187500.02, -93523.63, -187500.02, 0.00, 0.00, 0.00
207, -187500.02, -187500.02, -187500.02, -187500.02, 187500.00, -187500.02, -92419.07, -187500.02, 0.00, 0.00, 0.00
208, -187500.02, -187500.02, -187500.02, -187500.02, 187500.00, -187500.02, -93642.48, -187500.02, 0.00, 0.00, 0.00
209, -187500.02, -187500.02, -187500.02, -187500.02, 187500.00, -187500.02, -95202.88, -187500.02, 0.00, 0.00, 0.00
210, -187500.02, -187500.02, -187500.02, -187500.02, 187500.00, -187500.02, -95051.82, -187500.02, 0.00, 0.00, 0.00
211, -187500.02, -187500.02, -187500.02, -187500.02, 187500.00, -187500.02, -93720.15, -187500.02, 0.00, 0.00, 0.00
212, -187500.02, -187500.02, -187500.02, -187500.02, 187500.00, -187500.02, -94473.87, -187500.02, 0.00, 0.00, 0.00
213, -187500.02, -187500.02, -187500.02, -187500.02, 187500.00, -187500.02, -96207.20, -187500.02, 0.00, 0.00, 0.00
214, -187500.02, -187500.02, -187500.02, -187500.02, 187500.00, -187500.02, -96325.17, -187500.02, 0.00, 0.00, 0.00
215, -187500.02, -187500.02, -187500.02, -187500.02, 187500.00, -187500.02, -95067.94, -187500.02, 0.00, 0.00, 0.00
216, -187500.02, -187500.02, -187500.02, -187500.02, 187500.00, -187500.02, -95341.16, -187500.02, 0.00, 0.00, 0.00
217, -187500.02, -187500.02, -187500.02, -187500.02, 187500.00, -187500.02, -97174.90, -187500.02, 0.00, 0.00, 0.00
218, -187500.02, -187500.02, -187500.02, -187500.02, 187500.00, -187500.02, -97515.23, -187500.02, 0.00, 0.00, 0.00
219, -187500.02, -187500.02, -187500.02, -187500.02, 187500.00, -187500.02, -96553.52, -187500.02, 0.00, 0.00, 0.00
220, -187500.02, -187500.02, -187500.02, -187500.02, 187500.00, -187500.02, -96302.06, -187500.02, 0.00, 0.00, 0.00
221, -187500.02, -187500.02, -187500.02, -187500.02, 187500.00, -187500.02, -98179.41, -187500.02, 0.00, 0.00, 0.00
222, -187500.02, -187500.02, -187500.02, -187500.02, 187500.00, -187500.02, -98765.41, -187500.02, 0.00, 0.00, 0.00
223, -187500.02, -187500.02, -187500.02, -187500.02, 187500.00, -187500.02, -97868.48, -187500.02, 0.00, 0.00, 0.00
224, -187500.02, -187500.02, -187500.02, -187500.02, 187500.00, -187500.02, -97189.59, -187500.02, 0.00, 0.00, 0.00
225, -187500.02, -187500.02, -187500.02, -187500.02, 187500.00, -187500.02, -98969.97, -187500.02, 0.00, 0.00, 0.00
226, -187500.02, -187500.02, -187500.02, -187500.02, 187500.00, -187500.02, -99950.63, -187500.02, 0.00, 0.00, 0.00
227, -187500.02, -187500.02, -187500.02, -187500.02, 187500.00, -187500.02, -99224.06, -187500.02, 0.00, 0.00, 0.00
228, -187500.02, -187500.02, -187500.02, -187500.02, 187500.00, -187500.02, -98210.37, -187500.02, 0.00, 0.00, 0.00
229, -187500.02, -187500.02, -187500.02, -187500.02, 187500.00, -187500.02, -99762.78, -187500.02, 0.00, 0.00, 0.00
230, -187500.02, -187500.02, -187500.02, -187500.02, 187500.00, -187500.02, -101021.63, -187500.02, 0.00, 0.00, 0.00
231, -187500.02, -187500.02, -187500.02, -187500.02, 187500.00, -187500.02, -100505.89, -187500.02, 0.00, 0.00, 0.00
232, -187500.02, -187500.02, -187500.02, -187500.02, 187500.00, -187500.02, -99251.76, -187500.02, 0.00, 0.00, 0.00
233, -187500.02, -187500.02, -187500.02, -187500.02, 187500.00, -187500.02, -100264.34, -187500.02, 0.00, 0.00, 0.00
234, -187500.02, -187500.02, -187500.02, -187500.02, 187500.00, -187500.02, -101742.32, -187500.02, 0.00, 0.00, 0.00
235, -187500.02, -187500.02, -187500.02, -187500.02, 187500.00, -187500.02, -101487.42, -187500.02, 0.00, 0.00, 0.00
236, -187500.02, -187500.02, -187500.02, -187500.02, 187500.00, -187500.02, -100041.47, -187500.02, 0.00, 0.00, 0.00
237, -187500.02, -187500.02, -187500.02, -187500.02, 187500.00, -187500.02, -100575.91, -187500.02, 0.00, 0.00, 0.00
238, -187500.02, -187500.02, -187500.02, -187500.02, 187500.00, -187500.02, -102279.81, -187500.02, 0.00, 0.00, 0.00
239, -187500.02, -187500.02, -187500.02, -187500.02, 187500.00, -187500.02, -102353.35, -187500.02, 0.00, 0.00, 0.00
240, -187500.02, -187500.02, -187500.02, -187500.02, 187500.00, -187500.02, -101262.25, -187500.02, 0.00, 0.00, 0.00
241, -187500.02, -187500.02, -187500.02, -187500.02, 187500.00, -187500.02, -101258.25, -187500.02, 0.00, 0.00, 0.00
242, -187500.02, -187500.02, -187500.02, -187500.02, 187500.00, -187500.02, -102972.23, -187500.02, 0.00, 0.00, 0.00
243, -187500.02, -187500.02, -187500.02, -187500.02, 187500.00, -187500.02, -103574.36, -187500.02, 0.00, 0.00, 0.00
244, -187500.02, -187500.02, -187500.02, -187500.02, 187500.00, -187500.02, -102743.74, -187500.02, 0.00, 0.00, 0.00
245, -187500.02, -187500.02, -187500.02, -187500.02, 187500.00, -187500.02, -102378.85, -187500.02, 0.00, 0.00, 0.00
246, -187500.02, -187500.02, -187500.02, -187500.02, 187500.00, -187500.02, -104114.45, -187500.02, 0.00, 0.00, 0.00
247, -187500.02, -187500.02, -187500.02, -187500.02, 187500.00, -187500.02, -104796.87, -187500.02, 0.00, 0.00, 0.00
248, -187500.02, -187500.02, -187500.02, -187500.02, 187500.00, -187500.02, -104036.33, -187500.02, 0.00, 0.00, 0.00
249, -187500.02, -187500.02, -187500.02, -187500.02, 187500.00, -187500.02, -103290.45, -187500.02, 0.00, 0.00, 0.00
250, -187500.02, -187500.02, -187500.02, -187500.02, 187500.00, -187500.02, -104904.02, -187500.02, 0.00, 0.00, 0.00
251, -187500.02, -187500.02, -187500.02, -187500.02, 187500.00, -187500.02, -106001.94, -187500.02, 0.00, 0.00, 0.00
252, -187500.02, -187500.02, -187500.02, -187500.02, 187500.00, -187500.02, -105426.56, -187500.02, 0.00, 0.00, 0.00
253, -187500.02, -187500.02, -187500.02, -187500.02, 187500.00, -187500.02, -104379.83, -187500.02, 0.00, 0.00, 0.00
254, -187500.02, -187500.02, -187500.02, -187500.02, 187500.00, -187500.02, -105694.76, -187500.02, 0.00, 0.00, 0.00
255, -187500.02, -187500.02, -187500.02, -187500.02, 187500.00, -187500.02, -107095.23, -187500.02, 0.00, 0.00, 0.00
0, -187500.02, -187500.02, -187500.02, -187500.02, 187500.00, -187500.02, -106761.92, -187500.02, 0.00, 0.00, 0.00
1, -187500.02, -187500.02, -187500.02, -187500.02, 187500.00, -187500.02, -105469.74, -187500.02, 0.00, 0.00, 0.00
2, -187500.02, -187500.02, -187500.02, -187500.02, 187500.00, -187500.02, -106384.98, -187500.02, 0.00, 0.00, 0.00
3, -187500.02, -187500.02, -187500.02, -187500.02, 187500.00, -187500.02, -108080.00, -187500.02, 0.00, 0.00, 0.00
4, -187500.02, -187500.02, -187500.02, -187500.02, 187500.00, -187500.02, -107974.41, -187500.02, 0.00, 0.00, 0.00
5, -187500.02, -187500.02, -187500.02, -187500.02, 187500.00, -187500.02, -106714.11, -187500.02, 0.00, 0.00, 0.00
6, -187500.02, -187500.02, -187500.02, -187500.02, 187500.00, -187500.02, -107096.73, -187500.02, 0.00, 0.00, 0.00
7, -187500.02, -187500.02, -187500.02, -187500.02, 187500.00, -187500.02, -109000.71, -187500.02, 0.00, 0.00, 0.00
8, -187500.02, -187500.02, -187500.02, -187500.02, 187500.00, -187500.02, -109281.45, -187500.02, 0.00, 0.00, 0.00
9, -187500.02, -187500.02, -187500.02, -187500.02, 187500.00, -187500.02, -108083.84, -187500.02, 0.00, 0.00, 0.00
10, -187500.02, -187500.02, -187500.02, -187500.02, 187500.00, -187500.02, -107991.51, -187500.02, 0.00, 0.00, 0.00
11, -187500.02, -187500.02, -187500.02, -187500.02, 187500.00, -187500.02, -110033.43, -187500.02, 0.00, 0.00, 0.00
12, -187500.02, -187500.02, -187500.02, -187500.02, 187500.00, -187500.02, -110617.48, -187500.02, 0.00, 0.00, 0.00
13, -187500.02, -187500.02, -187500.02, -187500.02, 187500.00, -187500.02, -109561.56, -187500.02, 0.00, 0.00, 0.00
14, -187500.02, -187500.02, -187500.02, -187500.02, 187500.00, -187500.02, -108939.25, -187500.02, 0.00, 0.00, 0.00
15, -187500.02, -187500.02, -187500.02, -187500.02, 187500.00, -187500.02, -110882.93, -187500.02, 0.00, 0.00, 0.00
16, -187500.02, -187500.02, -187500.02, -187500.02, 187500.00, -187500.02, -111808.56, -187500.02, 0.00, 0.00, 0.00
17, -187500.02, -187500.02, -187500.02, -187500.02, 187500.00, -187500.02, -110953.66, -187500.02, 0.00, 0.00, 0.00
18, -187500.02, -187500.02, -187500.02, -187500.02, 187500.00, -187500.02, -109986.76, -187500.02, 0.00, 0.00, 0.00
19, -187500.02, -187500.02, -187500.02, -187500.02, 187500.00, -187500.02, -111629.39, -187500.02, 0.00, 0.00, 0.00
20, -187500.02, -187500.02, -187500.02, -187500.02, 187500.00, -187500.02, -112902.39, -187500.02, 0.00, 0.00, 0.00
21, -187500.02, -187500.02, -187500.02, -187500.02, 187500.00, -187500.02, -112546.22, -187500.02, 0.00, 0.00, 0.00
22, -187500.02, -187500.02, -187500.02, -187500.02, 187500.00, -187500.02, -111212.77, -187500.02, 0.00, 0.00, 0.00
23, -187500.02, -187500.02, -187500.02, -187500.02, 187500.00, -187500.02, -112399.03, -187500.02, 0.00, 0.00, 0.00
24, -187500.02, -187500.02, -187500.02, -187500.02, 187500.00, -187500.02, -113932.76, -187500.02, 0.00, 0.00, 0.00
25, -187500.02, -187500.02, -187500.02, -187500.02, 187500.00, -187500.02, -113640.20, -187500.02, 0.00, 0.00, 0.00
26, -187500.02, -187500.02, -187500.02, -187500.02, 187500.00, -187500.02, -112179.94, -187500.02, 0.00, 0.00, 0.00
27, -187500.02, -187500.02, -187500.02, -187500.02, 187500.00, -187500.02, -112832.83, -187500.02, 0.00, 0.00, 0.00
28, -187500.02, -187500.02, -187500.02, -187500.02, 187500.00, -187500.02, -114553.55, -187500.02, 0.00, 0.00, 0.00
29, -187500.02, -187500.02, -187500.02, -187500.02, 187500.00, -187500.02, -114596.88, -187500.02, 0.00, 0.00, 0.00
30, -187500.02, -187500.02, -187500.02, -187500.02, 187500.00, -187500.02, -113513.94, -187500.02, 0.00, 0.00, 0.00
31, -187500.02, -187500.02, -187500.02, -187500.02, 187500.00, -187500.02, -113674.09, -187500.02, 0.00, 0.00, 0.00
32, -187500.02, -187500.02, -187500.02, -187500.02, 187500.00, -187500.02, -115307.10, -187500.02, 0.00, 0.00, 0.00
33, -187500.02, -187500.02, -187500.02, -187500.02, 187500.00, -187500.02, -115811.42, -187500.02, 0.00, 0.00, 0.00
34, -187500.02, -187500.02, -187500.02, -187500.02, 187500.00, -187500.02, -114977.26, -187500.02, 0.00, 0.00, 0.00
35, -187500.02, -187500.02, -187500.02, -187500.02, 187500.00, -187500.02, -114831.79, -187500.02, 0.00, 0.00, 0.00
36, -187500.02, -187500.02, -187500.02, -187500.02, 187500.00, -187500.02, -116610.12, -187500.02, 0.00, 0.00, 0.00
37, -187500.02, -187500.02, -187500.02, -187500.02, 187500.00, -187500.02, -117252.53, -187500.02, 0.00, 0.00, 0.00
38, -187500.02, -187500.02, -187500.02, -187500.02, 187500.00, -187500.02, -116386.63, -187500.02, 0.00, 0.00, 0.00
39, -187500.02, -187500.02, -187500.02, -187500.02, 187500.00, -187500.02, -115684.11, -187500.02, 0.00, 0.00, 0.00
40, -187500.02, -187500.02, -187500.02, -187500.02, 187500.00, -187500.02, -117325.27, -187500.02, 0.00, 0.00, 0.00
41, -187500.02, -187500.02, -187500.02, -187500.02, 187500.00, -187500.02, -118264.44, -187500.02, 0.00, 0.00, 0.00
42, -187500.02, -187500.02, -187500.02, -187500.02, 187500.00, -187500.02, -117578.69, -187500.02, 0.00, 0.00, 0.00
43, -187500.02, -187500.02, -187500.02, -187500.02, 187500.00, -187500.02, -116621.16, -187500.02, 0.00, 0.00, 0.00
44, -187500.02, -187500.02, -187500.02, -187500.02, 187500.00, -187500.02, -118099.73, -187500.02, 0.00, 0.00, 0.00
45, -187500.02, -187500.02, -187500.02, -187500.02, 187500.00, -187500.02, -119386.38, -187500.02, 0.00, 0.00, 0.00
46, -187500.02, -187500.02, -187500.02, -187500.02, 187500.00, -187500.02, -118968.97, -187500.02, 0.00, 0.00, 0.00
47, -187500.02, -187500.02, -187500.02, -187500.02, 187500.00, -187500.02, -117680.26, -187500.02, 0.00, 0.00, 0.00
48, -187500.02, -187500.02, -187500.02, -187500.02, 187500.00, -187500.02, -118690.77, -187500.02, 0.00, 0.00, 0.00
49, -187500.02, -187500.02, -187500.02, -187500.02, 187500.00, -187500.02, -120236.20, -187500.02, 0.00, 0.00, 0.00
50, -187500.02, -187500.02, -187500.02, -187500.02, 187500.00, -187500.02, -120095.45, -187500.02, 0.00, 0.00, 0.00
51, -187500.02, -187500.02, -187500.02, -187500.02, 187500.00, -187500.02, -118676.20, -187500.02, 0.00, 0.00, 0.00
52, -187500.02, -187500.02, -187500.02, -187500.02, 187500.00, -187500.02, -119242.13, -187500.02, 0.00, 0.00, 0.00
53, -187500.02, -187500.02, -187500.02, -187500.02, 187500.00, -187500.02, -121001.97, -187500.02, 0.00, 0.00, 0.00
54, -187500.02, -187500.02, -187500.02, -187500.02, 187500.00, -187500.02, -121219.67, -187500.02, 0.00, 0.00, 0.00
55, -187500.02, -187500.02, -187500.02, -187500.02, 187500.00, -187500.02, -119816.73, -187500.02, 0.00, 0.00, 0.00
56, -187500.02, -187500.02, -187500.02, -187500.02, 187500.00, -187500.02, -119854.88, -187500.02, 0.00, 0.00, 0.00
57, -187500.02, -187500.02, -187500.02, -187500.02, 187500.00, -187500.02, -121829.19, -187500.02, 0.00, 0.00, 0.00
58, -187500.02, -187500.02, -187500.02, -187500.02, 187500.00, -187500.02, -122343.03, -187500.02, 0.00, 0.00, 0.00
59, -187500.02, -187500.02, -187500.02, -187500.02, 187500.00, -187500.02, -121094.10, -187500.02, 0.00, 0.00, 0.00
60, -187500.02, -187500.02, -187500.02, -187500.02, 187500.00, -187500.02, -120587.63, -187500.02, 0.00, 0.00, 0.00
61, -187500.02, -187500.02, -187500.02, -187500.02, 187500.00, -187500.02, -122579.71, -187500.02, 0.00, 0.00, 0.00
62, -187500.02, -187500.02, -187500.02, -187500.02, 187500.00, -187500.02, -123296.82, -187500.02, 0.00, 0.00, 0.00
63, -187500.02, -187500.02, -187500.02, -187500.02, 187500.00, -187500.02, -122459.80, -187500.02, 0.00, 0.00, 0.00
64, -187500.02, -187500.02, -187500.02, -187500.02, 187500.00, -187500.02, -121506.83, -187500.02, 0.00, 0.00, 0.00
65, -187500.02, -187500.02, -187500.02, -187500.02, 187500.00, -187500.02, -123218.73, -187500.02, 0.00, 0.00, 0.00
66, -187500.02, -187500.02, -187500.02, -187500.02, 187500.00, -187500.02, -124427.98, -187500.02, 0.00, 0.00, 0.00
67, -187500.02, -187500.02, -187500.02, -187500.02, 187500.00, -187500.02, -123767.80, -187500.02, 0.00, 0.00, 0.00
68, -187500.02, -187500.02, -187500.02, -187500.02, 187500.00, -187500.02, -122488.78, -187500.02, 0.00, 0.00, 0.00
69, -187500.02, -187500.02, -187500.02, -187500.02, 187500.00, -187500.02, -123956.53, -187500.02, 0.00, 0.00, 0.00
70, -187500.02, -187500.02, -187500.02, -187500.02, 187500.00, -187500.02, -125472.66, -187500.02, 0.00, 0.00, 0.00
71, -187500.02, -187500.02, -187500.02, -187500.02, 187500.00, -187500.02, -124999.18, -187500.02, 0.00, 0.00, 0.00
72, -187500.02, -187500.02, -187500.02, -187500.02, 187500.00, -187500.02, -123571.88, -187500.02, 0.00, 0.00, 0.00
73, -187500.02, -187500.02, -187500.02, -187500.02, 187500.00, -187500.02, -124469.66, -187500.02, 0.00, 0.00, 0.00
74, -187500.02, -187500.02, -187500.02, -187500.02, 187500.00, -187500.02, -126070.98, -187500.02, 0.00, 0.00, 0.00
75, -187500.02, -187500.02, -187500.02, -187500.02, 187500.00, -187500.02, -126100.18, -187500.02, 0.00, 0.00, 0.00
76, -187500.02, -187500.02, -187500.02, -187500.02, 187500.00, -187500.02, -124585.52, -187500.02, 0.00, 0.00, 0.00
77, -187500.02, -187500.02, -187500.02, -187500.02, 187500.00, -187500.02, -124939.72, -187500.02, 0.00, 0.00, 0.00
78, -187500.02, -187500.02, -187500.02, -187500.02, 187500.00, -187500.02, -126832.31, -187500.02, 0.00, 0.00, 0.00
79, -187500.02, -187500.02, -187500.02, -187500.02, 187500.00, -187500.02, -127053.88, -187500.02, 0.00, 0.00, 0.00
80, -187500.02, -187500.02, -187500.02, -187500.02, 187500.00, -187500.02, -125911.93, -187500.02, 0.00, 0.00, 0.00
81, -187500.02, -187500.02, -187500.02, -187500.02, 187500.00, -187500.02, -125871.95, -187500.02, 0.00, 0.00, 0.00
82, -187500.02, -187500.02, -187500.02, -187500.02, 187500.00, -187500.02, -127584.24, -187500.02, 0.00, 0.00, 0.00
83, -187500.02, -187500.02, -187500.02, -187500.02, 187500.00, -187500.02, -128210.32, -187500.02, 0.00, 0.00, 0.00
84, -187500.02, -187500.02, -187500.02, -187500.02, 187500.00, -187500.02, -127392.20, -187500.02, 0.00, 0.00, 0.00
85, -187500.02, -187500.02, -187500.02, -187500.02, 187500.00, -187500.02, -126936.87, -187500.02, 0.00, 0.00, 0.00
86, -187500.02, -187500.02, -187500.02, -187500.02, 187500.00, -187500.02, -128647.07, -187500.02, 0.00, 0.00, 0.00
87, -187500.02, -187500.02, -187500.02, -187500.02, 187500.00, -187500.02, -129611.30, -187500.02, 0.00, 0.00, 0.00
88, -187500.02, -187500.02, -187500.02, -187500.02, 187500.00, -187500.02, -128993.90, -187500.02, 0.00, 0.00, 0.00
89, -187500.02, -187500.02, -187500.02, -187500.02, 187500.00, -187500.02, -128057.25, -187500.02, 0.00, 0.00, 0.00
90, -187500.02, -187500.02, -187500.02, -187500.02, 187500.00, -187500.02, -129617.20, -187500.02, 0.00, 0.00, 0.00
91, -187500.02, -187500.02, -187500.02, -187500.02, 187500.00, -187500.02, -130878.34, -187500.02, 0.00, 0.00, 0.00
92, -187500.02, -187500.02, -187500.02, -187500.02, 187500.00, -187500.02, -130305.28, -187500.02, 0.00, 0.00, 0.00
93, -187500.02, -187500.02, -187500.02, -187500.02, 187500.00, -187500.02, -129166.05, -187500.02, 0.00, 0.00, 0.00
94, -187500.02, -187500.02, -187500.02, -187500.02, 187500.00, -187500.02, -130387.60, -187500.02, 0.00, 0.00, 0.00
95, -187500.02, -187500.02, -187500.02, -187500.02, 187500.00, -187500.02, -131856.89, -187500.02, 0.00, 0.00, 0.00
96, -187500.02, -187500.02, -187500.02, -187500.02, 187500.00, -187500.02, -131610.11, -187500.02, 0.00, 0.00, 0.00
97, -187500.02, -187500.02, -187500.02, -187500.02, 187500.00, -187500.02, -130338.18, -187500.02, 0.00, 0.00, 0.00
98, -187500.02, -187500.02, -187500.02, -187500.02, 187500.00, -187500.02, -131069.62, -187500.02, 0.00, 0.00, 0.00
99, -187500.02, -187500.02, -187500.02, -187500.02, 187500.00, -187500.02, -132861.42, -187500.02, 0.00, 0.00, 0.00
100, -187500.02, -187500.02, -187500.02, -187500.02, 187500.00, -187500.02, -132930.31, -187500.02, 0.00, 0.00, 0.00
101, -187500.02, -187500.02, -187500.02, -187500.02, 187500.00, -187500.02, -131486.56, -187500.02, 0.00, 0.00, 0.00
102, -187500.02, -187500.02, -187500.02, -187500.02, 187500.00, -187500.02, -131668.56, -187500.02, 0.00, 0.00, 0.00
103, -187500.02, -187500.02, -187500.02, -187500.02, 187500.00, -187500.02, -133512.42, -187500.02, 0.00, 0.00, 0.00
104, -187500.02, -187500.02, -187500.02, -187500.02, 187500.00, -187500.02, -133849.38, -187500.02, 0.00, 0.00, 0.00
105, -187500.02, -187500.02, -187500.02, -187500.02, 187500.00, -187500.02, -132735.77, -187500.02, 0.00, 0.00, 0.00
106, -187500.02, -187500.02, -187500.02, -187500.02, 187500.00, -187500.02, -132347.33, -187500.02, 0.00, 0.00, 0.00
107, -187500.02, -187500.02, -187500.02, -187500.02, 187500.00, -187500.02, -134327.03, -187500.02, 0.00, 0.00, 0.00
108, -187500.02, -187500.02, -187500.02, -187500.02, 187500.00, -187500.02, -134969.28, -187500.02, 0.00, 0.00, 0.00
109, -187500.02, -187500.02, -187500.02, -187500.02, 187500.00, -187500.02, -133893.94, -187500.02, 0.00, 0.00, 0.00
110, -187500.02, -187500.02, -187500.02, -187500.02, 187500.00, -187500.02, -133078.13, -187500.02, 0.00, 0.00, 0.00
111, -187500.02, -187500.02, -187500.02, -187500.02, 187500.00, -187500.02, -134971.58, -187500.02, 0.00, 0.00, 0.00
112, -187500.02, -187500.02, -187500.02, -187500.02, 187500.00, -187500.02, -136001.84, -187500.02, 0.00, 0.00, 0.00
113, -187500.02, -187500.02, -187500.02, -187500.02, 187500.00, -187500.02, -135210.64, -187500.02, 0.00, 0.00, 0.00
114, -187500.02, -187500.02, -187500.02, -187500.02, 187500.00, -187500.02, -134081.56, -187500.02, 0.00, 0.00, 0.00
115, -187500.02, -187500.02, -187500.02, -187500.02, 187500.00, -187500.02, -135691.52, -187500.02, 0.00, 0.00, 0.00
116, -187500.02, -187500.02, -187500.02, -187500.02, 187500.00, -187500.02, -137106.84, -187500.02, 0.00, 0.00, 0.00
117, -187500.02, -187500.02, -187500.02, -187500.02, 187500.00, -187500.02, -136603.78, -187500.02, 0.00, 0.00, 0.00
118, -187500.02, -187500.02, -187500.02, -187500.02, 187500.00, -187500.02, -135265.88, -187500.02, 0.00, 0.00, 0.00
119, -187500.02, -187500.02, -187500.02, -187500.02, 187500.00, -187500.02, -136397.77, -187500.02, 0.00, 0.00, 0.00
120, -187500.02, -187500.02, -187500.02, -187500.02, 187500.00, -187500.02, -138103.17, -187500.02, 0.00, 0.00, 0.00
121, -187500.02, -187500.02, -187500.02, -187500.02, 187500.00, -187500.02, -137982.88, -187500.02, 0.00, 0.00, 0.00
122, -187500.02, -187500.02, -187500.02, -187500.02, 187500.00, -187500.02, -136514.50, -187500.02, 0.00, 0.00, 0.00
123, -187500.02, -187500.02, -187500.02, -187500.02, 187500.00, -187500.02, -137118.22, -187500.02, 0.00, 0.00, 0.00
124, -187500.02, -187500.02, -187500.02, -187500.02, 187500.00, -187500.02, -138952.86, -187500.02, 0.00, 0.00, 0.00
125, -187500.02, -187500.02, -187500.02, -187500.02, 187500.00, -187500.02, -139051.89, -187500.02, 0.00, 0.00, 0.00
126, -187500.02, -187500.02, -187500.02, -187500.02, 187500.00, -187500.02, -137676.61, -187500.02, 0.00, 0.00, 0.00
127, -187500.02, -187500.02, -187500.02, -187500.02, 187500.00, -187500.02, -137612.41, -187500.02, 0.00, 0.00, 0.00
128, -187500.02, -187500.02, -187500.02, -187500.02, 187500.00, -187500.02, -139394.44, -187500.02, 0.00, 0.00, 0.00
129, -187500.02, -187500.02, -187500.02, -187500.02, 187500.00, -187500.02, -139872.42, -187500.02, 0.00, 0.00, 0.00
130, -187500.02, -187500.02, -187500.02, -187500.02, 187500.00, -187500.02, -138970.88, -187500.02, 0.00, 0.00, 0.00
131, -187500.02, -187500.02, -187500.02, -187500.02, 187500.00, -187500.02, -138701.02, -187500.02, 0.00, 0.00, 0.00
132, -187500.02, -187500.02, -187500.02, -187500.02, 187500.00, -187500.02, -140546.69, -187500.02, 0.00, 0.00, 0.00
133, -187500.02, -187500.02, -187500.02, -187500.02, 187500.00, -187500.02, -141300.61, -187500.02, 0.00, 0.00, 0.00
134, -187500.02, -187500.02, -187500.02, -187500.02, 187500.00, -187500.02, -140442.52, -187500.02, 0.00, 0.00, 0.00
135, -187500.02, -187500.02, -187500.02, -187500.02, 187500.00, -187500.02, -139623.44, -187500.02, 0.00, 0.00, 0.00
136, -187500.02, -187500.02, -187500.02, -187500.02, 187500.00, -187500.02, -141225.52, -187500.02, 0.00, 0.00, 0.00
137, -187500.02, -187500.02, -187500.02, -187500.02, 187500.00, -187500.02, -142305.38, -187500.02, 0.00, 0.00, 0.00
138, -187500.02, -187500.02, -187500.02, -187500.02, 187500.00, -187500.02, -141643.80, -187500.02, 0.00, 0.00, 0.00
139, -187500.02, -187500.02, -187500.02, -187500.02, 187500.00, -187500.02, -140496.91, -187500.02, 0.00, 0.00, 0.00
140, -187500.02, -187500.02, -187500.02, -187500.02, 187500.00, -187500.02, -141802.03, -187500.02, 0.00, 0.00, 0.00
141, -187500.02, -187500.02, -187500.02, -187500.02, 187500.00, -187500.02, -143257.98, -187500.02, 0.00, 0.00, 0.00
142, -187500.02, -187500.02, -187500.02, -187500.02, 187500.00, -187500.02, -142882.98, -187500.02, 0.00, 0.00, 0.00
143, -187500.02, -187500.02, -187500.02, -187500.02, 187500.00, -187500.02, -141408.47, -187500.02, 0.00, 0.00, 0.00
144, -187500.02, -187500.02, -187500.02, -187500.02, 187500.00, -187500.02, -142311.11, -187500.02, 0.00, 0.00, 0.00
145, -187500.02, -187500.02, -187500.02, -187500.02, 187500.00, -187500.02, -144066.84, -187500.02, 0.00, 0.00, 0.00
146, -187500.02, -187500.02, -187500.02, -187500.02, 187500.00, -187500.02, -143897.23, -187500.02, 0.00, 0.00, 0.00
147, -187500.02, -187500.02, -187500.02, -187500.02, 187500.00, -187500.02, -142424.73, -187500.02, 0.00, 0.00, 0.00
148, -187500.02, -187500.02, -187500.02, -187500.02, 187500.00, -187500.02, -142843.09, -187500.02, 0.00, 0.00, 0.00
149, 0.00, -187500.02, -187500.02, -187500.02, 173564.94, -187500.02, -143167.52, -187500.02, 0.00, 0.00, 0.00
150, 0.00, -187500.02, -187500.02, -187500.02, 173075.20, -187500.02, -142354.44, -187500.02, 0.00, 0.00, 0.00
151, 0.00, -187500.02, -187500.02, -187500.02, 178871.23, -187500.02, -144976.06, -187500.02, 0.00, 0.00, 0.00
152, 0.00, -187500.02, -187500.02, -187500.02, 181924.34, -187500.02, -145604.27, -187500.02, 0.00, 0.00, 0.00
153, 0.00, -187500.02, -187500.02, -187500.02, 178201.48, -187500.02, -142904.53, -187500.02, 0.00, 0.00, 0.00
154, 0.00, -187500.02, -187500.02, -187500.02, 176310.42, -187500.02, -141701.67, -187500.02, 0.00, 0.00, 0.00
155, 0.00, -187500.02, -187500.02, -187500.02, 181506.44, -187500.02, -144290.08, -187500.02, 0.00, 0.00, 0.00
156, 0.00, -187500.02, -187500.02, -187500.02, 185557.56, -187500.02, -145883.03, -187500.02, 0.00, 0.00, 0.00
157, 0.00, -187500.02, -187500.02, -187500.02, 182636.30, -187500.02, -143674.55, -187500.02, 0.00, 0.00, 0.00
158, 0.00, -187500.02, -187500.02, -187500.02, 179420.06, -187500.02, -141964.80, -187500.02, 0.00, 0.00, 0.00
159, 0.00, -187500.02, -187500.02, -187500.02, 183478.95, -187500.02, -144174.20, -187500.02, 0.00, 0.00, 0.00
160, 0.00, -187500.02, -187500.02, -187500.02, 187500.00, -187500.02, -146451.17, -187500.02, 0.00, 0.00, 0.00
161, 0.00, -187500.02, -187500.02, -187500.02, 186228.11, -187500.02, -144888.73, -187500.02, 0.00, 0.00, 0.00
162, 0.00, -187500.02, -187500.02, -187500.02, 182231.36, -187500.02, -142639.27, -187500.02, 0.00, 0.00, 0.00
163, 0.00, -187500.02, -187500.02, -187500.02, 185006.19, -187500.02, -144279.77, -187500.02, 0.00, 0.00, 0.00
164, 0.00, -187500.02, -187500.02, -187500.02, 187500.00, -187500.02, -147028.55, -187500.02, 0.00, 0.00, 0.00
165, 0.00, -187500.02, -187500.02, -187500.02, 187500.00, -187500.02, -146195.73, -187500.02, 0.00, 0.00, 0.00
166, 0.00, -187500.02, -187500.02, -187500.02, 184651.20, -187500.02, -143678.33, -187500.02, 0.00, 0.00, 0.00
167, 0.00, -187500.02, -187500.02, -187500.02, 185739.33, -187500.02, -144743.56, -187500.02, 0.00, 0.00, 0.00
168, 0.00, -187500.02, -187500.02, -187500.02, 187500.00, -187500.02, -147742.34, -187500.02, 0.00, 0.00, 0.00
169, 0.00, -187500.02, -187500.02, -187500.02, 187500.00, -187500.02, -147690.80, -187500.02, 0.00, 0.00, 0.00
170, 0.00, -187500.02, -187500.02, -187500.02, 186280.91, -187500.02, -145075.47, -187500.02, 0.00, 0.00, 0.00
171, 0.00, -187500.02, -187500.02, -187500.02, 185917.02, -187500.02, -145293.31, -187500.02, 0.00, 0.00, 0.00
172, 0.00, -187500.02, -187500.02, -187500.02, 187500.00, -187500.02, -148360.69, -187500.02, 0.00, 0.00, 0.00
173, 0.00, -187500.02, -187500.02, -187500.02, 187500.00, -187500.02, -149005.33, -187500.02, 0.00, 0.00, 0.00
174, 0.00, -187500.02, -187500.02, -187500.02, 187500.00, -187500.02, -146453.92, -187500.02, 0.00, 0.00, 0.00
175, 0.00, -187500.02, -187500.02, -187500.02, 186225.31, -187500.02, -145876.67, -187500.02, 0.00, 0.00, 0.00
176, 0.00, -187500.02, -187500.02, -187500.02, 187500.00, -187500.02, -148834.05, -187500.02, 0.00, 0.00, 0.00
177, 0.00, -187500.02, -187500.02, -187500.02, 187500.00, -187500.02, -150170.41, -187500.02, 0.00, 0.00, 0.00
178, 0.00, -187500.02, -187500.02, -187500.02, 187500.00, -187500.02, -147953.61, -187500.02, 0.00, 0.00, 0.00
179, 0.00, -187500.02, -187500.02, -187500.02, 186455.61, -187500.02, -146691.55, -187500.02, 0.00, 0.00, 0.00
180, 0.00, -187500.02, -187500.02, -187500.02, 187500.00, -187500.02, -149288.23, -187500.02, 0.00, 0.00, 0.00
181, 0.00, -187500.02, -187500.02, -187500.02, 187500.00, -187500.02, -151137.33, -187500.02, 0.00, 0.00, 0.00
182, 0.00, -187500.02, -187500.02, -187500.02, 187500.00, -187500.02, -149550.83, -187500.02, 0.00, 0.00, 0.00
183, 0.00, -187500.02, -187500.02, -187500.02, 186738.61, -187500.02, -147641.69, -187500.02, 0.00, 0.00, 0.00
184, 0.00, -187500.02, -187500.02, -187500.02, 187500.00, -187500.02, -149696.44, -187500.02, 0.00, 0.00, 0.00
185, 0.00, -187500.02, -187500.02, -187500.02, 187500.00, -187500.02, -152074.38, -187500.02, 0.00, 0.00, 0.00
186, 0.00, -187500.02, -187500.02, -187500.02, 187500.00, -187500.02, -151048.08, -187500.02, 0.00, 0.00, 0.00
187, 0.00, -187500.02, -187500.02, -187500.02, 187251.48, -187500.02, -148712.14, -187500.02, 0.00, 0.00, 0.00
188, 0.00, -187500.02, -187500.02, -187500.02, 187500.00, -187500.02, -150136.58, -187500.02, 0.00, 0.00, 0.00
189, 0.00, -187500.02, -187500.02, -187500.02, 187500.00, -187500.02, -152618.31, -187500.02, 0.00, 0.00, 0.00
190, 0.00, -187500.02, -187500.02, -187500.02, 187500.00, -187500.02, -152198.91, -187500.02, 0.00, 0.00, 0.00
191, 0.00, -187500.02, -187500.02, -187500.02, 187500.00, -187500.02, -149736.97, -187500.02, 0.00, 0.00, 0.00
192, 0.00, -187500.02, -187500.02, -187500.02, 187500.00, -187500.02, -150373.08, -187500.02, 0.00, 0.00, 0.00
193, 0.00, -187500.02, -187500.02, -187500.02, 187500.00, -187500.02, -152996.84, -187500.02, 0.00, 0.00, 0.00
194, 0.00, -187500.02, -187500.02, -187500.02, 187500.00, -187500.02, -153278.95, -187500.02, 0.00, 0.00, 0.00
195, 0.00, -187500.02, -187500.02, -187500.02, 187500.00, -187500.02, -151184.27, -187500.02, 0.00, 0.00, 0.00
196, 0.00, -187500.02, -187500.02, -187500.02, 187500.00, -187500.02, -151025.77, -187500.02, 0.00, 0.00, 0.00
197, 0.00, -187500.02, -187500.02, -187500.02, 187500.00, -187500.02, -153616.69, -187500.02, 0.00, 0.00, 0.00
198, 0.00, -187500.02, -187500.02, -187500.02, 187500.00, -187500.02, -154367.75, -187500.02, 0.00, 0.00, 0.00
199, 0.00, -187500.02, -187500.02, -187500.02, 187500.00, -187500.02, -152763.08, -187500.02, 0.00, 0.00, 0.00
200, 0.00, -187500.02, -187500.02, -187500.02, 187500.00, -187500.02, -151973.78, -187500.02, 0.00, 0.00, 0.00
201, 0.00, -187500.02, -187500.02, -187500.02, 187500.00, -187500.02, -154397.16, -187500.02, 0.00, 0.00, 0.00
202, 0.00, -187500.02, -187500.02, -187500.02, 187500.00, -187500.02, -155646.95, -187500.02, 0.00, 0.00, 0.00
203, 0.00, -187500.02, -187500.02, -187500.02, 187500.00, -187500.02, -154284.36, -187500.02, 0.00, 0.00, 0.00
204, 0.00, -187500.02, -187500.02, -187500.02, 187500.00, -187500.02, -152819.63, -187500.02, 0.00, 0.00, 0.00
205, 0.00, -187500.02, -187500.02, -187500.02, 187500.00, -187500.02, -154915.06, -187500.02, 0.00, 0.00, 0.00
206, 0.00, -187500.02, -187500.02, -187500.02, 187500.00, -187500.02, -156645.53, -187500.02, 0.00, 0.00, 0.00
207, 0.00, -187500.02, -187500.02, -187500.02, 187500.00, -187500.02, -155635.50, -187500.02, 0.00, 0.00, 0.00
208, 0.00, -187500.02, -187500.02, -187500.02, 187500.00, -187500.02, -153753.59, -187500.02, 0.00, 0.00, 0.00
209, 0.00, -187500.02, -187500.02, -187500.02, 187500.00, -187500.02, -155453.67, -187500.02, 0.00, 0.00, 0.00
210, 0.00, -187500.02, -187500.02, -187500.02, 187500.00, -187500.02, -157552.39, -187500.02, 0.00, 0.00, 0.00
211, 0.00, -187500.02, -187500.02, -187500.02, 187500.00, -187500.02, -156980.05, -187500.02, 0.00, 0.00, 0.00
212, 0.00, -187500.02, -187500.02, -187500.02, 187500.00, -187500.02, -154845.19, -187500.02, 0.00, 0.00, 0.00
213, 0.00, -187500.02, -187500.02, -187500.02, 187500.00, -187500.02, -155858.70, -187500.02, 0.00, 0.00, 0.00
214, 0.00, -187500.02, -187500.02, -187500.02, 187500.00, -187500.02, -158277.30, -187500.02, 0.00, 0.00, 0.00
215, 0.00, -187500.02, -187500.02, -187500.02, 187500.00, -187500.02, -158158.59, -187500.02, 0.00, 0.00, 0.00
216, 0.00, -187500.02, -187500.02, -187500.02, 187500.00, -187500.02, -156012.20, -187500.02, 0.00, 0.00, 0.00
217, 0.00, -187500.02, -187500.02, -187500.02, 187500.00, -187500.02, -156327.83, -187500.02, 0.00, 0.00, 0.00
218, 0.00, -187500.02, -187500.02, -187500.02, 187500.00, -187500.02, -158908.31, -187500.02, 0.00, 0.00, 0.00
219, 0.00, -187500.02, -187500.02, -187500.02, 187500.00, -187500.02, -159334.88, -187500.02, 0.00, 0.00, 0.00
220, 0.00, -187500.02, -187500.02, -187500.02, 187500.00, -187500.02, -157349.14, -187500.02, 0.00, 0.00, 0.00
221, 0.00, -187500.02, -187500.02, -187500.02, 187500.00, -187500.02, -156951.78, -187500.02, 0.00, 0.00, 0.00
222, 0.00, -187500.02, -187500.02, -187500.02, 187500.00, -187500.02, -159530.41, -187500.02, 0.00, 0.00, 0.00
223, 0.00, -187500.02, -187500.02, -187500.02, 187500.00, -187500.02, -160446.72, -187500.02, 0.00, 0.00, 0.00
224, 0.00, -187500.02, -187500.02, -187500.02, 187500.00, -187500.02, -158710.91, -187500.02, 0.00, 0.00, 0.00
225, 0.00, -187500.02, -187500.02, -187500.02, 187500.00, -187500.02, -157622.64, -187500.02, 0.00, 0.00, 0.00
226, 0.00, -187500.02, -187500.02, -187500.02, 187500.00, -187500.02, -159969.55, -187500.02, 0.00, 0.00, 0.00
227, 0.00, -187500.02, -187500.02, -187500.02, 187500.00, -187500.02, -161441.48, -187500.02, 0.00, 0.00, 0.00
228, 0.00, -187500.02, -187500.02, -187500.02, 187500.00, -187500.02, -160121.75, -187500.02, 0.00, 0.00, 0.00
229, 0.00, -187500.02, -187500.02, -187500.02, 187500.00, -187500.02, -158446.80, -187500.02, 0.00, 0.00, 0.00
230, 0.00, -187500.02, -187500.02, -187500.02, 187500.00, -187500.02, -160482.41, -187500.02, 0.00, 0.00, 0.00
231, 0.00, -187500.02, -187500.02, -187500.02, 187500.00, -187500.02, -162397.44, -187500.02, 0.00, 0.00, 0.00
232, 0.00, -187500.02, -187500.02, -187500.02, 187500.00, -187500.02, -161546.83, -187500.02, 0.00, 0.00, 0.00
233, 0.00, -187500.02, -187500.02, -187500.02, 187500.00, -187500.02, -159545.78, -187500.02, 0.00, 0.00, 0.00
234, 0.00, -187500.02, -187500.02, -187500.02, 187500.00, -187500.02, -160922.47, -187500.02, 0.00, 0.00, 0.00
235, 0.00, -187500.02, -187500.02, -187500.02, 187500.00, -187500.02, -163111.16, -187500.02, 0.00, 0.00, 0.00
236, 0.00, -187500.02, -187500.02, -187500.02, 187500.00, -187500.02, -162737.53, -187500.02, 0.00, 0.00, 0.00
237, 0.00, -187500.02, -187500.02, -187500.02, 187500.00, -187500.02, -160566.66, -187500.02, 0.00, 0.00, 0.00
238, 0.00, -187500.02, -187500.02, -187500.02, 187500.00, -187500.02, -161322.64, -187500.02, 0.00, 0.00, 0.00
239, 0.00, -187500.02, -187500.02, -187500.02, 187500.00, -187500.02, -163655.27, -187500.02, 0.00, 0.00, 0.00
240, 0.00, -187500.02, -187500.02, -187500.02, 187500.00, -187500.02, -163799.92, -187500.02, 0.00, 0.00, 0.00
241, 0.00, -187500.02, -187500.02, -187500.02, 187500.00, -187500.02, -161871.02, -187500.02, 0.00, 0.00, 0.00
242, 0.00, -187500.02, -187500.02, -187500.02, 187500.00, -187500.02, -161934.09, -187500.02, 0.00, 0.00, 0.00
243, 0.00, -187500.02, -187500.02, -187500.02, 187500.00, -187500.02, -164332.45, -187500.02, 0.00, 0.00, 0.00
244, 0.00, -187500.02, -187500.02, -187500.02, 187500.00, -187500.02, -164992.39, -187500.02, 0.00, 0.00, 0.00
245, 0.00, -187500.02, -187500.02, -187500.02, 187500.00, -187500.02, -163435.97, -187500.02, 0.00, 0.00, 0.00
246, 0.00, -187500.02, -187500.02, -187500.02, 187500.00, -187500.02, -162853.48, -187500.02, 0.00, 0.00, 0.00
247, 0.00, -187500.02, -187500.02, -187500.02, 187500.00, -187500.02, -165168.67, -187500.02, 0.00, 0.00, 0.00
248, 0.00, -187500.02, -187500.02, -187500.02, 187500.00, -187500.02, -166277.61, -187500.02, 0.00, 0.00, 0.00
249, 0.00, -187500.02, -187500.02, -187500.02, 187500.00, -187500.02, -164930.14, -187500.02, 0.00, 0.00, 0.00
250, 0.00, -187500.02, -187500.02, -187500.02, 187500.00, -187500.02, -163762.55, -187500.02, 0.00, 0.00, 0.00
251, 0.00, -187500.02, -187500.02, -187500.02, 187500.00, -187500.02, -165885.52, -187500.02, 0.00, 0.00, 0.00
252, 0.00, -187500.02, -187500.02, -187500.02, 187500.00, -187500.02, -167316.14, -187500.02, 0.00, 0.00, 0.00
253, 0.00, -187500.02, -187500.02, -187500.02, 187500.00, -187500.02, -166244.48, -187500.02, 0.00, 0.00, 0.00
254, 0.00, -187500.02, -187500.02, -187500.02, 187500.00, -187500.02, -164617.39, -187500.02, 0.00, 0.00, 0.00
255, 0.00, -187500.02, -187500.02, -187500.02, 187500.00, -187500.02, -166372.67, -187500.02, 0.00, 0.00, 0.00
0, 0.00, -187500.02, -187500.02, -187500.02, 187500.00, -187500.02, -168293.75, -187500.02, 0.00, 0.00, 0.00
1, 0.00, -187500.02, -187500.02, -187500.02, 187500.00, -187500.02, -167622.14, -187500.02, 0.00, 0.00, 0.00
2, 0.00, -187500.02, -187500.02, -187500.02, 187500.00, -187500.02, -165602.11, -187500.02, 0.00, 0.00, 0.00
3, 0.00, -187500.02, -187500.02, -187500.02, 187500.00, -187500.02, -166750.09, -187500.02, 0.00, 0.00, 0.00
4, 0.00, -187500.02, -187500.02, -187500.02, 187500.00, -187500.02, -169020.53, -187500.02, 0.00, 0.00, 0.00
5, 0.00, -187500.02, -187500.02, -187500.02, 187500.00, -187500.02, -168787.20, -187500.02, 0.00, 0.00, 0.00
6, 0.00, -187500.02, -187500.02, -187500.02, 187500.00, -187500.02, -166735.05, -187500.02, 0.00, 0.00, 0.00
7, 0.00, -187500.02, -187500.02, -187500.02, 187500.00, -187500.02, -167205.11, -187500.02, 0.00, 0.00, 0.00
8, 0.00, -187500.02, -187500.02, -187500.02, 187500.00, -187500.02, -169609.72, -187500.02, 0.00, 0.00, 0.00
9, 0.00, -187500.02, -187500.02, -187500.02, 187500.00, -187500.02, -169896.81, -187500.02, 0.00, 0.00, 0.00
10, 0.00, -187500.02, -187500.02, -187500.02, 187500.00, -187500.02, -168015.16, -187500.02, 0.00, 0.00, 0.00
11, 0.00, -187500.02, -187500.02, -187500.02, 187500.00, -187500.02, -167780.06, -187500.02, 0.00, 0.00, 0.00
12, 0.00, -187500.02, -187500.02, -187500.02, 187500.00, -187500.02, -170257.97, -187500.02, 0.00, 0.00, 0.00
13, 0.00, -187500.02, -187500.02, -187500.02, 187500.00, -187500.02, -171009.45, -187500.02, 0.00, 0.00, 0.00
14, 0.00, -187500.02, -187500.02, -187500.02, 187500.00, -187500.02, -169204.84, -187500.02, 0.00, 0.00, 0.00
15, 0.00, -187500.02, -187500.02, -187500.02, 187500.00, -187500.02, -168289.50, -187500.02, 0.00, 0.00, 0.00
16, 0.00, -187500.02, -187500.02, -187500.02, 187500.00, -187500.02, -170693.16, -187500.02, 0.00, 0.00, 0.00
17, 0.00, -187500.02, -187500.02, -187500.02, 187500.00, -187500.02, -171931.72, -187500.02, 0.00, 0.00, 0.00
18, 0.00, -187500.02, -187500.02, -187500.02, 187500.00, -187500.02, -170533.28, -187500.02, 0.00, 0.00, 0.00
19, 0.00, -187500.02, -187500.02, -187500.02, 187500.00, -187500.02, -169028.27, -187500.02, 0.00, 0.00, 0.00
20, 0.00, -187500.02, -187500.02, -187500.02, 187500.00, -187500.02, -171098.81, -187500.02, 0.00, 0.00, 0.00
21, 0.00, -187500.02, -187500.02, -187500.02, 187500.00, -187500.02, -172773.61, -187500.02, 0.00, 0.00, 0.00
22, 0.00, -187500.02, -187500.02, -187500.02, 187500.00, -187500.02, -171736.03, -187500.02, 0.00, 0.00, 0.00
23, 0.00, -187500.02, -187500.02, -187500.02, 187500.00, -187500.02, -169789.70, -187500.02, 0.00, 0.00, 0.00
24, 0.00, -187500.02, -187500.02, -187500.02, 187500.00, -187500.02, -171398.80, -187500.02, 0.00, 0.00, 0.00
25, 0.00, -187500.02, -187500.02, -187500.02, 187500.00, -187500.02, -173379.23, -187500.02, 0.00, 0.00, 0.00
26, 0.00, -187500.02, -187500.02, -187500.02, 187500.00, -187500.02, -172670.53, -187500.02, 0.00, 0.00, 0.00
27, 0.00, -187500.02, -187500.02, -187500.02, 187500.00, -187500.02, -170596.48, -187500.02, 0.00, 0.00, 0.00
28, 0.00, -187500.02, -187500.02, -187500.02, 187500.00, -187500.02, -171585.33, -187500.02, 0.00, 0.00, 0.00
29, 0.00, -187500.02, -187500.02, -187500.02, 187500.00, -187500.02, -173796.94, -187500.02, 0.00, 0.00, 0.00
30, 0.00, -187500.02, -187500.02, -187500.02, 187500.00, -187500.02, -173725.48, -187500.02, 0.00, 0.00, 0.00
31, 0.00, -187500.02, -187500.02, -187500.02, 187500.00, -187500.02, -171832.00, -187500.02, 0.00, 0.00, 0.00
32, 0.00, -187500.02, -187500.02, -187500.02, 187500.00, -187500.02, -172084.53, -187500.02, 0.00, 0.00, 0.00
33, 0.00, -187500.02, -187500.02, -187500.02, 187500.00, -187500.02, -174396.16, -187500.02, 0.00, 0.00, 0.00
34, 0.00, -187500.02, -187500.02, -187500.02, 187500.00, -187500.02, -174879.63, -187500.02, 0.00, 0.00, 0.00
35, 0.00, -187500.02, -187500.02, -187500.02, 187500.00, -187500.02, -173330.84, -187500.02, 0.00, 0.00, 0.00
36, 0.00, -187500.02, -187500.02, -187500.02, 187500.00, -187500.02, -172993.17, -187500.02, 0.00, 0.00, 0.00
37, 0.00, -187500.02, -187500.02, -187500.02, 187500.00, -187500.02, -175320.69, -187500.02, 0.00, 0.00, 0.00
38, 0.00, -187500.02, -187500.02, -187500.02, 187500.00, -187500.02, -176096.78, -187500.02, 0.00, 0.00, 0.00
39, 0.00, -187500.02, -187500.02, -187500.02, 187500.00, -187500.02, -174738.38, -187500.02, 0.00, 0.00, 0.00
40, 0.00, -187500.02, -187500.02, -187500.02, 187500.00, -187500.02, -173761.11, -187500.02, 0.00, 0.00, 0.00
41, 0.00, -187500.02, -187500.02, -187500.02, 187500.00, -187500.02, -175907.81, -187500.02, 0.00, 0.00, 0.00
42, 0.00, -187500.02, -187500.02, -187500.02, 187500.00, -187500.02, -177164.41, -187500.02, 0.00, 0.00, 0.00
43, 0.00, -187500.02, -187500.02, -187500.02, 187500.00, -187500.02, -176040.80, -187500.02, 0.00, 0.00, 0.00
44, 0.00, -187500.02, -187500.02, -187500.02, 187500.00, -187500.02, -174589.78, -187500.02, 0.00, 0.00, 0.00
45, 0.00, -187500.02, -187500.02, -187500.02, 187500.00, -187500.02, -176433.98, -187500.02, 0.00, 0.00, 0.00
46, 0.00, -187500.02, -187500.02, -187500.02, 187500.00, -187500.02, -178192.95, -187500.02, 0.00, 0.00, 0.00
47, 0.00, -187500.02, -187500.02, -187500.02, 187500.00, -187500.02, -177452.03, -187500.02, 0.00, 0.00, 0.00
48, 0.00, -187500.02, -187500.02, -187500.02, 187500.00, -187500.02, -175561.97, -187500.02, 0.00, 0.00, 0.00
49, 0.00, -187500.02, -187500.02, -187500.02, 187500.00, -187500.02, -176891.16, -187500.02, 0.00, 0.00, 0.00
50, 0.00, -187500.02, -187500.02, -187500.02, 187500.00, -187500.02, -179034.31, -187500.02, 0.00, 0.00, 0.00
51, 0.00, -187500.02, -187500.02, -187500.02, 187500.00, -187500.02, -178653.80, -187500.02, 0.00, 0.00, 0.00
52, 0.00, -187500.02, -187500.02, -187500.02, 187500.00, -187500.02, -176672.88, -187500.02, 0.00, 0.00, 0.00
53, 0.00, -187500.02, -187500.02, -187500.02, 187500.00, -187500.02, -177396.00, -187500.02, 0.00, 0.00, 0.00
54, 0.00, -187500.02, -187500.02, -187500.02, 187500.00, -187500.02, -179763.72, -187500.02, 0.00, 0.00, 0.00
55, 0.00, -187500.02, -187500.02, -187500.02, 187500.00, -187500.02, -179946.36, -187500.02, 0.00, 0.00, 0.00
56, 0.00, -187500.02, -187500.02, -187500.02, 187500.00, -187500.02, -177891.61, -187500.02, 0.00, 0.00, 0.00
57, 0.00, -187500.02, -187500.02, -187500.02, 187500.00, -187500.02, -177958.58, -187500.02, 0.00, 0.00, 0.00
58, 0.00, -187500.02, -187500.02, -187500.02, 187500.00, -187500.02, -180438.34, -187500.02, 0.00, 0.00, 0.00
59, 0.00, -187500.02, -187500.02, -187500.02, 187500.00, -187500.02, -181111.00, -187500.02, 0.00, 0.00, 0.00
60, 0.00, -187500.02, -187500.02, -187500.02, 187500.00, -187500.02, -179210.78, -187500.02, 0.00, 0.00, 0.00
61, 0.00, -187500.02, -187500.02, -187500.02, 187500.00, -187500.02, -178568.80, -187500.02, 0.00, 0.00, 0.00
62, 0.00, -187500.02, -187500.02, -187500.02, 187500.00, -187500.02, -180997.52, -187500.02, 0.00, 0.00, 0.00
63, 0.00, -187500.02, -187500.02, -187500.02, 187500.00, -187500.02, -181977.77, -187500.02, 0.00, 0.00, 0.00
64, 0.00, -187500.02, -187500.02, -187500.02, 187500.00, -187500.02, -180484.05, -187500.02, 0.00, 0.00, 0.00
65, 0.00, -187500.02, -187500.02, -187500.02, 187500.00, -187500.02, -179273.81, -187500.02, 0.00, 0.00, 0.00
66, 0.00, -187500.02, -187500.02, -187500.02, 187500.00, -187500.02, -181477.77, -187500.02, 0.00, 0.00, 0.00
67, 0.00, -187500.02, -187500.02, -187500.02, 187500.00, -187500.02, -183038.23, -187500.02, 0.00, 0.00, 0.00
68, 0.00, -187500.02, -187500.02, -187500.02, 187500.00, -187500.02, -181910.97, -187500.02, 0.00, 0.00, 0.00
69, 0.00, -187500.02, -187500.02, -187500.02, 187500.00, -187500.02, -180112.30, -187500.02, 0.00, 0.00, 0.00
70, 0.00, -187500.02, -187500.02, -187500.02, 187500.00, -187500.02, -181802.05, -187500.02, 0.00, 0.00, 0.00
71, 0.00, -187500.02, -187500.02, -187500.02, 187500.00, -187500.02, -183629.61, -187500.02, 0.00, 0.00, 0.00
72, 0.00, -187500.02, -187500.02, -187500.02, 187500.00, -187500.02, -182818.95, -187500.02, 0.00, 0.00, 0.00
73, 0.00, -187500.02, -187500.02, -187500.02, 187500.00, -187500.02, -180895.77, -187500.02, 0.00, 0.00, 0.00
74, 0.00, -187500.02, -187500.02, -187500.02, 187500.00, -187500.02, -182036.38, -187500.02, 0.00, 0.00, 0.00
75, 0.00, -187500.02, -187500.02, -187500.02, 187500.00, -187500.02, -184054.73, -187500.02, 0.00, 0.00, 0.00
76, 0.00, -187500.02, -187500.02, -187500.02, 187500.00, -187500.02, -183836.19, -187500.02, 0.00, 0.00, 0.00
77, 0.00, -187500.02, -187500.02, -187500.02, 187500.00, -187500.02, -182101.13, -187500.02, 0.00, 0.00, 0.00
78, 0.00, -187500.02, -187500.02, -187500.02, 187500.00, -187500.02, -182540.34, -187500.02, 0.00, 0.00, 0.00
79, 0.00, -187500.02, -187500.02, -187500.02, 187500.00, -187500.02, -184776.98, -187500.02, 0.00, 0.00, 0.00
80, 0.00, -187500.02, -187500.02, -187500.02, 187500.00, -187500.02, -185195.11, -187500.02, 0.00, 0.00, 0.00
81, 0.00, -187500.02, -187500.02, -187500.02, 187500.00, -187500.02, -183673.17, -187500.02, 0.00, 0.00, 0.00
82, 0.00, -187500.02, -187500.02, -187500.02, 187500.00, -187500.02, -183591.05, -187500.02, 0.00, 0.00, 0.00
83, 0.00, -187500.02, -187500.02, -187500.02, 187500.00, -187500.02, -185889.69, -187500.02, 0.00, 0.00, 0.00
84, 0.00, -187500.02, -187500.02, -187500.02, 187500.00, -187500.02, -186585.06, -187500.02, 0.00, 0.00, 0.00
85, 0.00, -187500.02, -187500.02, -187500.02, 187500.00, -187500.02, -185173.72, -187500.02, 0.00, 0.00, 0.00
86, 0.00, -187500.02, -187500.02, -187500.02, 187500.00, -187500.02, -184484.91, -187500.02, 0.00, 0.00, 0.00
87, 0.00, -187500.02, -187500.02, -187500.02, 187500.00, -187500.02, -186650.56, -187500.02, 0.00, 0.00, 0.00
88, 0.00, -187500.02, -187500.02, -187500.02, 187500.00, -187500.02, -187500.02, -187500.02, 0.00, 0.00, 0.00
89, 0.00, -187500.02, -187500.02, -187500.02, 187500.00, -187500.02, -186704.78, -187500.02, 0.00, 0.00, 0.00
90, 0.00, -187500.02, -187500.02, -187500.02, 187500.00, -187500.02, -185390.38, -187500.02, 0.00, 0.00, 0.00
91, 0.00, -187500.02, -187500.02, -187500.02, 187500.00, -187500.02, -187286.98, -187500.02, 0.00, 0.00, 0.00
92, 0.00, -187500.02, -187500.02, -187500.02, 187500.00, -187500.02, -187500.02, -187500.02, 0.00, 0.00, 0.00
93, 0.00, -187500.02, -187500.02, -187500.02, 187500.00, -187500.02, -187500.02, -187500.02, 0.00, 0.00, 0.00
94, 0.00, -187500.02, -187500.02, -187500.02, 187500.00, -187500.02, -186492.22, -187500.02, 0.00, 0.00, 0.00
95, 0.00, -187500.02, -187500.02, -187500.02, 187500.00, -187500.02, -187500.02, -187500.02, 0.00, 0.00, 0.00
96, 0.00, -187500.02, -187500.02, -187500.02, 187500.00, -187500.02, -187500.02, -187500.02, 0.00, 0.00, 0.00
97, 0.00, -187500.02, -187500.02, -187500.02, 187500.00, -187500.02, -187500.02, -187500.02, 0.00, 0.00, 0.00
98, 0.00, -187500.02, -187500.02, -187500.02, 187500.00, -187500.02, -187500.02, -187500.02, 0.00, 0.00, 0.00
99, 0.00, -187500.02, -187500.02, -187500.02, 187500.00, -187500.02, -187500.02, -187500.02, 0.00, 0.00, 0.00
100, 0.00, -187500.02, -187500.02, -187500.02, 187500.00, -187500.02, -187500.02, -187500.02, 0.00, 0.00, 0.00
101, 0.00, -187500.02, -187500.02, -187500.02, 187500.00, -187500.02, -187500.02, -187500.02, 0.00, 0.00, 0.00
102, 0.00, -187500.02, -187500.02, -187500.02, 187500.00, -187500.02, -187500.02, -187500.02, 0.00, 0.00, 0.00
103, 0.00, -187500.02, -187500.02, -187500.02, 187500.00, -187500.02, -187500.02, -187500.02, 0.00, 0.00, 0.00
104, 0.00, -187500.02, -187500.02, -187500.02, 187500.00, -187500.02, -187500.02, -187500.02, 0.00, 0.00, 0.00
105, 0.00, -187500.02, -187500.02, -187500.02, 187500.00, -187500.02, -187500.02, -187500.02, 0.00, 0.00, 0.00
106, 0.00, -187500.02, -187500.02, -187500.02, 187500.00, -187500.02, -187500.02, -187500.02, 0.00, 0.00, 0.00
107, 0.00, -187500.02, -187500.02, -187500.02, 187500.00, -187500.02, -187500.02, -187500.02, 0.00, 0.00, 0.00
108, 0.00, -187500.02, -187500.02, -187500.02, 187500.00, -187500.02, -187500.02, -187500.02, 0.00, 0.00, 0.00
109, 0.00, -187500.02, -187500.02, -187500.02, 187500.00, -187500.02, -113645.27, -187500.02, 0.00, 0.00, 0.00
110, 0.00, -182379.05, -182705.66, -180632.06, 187500.00, -187500.02, -7733.23, -187500.02, 0.00, 0.00, 0.00
111, 0.00, -181268.44, -182330.13, -179607.89, 187500.00, -187500.02, -675.34, -187500.02, 0.00, 0.00, 0.00
112, 0.00, -181988.70, -183016.34, -180168.67, 187500.00, -187500.02, -3063.06, -187500.02, 0.00, 0.00, 0.00
113, 0.00, -183257.72, -183741.89, -181218.55, 187500.00, -187500.02, -5100.20, -187500.02, 0.00, 0.00, 0.00
114, 0.00, -183494.72, -184140.73, -181544.45, 187500.00, -187500.02, -4973.71, -187500.02, 0.00, 0.00, 0.00
115, 0.00, -182950.91, -184416.28, -181209.52, 187500.00, -187500.02, -4630.07, -187500.02, 0.00, 0.00, 0.00
116, 0.00, -183321.06, -184934.92, -181489.77, 187500.00, -187500.02, -6258.18, -187500.02, 0.00, 0.00, 0.00
117, 0.00, -184524.66, -185598.98, -182454.69, 187500.00, -187500.02, -8009.43, -187500.02, 0.00, 0.00, 0.00
118, 0.00, -184948.97, -186010.05, -182907.30, 187500.00, -187500.02, -7813.10, -187500.02, 0.00, 0.00, 0.00
119, 0.00, -184384.67, -186243.02, -182563.70, 187500.00, -187500.02, -6998.08, -187500.02, 0.00, 0.00, 0.00
120, 0.00, -184528.64, -186726.47, -182666.98, 187500.00, -187500.02, -8005.88, -187500.02, 0.00, 0.00, 0.00
121, 0.00, -185702.33, -187414.98, -183585.69, 187500.00, -187500.02, -9825.31, -187500.02, 0.00, 0.00, 0.00
122, 0.00, -186353.59, -187500.02, -184197.13, 187500.00, -187500.02, -9917.54, -187500.02, 0.00, 0.00, 0.00
123, 0.00, -185856.58, -187500.02, -183914.38, 187500.00, -187500.02, -9000.26, -187500.02, 0.00, 0.00, 0.00
124, 0.00, -185751.80, -187500.02, -183834.11, 187500.00, -187500.02, -9699.81, -187500.02, 0.00, 0.00, 0.00
125, 0.00, -186844.38, -187500.02, -184670.28, 187500.00, -187500.02, -11500.24, -187500.02, 0.00, 0.00, 0.00
126, 0.00, -187500.02, -187500.02, -185408.73, 187500.00, -187500.02, -12176.47, -187500.02, 0.00, 0.00, 0.00
127, 0.00, -187302.11, -187500.02, -185238.83, 187500.00, -187500.02, -11250.37, -187500.02, 0.00, 0.00, 0.00
128, 0.00, -187011.67, -187500.02, -185034.42, 187500.00, -187500.02, -11514.61, -187500.02, 0.00, 0.00, 0.00
129, 0.00, -187500.02, -187500.02, -185728.28, 187500.00, -187500.02, -13454.65, -187500.02, 0.00, 0.00, 0.00
130, 0.00, -187500.02, -187500.02, -186576.22, 187500.00, -187500.02, -14329.79, -187500.02, 0.00, 0.00, 0.00
131, 0.00, -187500.02, -187500.02, -186540.45, 187500.00, -187500.02, -13509.30, -187500.02, 0.00, 0.00, 0.00
132, 0.00, -187500.02, -187500.02, -186217.16, 187500.00, -187500.02, -13370.99, -187500.02, 0.00, 0.00, 0.00
133, 0.00, -187500.02, -187500.02, -186764.91, 187500.00, -187500.02, -15032.02, -187500.02, 0.00, 0.00, 0.00
134, 0.00, -187500.02, -187500.02, -187500.02, 187500.00, -187500.02, -16267.44, -187500.02, 0.00, 0.00, 0.00
135, 0.00, -187500.02, -187500.02, -187500.02, 187500.00, -187500.02, -15595.57, -187500.02, 0.00, 0.00, 0.00
136, 0.00, -187500.02, -187500.02, -187418.36, 187500.00, -187500.02, -15117.22, -187500.02, 0.00, 0.00, 0.00
137, 0.00, -187500.02, -187500.02, -187500.02, 187500.00, -187500.02, -16582.29, -187500.02, 0.00, 0.00, 0.00
138, 0.00, -187500.02, -187500.02, -187500.02, 187500.00, -187500.02, -18019.51, -187500.02, 0.00, 0.00, 0.00
139, 0.00, -187500.02, -187500.02, -187500.02, 187500.00, -187500.02, -17563.87, -187500.02, 0.00, 0.00, 0.00
140, 0.00, -187500.02, -187500.02, -187500.02, 187500.00, -187500.02, -16839.27, -187500.02, 0.00, 0.00, 0.00
141, 0.00, -187500.02, -187500.02, -187500.02, 187500.00, -187500.02, -17995.88, -187500.02, 0.00, 0.00, 0.00
142, 0.00, -187500.02, -187500.02, -187500.02, 187500.00, -187500.02, -19672.02, -187500.02, 0.00, 0.00, 0.00
143, 0.00, -187500.02, -187500.02, -187500.02, 187500.00, -187500.02, -19669.20, -187500.02, 0.00, 0.00, 0.00
144, 0.00, -187500.02, -187500.02, -187500.02, 187500.00, -187500.02, -18774.35, -187500.02, 0.00, 0.00, 0.00
145, 0.00, -187500.02, -187500.02, -187500.02, 187500.00, -187500.02, -19564.37, -187500.02, 0.00, 0.00, 0.00
146, 0.00, -187500.02, -187500.02, -187500.02, 187500.00, -187500.02, -21424.15, -187500.02, 0.00, 0.00, 0.00
147, 0.00, -187500.02, -187500.02, -187500.02, 187500.00, -187500.02, -21692.59, -187500.02, 0.00, 0.00, 0.00
148, 0.00, -187500.02, -187500.02, -187500.02, 187500.00, -187500.02, -20792.51, -187500.02, 0.00, 0.00, 0.00
149, 0.00, -187500.02, -187500.02, -187500.02, 187500.00, -187500.02, -21227.07, -187500.02, 0.00, 0.00, 0.00
150, 0.00, -187500.02, -187500.02, -187500.02, 187500.00, -187500.02, -23069.62, -187500.02, 0.00, 0.00, 0.00
151, 0.00, -187500.02, -187500.02, -187500.02, 187500.00, -187500.02, -23678.61, -187500.02, 0.00, 0.00, 0.00
152, 0.00, -187500.02, -187500.02, -187500.02, 187500.00, -187500.02, -22697.46, -187500.02, 0.00, 0.00, 0.00
153, 0.00, -187500.02, -187500.02, -187500.02, 187500.00, -187500.02, -22770.32, -187500.02, 0.00, 0.00, 0.00
154, 0.00, -187500.02, -187500.02, -187500.02, 187500.00, -187500.02, -24560.25, -187500.02, 0.00, 0.00, 0.00
155, 0.00, -187500.02, -187500.02, -187500.02, 187500.00, -187500.02, -25526.85, -187500.02, 0.00, 0.00, 0.00
156, 0.00, -187500.02, -187500.02, -187500.02, 187500.00, -187500.02, -24644.76, -187500.02, 0.00, 0.00, 0.00
157, 0.00, -187500.02, -187500.02, -187500.02, 187500.00, -187500.02, -24340.24, -187500.02, 0.00, 0.00, 0.00
158, 0.00, -187500.02, -187500.02, -187500.02, 187500.00, -187500.02, -25865.19, -187500.02, 0.00, 0.00, 0.00
159, 0.00, -187500.02, -187500.02, -187500.02, 187500.00, -187500.02, -27056.25, -187500.02, 0.00, 0.00, 0.00
160, 0.00, -187500.02, -187500.02, -187500.02, 187500.00, -187500.02, -26454.43, -187500.02, 0.00, 0.00, 0.00
161, 0.00, -187500.02, -187500.02, -187500.02, 187500.00, -187500.02, -25904.62, -187500.02, 0.00, 0.00, 0.00
162, 0.00, -187500.02, -187500.02, -187500.02, 187500.00, -187500.02, -27105.45, -187500.02, 0.00, 0.00, 0.00
163, 0.00, -187500.02, -187500.02, -187500.02, 187500.00, -187500.02, -28598.90, -187500.02, 0.00, 0.00, 0.00
164, 0.00, -187500.02, -187500.02, -187500.02, 187500.00, -187500.02, -28332.53, -187500.02, 0.00, 0.00, 0.00
165, 0.00, -187500.02, -187500.02, -187500.02, 187500.00, -187500.02, -27540.57, -187500.02, 0.00, 0.00, 0.00
166, 0.00, -187500.02, -187500.02, -187500.02, 187500.00, -187500.02, -28429.83, -187500.02, 0.00, 0.00, 0.00
167, 0.00, -187500.02, -187500.02, -187500.02, 187500.00, -187500.02, -30102.97, -187500.02, 0.00, 0.00, 0.00
168, 0.00, -187500.02, -187500.02, -187500.02, 187500.00, -187500.02, -30082.63, -187500.02, 0.00, 0.00, 0.00
169, 0.00, -187500.02, -187500.02, -187500.02, 187500.00, -187500.02, -29104.47, -187500.02, 0.00, 0.00, 0.00
170, 0.00, -187500.02, -187500.02, -187500.02, 187500.00, -187500.02, -29722.07, -187500.02, 0.00, 0.00, 0.00
171, 0.00, -187500.02, -187500.02, -187500.02, 187500.00, -187500.02, -31442.22, -187500.02, 0.00, 0.00, 0.00
172, 0.00, -187500.02, -187500.02, -187500.02, 187500.00, -187500.02, -31830.65, -187500.02, 0.00, 0.00, 0.00
173, 0.00, -187500.02, -187500.02, -187500.02, 187500.00, -187500.02, -30903.59, -187500.02, 0.00, 0.00, 0.00
174, 0.00, -187500.02, -187500.02, -187500.02, 187500.00, -187500.02, -31234.08, -187500.02, 0.00, 0.00, 0.00
175, 0.00, -187500.02, -187500.02, -187500.02, 187500.00, -187500.02, -33021.24, -187500.02, 0.00, 0.00, 0.00
176, 0.00, -187500.02, -187500.02, -187500.02, 187500.00, -187500.02, -33649.81, -187500.02, 0.00, 0.00, 0.00
177, 0.00, -187500.02, -187500.02, -187500.02, 187500.00, -187500.02, -32675.68, -187500.02, 0.00, 0.00, 0.00
178, 0.00, -187500.02, -187500.02, -187500.02, 187500.00, -187500.02, -32602.34, -187500.02, 0.00, 0.00, 0.00
179, 0.00, -187500.02, -187500.02, -187500.02, 187500.00, -187500.02, -34265.74, -187500.02, 0.00, 0.00, 0.00
180, 0.00, -187500.02, -187500.02, -187500.02, 187500.00, -187500.02, -35203.21, -187500.02, 0.00, 0.00, 0.00
181, 0.00, -187500.02, -187500.02, -187500.02, 187500.00, -187500.02, -34351.28, -187500.02, 0.00, 0.00, 0.00
182, 0.00, -187500.02, -187500.02, -187500.02, 187500.00, -187500.02, -33888.84, -187500.02, 0.00, 0.00, 0.00
183, 0.00, -187500.02, -187500.02, -187500.02, 187500.00, -187500.02, -35340.27, -187500.02, 0.00, 0.00, 0.00
184, 0.00, -187500.02, -187500.02, -187500.02, 187500.00, -187500.02, -36554.76, -187500.02, 0.00, 0.00, 0.00
185, 0.00, -187500.02, -187500.02, -187500.02, 187500.00, -187500.02, -35875.49, -187500.02, 0.00, 0.00, 0.00
186, 0.00, -187500.02, -187500.02, -187500.02, 187500.00, -187500.02, -35106.52, -187500.02, 0.00, 0.00, 0.00
187, 0.00, -187500.02, -187500.02, -187500.02, 187500.00, -187500.02, -36232.78, -187500.02, 0.00, 0.00, 0.00
188, 0.00, -187500.02, -187500.02, -187500.02, 187500.00, -187500.02, -37867.72, -187500.02, 0.00, 0.00, 0.00
189, 0.00, -187500.02, -187500.02, -187500.02, 187500.00, -187500.02, -37422.50, -187500.02, 0.00, 0.00, 0.00
190, 0.00, -187500.02, -187500.02, -187500.02, 187500.00, -187500.02, -36421.90, -187500.02, 0.00, 0.00, 0.00
191, 0.00, -187500.02, -187500.02, -187500.02, 187500.00, -187500.02, -37244.31, -187500.02, 0.00, 0.00, 0.00
192, 0.00, -187500.02, -187500.02, -187500.02, 187500.00, -187500.02, -38879.20, -187500.02, 0.00, 0.00, 0.00
193, 0.00, -187500.02, -187500.02, -187500.02, 187500.00, -187500.02, -38899.52, -187500.02, 0.00, 0.00, 0.00
194, 0.00, -187500.02, -187500.02, -187500.02, 187500.00, -187500.02, -37827.73, -187500.02, 0.00, 0.00, 0.00
195, 0.00, -187500.02, -187500.02, -187500.02, 187500.00, -187500.02, -38312.59, -187500.02, 0.00, 0.00, 0.00
196, 0.00, -187500.02, -187500.02, -187500.02, 187500.00, -187500.02, -40045.96, -187500.02, 0.00, 0.00, 0.00
197, 0.00, -187500.02, -187500.02, -187500.02, 187500.00, -187500.02, -40345.84, -187500.02, 0.00, 0.00, 0.00
198, 0.00, -187500.02, -187500.02, -187500.02, 187500.00, -187500.02, -39245.53, -187500.02, 0.00, 0.00, 0.00
199, 0.00, -187500.02, -187500.02, -187500.02, 187500.00, -187500.02, -39323.56, -187500.02, 0.00, 0.00, 0.00
200, 0.00, -187500.02, -187500.02, -187500.02, 187500.00, -187500.02, -41038.07, -187500.02, 0.00, 0.00, 0.00
201, 0.00, -187500.02, -187500.02, -187500.02, 187500.00, -187500.02, -41842.89, -187500.02, 0.00, 0.00, 0.00
202, 0.00, -187500.02, -187500.02, -187500.02, 187500.00, -187500.02, -40800.56, -187500.02, 0.00, 0.00, 0.00
203, 0.00, -187500.02, -187500.02, -187500.02, 187500.00, -187500.02, -40508.09, -187500.02, 0.00, 0.00, 0.00
204, 0.00, -187500.02, -187500.02, -187500.02, 187500.00, -187500.02, -42089.20, -187500.02, 0.00, 0.00, 0.00
205, 0.00, -187500.02, -187500.02, -187500.02, 187500.00, -187500.02, -43111.33, -187500.02, 0.00, 0.00, 0.00
206, 0.00, -187500.02, -187500.02, -187500.02, 187500.00, -187500.02, -42273.16, -187500.02, 0.00, 0.00, 0.00
207, 0.00, -187500.02, -187500.02, -187500.02, 187500.00, -187500.02, -41744.63, -187500.02, 0.00, 0.00, 0.00
208, 0.00, -187500.02, -187500.02, -187500.02, 187500.00, -187500.02, -43093.83, -187500.02, 0.00, 0.00, 0.00
209, 0.00, -187500.02, -187500.02, -187500.02, 187500.00, -187500.02, -44470.27, -187500.02, 0.00, 0.00, 0.00
210, 0.00, -187500.02, -187500.02, -187500.02, 187500.00, -187500.02, -43912.35, -187500.02, 0.00, 0.00, 0.00
211, 0.00, -187500.02, -187500.02, -187500.02, 187500.00, -187500.02, -43147.34, -187500.02, 0.00, 0.00, 0.00
212, 0.00, -187500.02, -187500.02, -187500.02, 187500.00, -187500.02, -44198.41, -187500.02, 0.00, 0.00, 0.00
213, 0.00, -187500.02, -187500.02, -187500.02, 187500.00, -187500.02, -45775.68, -187500.02, 0.00, 0.00, 0.00
214, 0.00, -187500.02, -187500.02, -187500.02, 187500.00, -187500.02, -45537.21, -187500.02, 0.00, 0.00, 0.00
215, 0.00, -187500.02, -187500.02, -187500.02, 187500.00, -187500.02, -44562.63, -187500.02, 0.00, 0.00, 0.00
216, 0.00, -187500.02, -187500.02, -187500.02, 187500.00, -187500.02, -45236.04, -187500.02, 0.00, 0.00, 0.00
217, 0.00, -187500.02, -187500.02, -187500.02, 187500.00, -187500.02, -46800.33, -187500.02, 0.00, 0.00, 0.00
218, 0.00, -187500.02, -187500.02, -187500.02, 187500.00, -187500.02, -46793.87, -187500.02, 0.00, 0.00, 0.00
219, 0.00, -187500.02, -187500.02, -187500.02, 187500.00, -187500.02, -45644.85, -187500.02, 0.00, 0.00, 0.00
220, 0.00, -187500.02, -187500.02, -187500.02, 187500.00, -187500.02, -45939.79, -187500.02, 0.00, 0.00, 0.00
221, 0.00, -187500.02, -187500.02, -187500.02, 187500.00, -187500.02, -47611.16, -187500.02, 0.00, 0.00, 0.00
222, 0.00, -187500.02, -187500.02, -187500.02, 187500.00, -187500.02, -48187.81, -187500.02, 0.00, 0.00, 0.00
223, 0.00, -187500.02, -187500.02, -187500.02, 187500.00, -187500.02, -47213.79, -187500.02, 0.00, 0.00, 0.00
224, 0.00, -187500.02, -187500.02, -187500.02, 187500.00, -187500.02, -47263.93, -187500.02, 0.00, 0.00, 0.00
225, 0.00, -187500.02, -187500.02, -187500.02, 187500.00, -187500.02, -49035.95, -187500.02, 0.00, 0.00, 0.00
226, 0.00, -187500.02, -187500.02, -187500.02, 187500.00, -187500.02, -49850.69, -187500.02, 0.00, 0.00, 0.00
227, 0.00, -187500.02, -187500.02, -187500.02, 187500.00, -187500.02, -48898.69, -187500.02, 0.00, 0.00, 0.00
228, 0.00, -187500.02, -187500.02, -187500.02, 187500.00, -187500.02, -48577.52, -187500.02, 0.00, 0.00, 0.00
229, 0.00, -187500.02, -187500.02, -187500.02, 187500.00, -187500.02, -50102.13, -187500.02, 0.00, 0.00, 0.00
230, 0.00, -187500.02, -187500.02, -187500.02, 187500.00, -187500.02, -51187.44, -187500.02, 0.00, 0.00, 0.00
231, 0.00, -187500.02, -187500.02, -187500.02, 187500.00, -187500.02, -50432.95, -187500.02, 0.00, 0.00, 0.00
232, 0.00, -187500.02, -187500.02, -187500.02, 187500.00, -187500.02, -49726.75, -187500.02, 0.00, 0.00, 0.00
233, 0.00, -187500.02, -187500.02, -187500.02, 187500.00, -187500.02, -51000.55, -187500.02, 0.00, 0.00, 0.00
234, 0.00, -187500.02, -187500.02, -187500.02, 187500.00, -187500.02, -52410.08, -187500.02, 0.00, 0.00, 0.00
235, 0.00, -187500.02, -187500.02, -187500.02, 187500.00, -187500.02, -51893.29, -187500.02, 0.00, 0.00, 0.00
236, 0.00, -187500.02, -187500.02, -187500.02, 187500.00, -187500.02, -50907.59, -187500.02, 0.00, 0.00, 0.00
237, 0.00, -187500.02, -187500.02, -187500.02, 187500.00, -187500.02, -51833.67, -187500.02, 0.00, 0.00, 0.00
238, 0.00, -187500.02, -187500.02, -187500.02, 187500.00, -187500.02, -53465.37, -187500.02, 0.00, 0.00, 0.00
239, 0.00, -187500.02, -187500.02, -187500.02, 187500.00, -187500.02, -53350.39, -187500.02, 0.00, 0.00, 0.00
240, 0.00, -187500.02, -187500.02, -187500.02, 187500.00, -187500.02, -52040.61, -187500.02, 0.00, 0.00, 0.00
241, 0.00, -187500.02, -187500.02, -187500.02, 187500.00, -187500.02, -52673.27, -187500.02, 0.00, 0.00, 0.00
242, 0.00, -187500.02, -187500.02, -187500.02, 187500.00, -187500.02, -54491.85, -187500.02, 0.00, 0.00, 0.00
243, 0.00, -187500.02, -187500.02, -187500.02, 187500.00, -187500.02, -54780.12, -187500.02, 0.00, 0.00, 0.00
244, 0.00, -187500.02, -187500.02, -187500.02, 187500.00, -187500.02, -53328.18, -187500.02, 0.00, 0.00, 0.00
245, 0.00, -187500.02, -187500.02, -187500.02, 187500.00, -187500.02, -53492.80, -187500.02, 0.00, 0.00, 0.00
246, 0.00, -187500.02, -187500.02, -187500.02, 187500.00, -187500.02, -55411.02, -187500.02, 0.00, 0.00, 0.00
247, 0.00, -187500.02, -187500.02, -187500.02, 187500.00, -187500.02, -55890.58, -187500.02, 0.00, 0.00, 0.00
248, 0.00, -187500.02, -187500.02, -187500.02, 187500.00, -187500.02, -54672.23, -187500.02, 0.00, 0.00, 0.00
249, 0.00, -187500.02, -187500.02, -187500.02, 187500.00, -187500.02, -54405.80, -187500.02, 0.00, 0.00, 0.00
250, 0.00, -187500.02, -187500.02, -187500.02, 187500.00, -187500.02, -56268.28, -187500.02, 0.00, 0.00, 0.00
251, 0.00, -187500.02, -187500.02, -187500.02, 187500.00, -187500.02, -57112.10, -187500.02, 0.00, 0.00, 0.00
252, 0.00, -187500.02, -187500.02, -187500.02, 187500.00, -187500.02, -56124.36, -187500.02, 0.00, 0.00, 0.00
253, 0.00, -187500.02, -187500.02, -187500.02, 187500.00, -187500.02, -55408.43, -187500.02, 0.00, 0.00, 0.00
254, 0.00, -187500.02, -187500.02, -187500.02, 187500.00, -187500.02, -57035.23, -187500.02, 0.00, 0.00, 0.00
255, 0.00, -187500.02, -187500.02, -187500.02, 187500.00, -187500.02, -58117.48, -187500.02, 0.00, 0.00, 0.00
0, 0.00, -187500.02, -187500.02, -187500.02, 187500.00, -187500.02, -57295.43, -187500.02, 0.00, 0.00, 0.00
1, 0.00, -187500.02, -187500.02, -187500.02, 187500.00, -187500.02, -56289.38, -187500.02, 0.00, 0.00, 0.00
2, 0.00, -187500.02, -187500.02, -187500.02, 187500.00, -187500.02, -57639.96, -187500.02, 0.00, 0.00, 0.00
3, 0.00, -187500.02, -187500.02, -187500.02, 187500.00, -187500.02, -59121.50, -187500.02, 0.00, 0.00, 0.00
4, 0.00, -187500.02, -187500.02, -187500.02, 187500.00, -187500.02, -58713.61, -187500.02, 0.00, 0.00, 0.00
5, 0.00, -187500.02, -187500.02, -187500.02, 187500.00, -187500.02, -57626.21, -187500.02, 0.00, 0.00, 0.00
6, 0.00, -187500.02, -187500.02, -187500.02, 187500.00, -187500.02, -58645.12, -187500.02, 0.00, 0.00, 0.00
7, 0.00, -187500.02, -187500.02, -187500.02, 187500.00, -187500.02, -60545.06, -187500.02, 0.00, 0.00, 0.00
8, 0.00, -187500.02, -187500.02, -187500.02, 187500.00, -187500.02, -60525.28, -187500.02, 0.00, 0.00, 0.00
9, 0.00, -187500.02, -187500.02, -187500.02, 187500.00, -187500.02, -59235.63, -187500.02, 0.00, 0.00, 0.00
10, 0.00, -187500.02, -187500.02, -187500.02, 187500.00, -187500.02, -59707.30, -187500.02, 0.00, 0.00, 0.00
11, 0.00, -187500.02, -187500.02, -187500.02, 187500.00, -187500.02, -61641.88, -187500.02, 0.00, 0.00, 0.00
12, 0.00, -187500.02, -187500.02, -187500.02, 187500.00, -187500.02, -61954.61, -187500.02, 0.00, 0.00, 0.00
13, 0.00, -187500.02, -187500.02, -187500.02, 187500.00, -187500.02, -60642.40, -187500.02, 0.00, 0.00, 0.00
14, 0.00, -187500.02, -187500.02, -187500.02, 187500.00, -187500.02, -60746.34, -187500.02, 0.00, 0.00, 0.00
15, 0.00, -187500.02, -187500.02, -187500.02, 187500.00, -187500.02, -62745.64, -187500.02, 0.00, 0.00, 0.00
16, 0.00, -187500.02, -187500.02, -187500.02, 187500.00, -187500.02, -63394.15, -187500.02, 0.00, 0.00, 0.00
17, 0.00, -187500.02, -187500.02, -187500.02, 187500.00, -187500.02, -62135.52, -187500.02, 0.00, 0.00, 0.00
18, 0.00, -187500.02, -187500.02, -187500.02, 187500.00, -187500.02, -61645.35, -187500.02, 0.00, 0.00, 0.00
19, 0.00, -187500.02, -187500.02, -187500.02, 187500.00, -187500.02, -63573.68, -187500.02, 0.00, 0.00, 0.00
20, 0.00, -187500.02, -187500.02, -187500.02, 187500.00, -187500.02, -64633.84, -187500.02, 0.00, 0.00, 0.00
21, 0.00, -187500.02, -187500.02, -187500.02, 187500.00, -187500.02, -63608.88, -187500.02, 0.00, 0.00, 0.00
22, 0.00, -187500.02, -187500.02, -187500.02, 187500.00, -187500.02, -62645.90, -187500.02, 0.00, 0.00, 0.00
23, 0.00, -187500.02, -187500.02, -187500.02, 187500.00, -187500.02, -64430.15, -187500.02, 0.00, 0.00, 0.00
24, 0.00, -187500.02, -187500.02, -187500.02, 187500.00, -187500.02, -65872.42, -187500.02, 0.00, 0.00, 0.00
25, 0.00, -187500.02, -187500.02, -187500.02, 187500.00, -187500.02, -65140.11, -187500.02, 0.00, 0.00, 0.00
26, 0.00, -187500.02, -187500.02, -187500.02, 187500.00, -187500.02, -63841.32, -187500.02, 0.00, 0.00, 0.00
27, 0.00, -187500.02, -187500.02, -187500.02, 187500.00, -187500.02, -65221.76, -187500.02, 0.00, 0.00, 0.00
