%OpenBCI Raw EEG Data
%
%Sample Rate = 250.0 Hz
%First Column = SampleIndex
%Other Columns = EEG data in microvolts followed by Accel Data (in G) interleaved with Aux Data
0, -142437.61, -125369.50, -168646.91, -169070.67, -137943.89, -167784.50, 101054.78, -169017.41, 0.00, 0.00, 0.00
1, -142780.38, -118685.13, -168584.70, -167711.81, -135902.56, -167834.92, 100823.77, -168859.80, -0.00, -0.00, -0.00
2, -143440.66, -113423.23, -168547.06, -167330.61, -131690.22, -167748.36, 100656.67, -168526.61, -0.00, -0.00, -0.00
3, -143294.64, -119227.66, -168541.67, -168099.28, -133026.42, -167772.44, 100924.45, -168611.97, -0.00, -0.00, -0.00
4, -142655.48, -125356.78, -168565.94, -168147.30, -137448.97, -167769.06, 101206.73, -168939.69, -0.00, -0.00, -0.00
5, -142821.16, -120117.04, -168535.41, -167641.59, -136532.63, -167833.88, 101054.58, -168843.06, -0.00, -0.00, -0.00
6, -143516.98, -113373.85, -168483.55, -167779.88, -132002.38, -167704.55, 100839.27, -168494.02, -0.00, -0.00, -0.00
7, -143553.72, -117434.20, -168488.98, -168581.72, -132148.36, -167701.44, 101040.74, -168506.36, -0.00, -0.00, -0.00
8, -142893.61, -124851.66, -168509.08, -168802.14, -136697.66, -167810.83, 101376.24, -168855.33, -0.00, -0.00, -0.00
9, -142885.95, -121443.44, -168488.53, -168308.66, -136986.44, -167829.00, 101295.94, -168846.48, -0.00, -0.00, -0.00
10, -143578.02, -113701.17, -168438.78, -168270.36, -132453.33, -167698.16, 101044.68, -168499.64, -0.00, -0.00, -0.00
11, -143789.91, -115765.42, -168425.11, -169411.67, -131408.38, -167644.42, 101166.02, -168428.09, -0.00, -0.00, -0.00
12, -143176.17, -123933.09, -168469.66, -170525.55, -135766.86, -167750.70, 101511.77, -168786.53, -0.00, -0.00, -0.00
13, -143021.36, -122625.16, -168471.50, -169959.47, -137271.84, -167783.91, 101490.02, -168885.34, -0.00, -0.00, -0.00
14, -143698.94, -114391.35, -168449.42, -169519.78, -133054.39, -167733.78, 101198.28, -168588.94, -0.00, -0.00, -0.00
15, -144080.06, -114356.13, -168443.77, -169955.86, -130896.08, -167647.52, 101219.29, -168417.69, -0.00, -0.00, -0.00
16, -143541.72, -122679.58, -168486.45, -170252.88, -134760.20, -167718.77, 101564.29, -168736.70, -0.00, -0.00, -0.00
17, -143231.06, -123571.13, -168503.38, -169670.56, -137373.19, -167717.58, 101626.90, -168905.27, -0.00, -0.00, -0.00
18, -143841.11, -115407.71, -168459.95, -169112.98, -133752.23, -167745.45, 101340.08, -168657.63, -0.00, -0.00, -0.00
19, -144352.86, -113263.35, -168453.52, -169426.58, -130609.82, -167635.31, 101278.25, -168400.25, -0.00, -0.00, -0.00
20, -143894.92, -121207.05, -168481.91, -169821.44, -133735.38, -167702.05, 101603.63, -168650.61, -0.00, -0.00, -0.00
21, -143443.55, -124303.99, -168522.36, -169372.55, -137314.78, -167662.08, 101746.70, -168895.05, -0.00, -0.00, -0.00
22, -143987.19, -116675.86, -168459.80, -168753.56, -134513.05, -167715.84, 101480.52, -168699.81, -0.00, -0.00, -0.00
23, -144616.16, -112510.92, -168446.92, -168924.22, -130553.70, -167621.63, 101338.36, -168393.70, -0.00, -0.00, -0.00
24, -144266.25, -119531.36, -168458.19, -169371.50, -132713.36, -167671.41, 101627.14, -168555.59, -0.00, -0.00, -0.00
25, -143669.14, -124724.09, -168515.16, -169055.20, -137041.67, -167649.45, 101850.37, -168868.88, -0.00, -0.00, -0.00
26, -144085.31, -118219.87, -168454.36, -168396.16, -135322.53, -167710.31, 101632.46, -168741.34, -0.00, -0.00, -0.00
27, -144818.20, -112237.49, -168426.22, -168422.78, -130809.87, -167618.59, 101420.73, -168409.64, -0.00, -0.00, -0.00
28, -144633.27, -117771.72, -168417.45, -168905.44, -131807.88, -167645.44, 101645.91, -168471.44, -0.00, -0.00, -0.00
29, -143935.50, -124686.38, -168482.17, -168723.50, -136534.38, -167640.09, 101931.55, -168828.98, -0.00, -0.00, -0.00
30, -144170.02, -119829.77, -168445.17, -167509.83, -136048.56, -167648.11, 101780.41, -168775.73, -0.00, -0.00, -0.00
31, -144954.70, -112414.16, -168384.05, -166815.38, -131296.31, -167597.33, 101534.00, -168428.03, -0.00, -0.00, -0.00
32, -144933.72, -116050.74, -168374.45, -167481.33, -131032.74, -167577.92, 101710.54, -168367.61, -0.00, -0.00, -0.00
33, -144161.14, -124167.09, -168401.19, -167701.13, -135788.92, -167635.11, 102065.05, -168721.06, -0.00, -0.00, -0.00
34, -144181.64, -121296.86, -168382.80, -167291.58, -136567.05, -167661.48, 102011.50, -168744.22, -0.00, -0.00, -0.00
35, -144980.16, -112941.30, -168321.84, -167271.42, -131900.44, -167574.20, 101741.67, -168397.05, -0.00, -0.00, -0.00
36, -145154.14, -114434.71, -168305.28, -167947.58, -130390.87, -167500.14, 101834.37, -168282.61, -0.00, -0.00, -0.00
37, -144367.14, -123219.40, -168340.34, -168289.05, -134857.33, -167620.42, 102208.18, -168624.61, -0.00, -0.00, -0.00
38, -144182.14, -122621.20, -168340.92, -167930.19, -136925.48, -167627.91, 102241.15, -168741.98, -0.00, -0.00, -0.00
39, -145122.61, -113505.41, -168285.11, -167883.80, -132530.66, -167559.27, 101956.20, -168421.47, -0.00, -0.00, -0.00
40, -145601.20, -112424.78, -168233.39, -168711.13, -129587.56, -167424.64, 101957.66, -168207.52, -0.00, -0.00, -0.00
41, -144791.48, -121444.55, -168297.66, -169916.44, -133418.42, -167556.88, 102322.80, -168512.95, -0.00, -0.00, -0.00
42, -144293.09, -123576.33, -168323.19, -169630.64, -136829.02, -167615.56, 102432.52, -168751.19, -0.00, -0.00, -0.00
43, -145114.98, -114902.54, -168293.92, -169199.30, -133354.69, -167595.25, 102144.02, -168518.64, -0.00, -0.00, -0.00
44, -145816.83, -111513.54, -168262.61, -169551.41, -129479.63, -167449.47, 102039.84, -168231.98, -0.00, -0.00, -0.00
45, -145189.64, -119702.17, -168309.14, -169838.63, -132326.84, -167531.59, 102363.52, -168462.88, -0.00, -0.00, -0.00
46, -144487.64, -124175.45, -168361.47, -169319.98, -136621.92, -167533.27, 102553.76, -168755.44, -0.00, -0.00, -0.00
47, -145134.50, -116507.21, -168310.03, -168781.91, -134224.25, -167589.28, 102300.98, -168586.19, -0.00, -0.00, -0.00
48, -145998.84, -111022.38, -168275.48, -169022.03, -129649.03, -167457.97, 102120.94, -168252.81, -0.00, -0.00, -0.00
49, -145591.55, -117806.48, -168285.05, -169412.78, -131299.64, -167504.02, 102391.55, -168380.61, -0.00, -0.00, -0.00
50, -144736.55, -124310.74, -168353.88, -169019.33, -136150.75, -167505.91, 102653.38, -168724.70, -0.00, -0.00, -0.00
51, -145162.39, -118190.86, -168307.98, -168402.53, -135010.14, -167546.59, 102457.80, -168631.86, -0.00, -0.00, -0.00
52, -146138.50, -110999.90, -168268.94, -168509.28, -130062.31, -167465.83, 102211.44, -168288.61, -0.00, -0.00, -0.00
53, -145980.64, -115936.51, -168279.06, -168965.81, -130418.36, -167471.02, 102409.79, -168298.69, -0.00, -0.00, -0.00
54, -145042.50, -123978.55, -168344.66, -168712.03, -135467.38, -167486.56, 102726.18, -168667.39, -0.00, -0.00, -0.00
55, -145213.72, -119851.79, -168313.97, -167589.89, -135666.08, -167494.94, 102605.52, -168649.45, -0.00, -0.00, -0.00
56, -146215.81, -111441.32, -168231.72, -166892.25, -130678.64, -167445.34, 102333.91, -168296.05, -0.00, -0.00, -0.00
57, -146294.53, -114188.40, -168227.11, -167532.84, -129704.93, -167399.86, 102474.61, -168197.39, -0.00, -0.00, -0.00
58, -145324.88, -123154.66, -168262.00, -167683.78, -134563.75, -167470.73, 102847.62, -168552.67, -0.00, -0.00, -0.00
59, -145212.78, -121295.56, -168254.16, -167263.16, -136076.09, -167504.50, 102832.05, -168620.19, -0.00, -0.00, -0.00
60, -146186.44, -112251.41, -168185.45, -167308.92, -131396.45, -167430.27, 102549.38, -168281.61, -0.00, -0.00, -0.00
61, -146517.00, -112643.80, -168155.94, -168010.77, -129173.12, -167325.42, 102605.32, -168114.89, -0.00, -0.00, -0.00
62, -145617.08, -121851.85, -168197.19, -168315.80, -133495.34, -167463.69, 102988.20, -168443.33, -0.00, -0.00, -0.00
63, -145246.30, -122440.88, -168203.64, -167918.45, -136227.33, -167508.38, 103064.60, -168606.89, -0.00, -0.00, -0.00
64, -146133.17, -113411.83, -168147.00, -167815.03, -132192.22, -167431.34, 102786.59, -168306.58, -0.00, -0.00, -0.00
65, -146693.84, -111420.78, -168090.92, -168600.47, -128871.39, -167279.27, 102755.84, -168063.77, -0.00, -0.00, -0.00
66, -145939.86, -120200.68, -168146.69, -169851.39, -132356.50, -167398.27, 103113.91, -168343.47, -0.00, -0.00, -0.00
67, -145358.89, -123249.05, -168180.05, -169624.19, -136143.39, -167459.91, 103258.59, -168610.69, -0.00, -0.00, -0.00
68, -146129.47, -114870.55, -168149.23, -169151.47, -133054.56, -167459.39, 102980.77, -168404.88, -0.00, -0.00, -0.00
69, -146905.53, -110636.35, -168115.20, -169464.95, -128870.95, -167303.94, 102843.97, -168095.55, -0.00, -0.00, -0.00
70, -146357.97, -118356.28, -168147.61, -169791.94, -131276.38, -167374.75, 103147.24, -168283.50, -0.00, -0.00, -0.00
71, -145592.53, -123649.91, -168207.08, -169317.34, -135822.31, -167383.16, 103367.00, -168603.27, -0.00, -0.00, -0.00
72, -146169.09, -116486.05, -168153.67, -168747.31, -133877.02, -167443.30, 103134.90, -168462.92, -0.00, -0.00, -0.00
73, -147089.52, -110283.26, -168117.14, -168939.31, -129105.02, -167316.41, 102927.90, -168122.11, -0.00, -0.00, -0.00
74, -146774.16, -116417.07, -168131.56, -169356.28, -130264.15, -167348.59, 103172.61, -168213.13, -0.00, -0.00, -0.00
75, -145882.83, -123570.99, -168199.91, -169015.42, -135230.95, -167360.14, 103457.05, -168572.52, -0.00, -0.00, -0.00
76, -146227.81, -118138.15, -168163.33, -168380.41, -134581.66, -167397.59, 103285.24, -168510.00, -0.00, -0.00, -0.00
77, -147234.98, -110393.25, -168117.80, -168431.94, -129559.73, -167329.22, 103021.69, -168167.91, -0.00, -0.00, -0.00
78, -147174.86, -114516.48, -168123.13, -168900.70, -129396.50, -167318.05, 103192.34, -168131.45, -0.00, -0.00, -0.00
79, -146226.69, -122977.88, -168184.42, -168710.69, -134409.78, -167344.88, 103524.73, -168503.66, -0.00, -0.00, -0.00
80, -146307.19, -119666.92, -168169.88, -167688.50, -135108.84, -167347.91, 103434.35, -168522.14, -0.00, -0.00, -0.00
81, -147323.83, -110904.13, -168090.86, -166847.83, -130177.92, -167312.91, 103148.13, -168180.86, -0.00, -0.00, -0.00
82, -147510.69, -112722.93, -168073.89, -167436.33, -128684.29, -167255.22, 103252.67, -168039.67, -0.00, -0.00, -0.00
83, -146569.09, -121828.56, -168102.64, -167652.03, -133345.56, -167329.58, 103630.30, -168380.94, -0.00, -0.00, -0.00
84, -146369.28, -120879.50, -168106.03, -167242.88, -135323.16, -167359.39, 103645.66, -168481.72, -0.00, -0.00, -0.00
85, -147328.77, -111737.91, -168037.64, -167234.70, -130832.34, -167302.47, 103359.80, -168153.67, -0.00, -0.00, -0.00
86, -147763.20, -111164.16, -167998.81, -167922.33, -128133.74, -167179.31, 103381.46, -167958.41, -0.00, -0.00, -0.00
87, -146921.61, -120242.13, -168034.64, -168288.98, -132131.19, -167300.81, 103759.45, -168267.48, -0.00, -0.00, -0.00
88, -146466.02, -121767.61, -168046.25, -167914.19, -135267.09, -167354.72, 103870.09, -168461.27, -0.00, -0.00, -0.00
89, -147310.31, -112910.80, -167995.11, -167762.39, -131548.64, -167301.02, 103596.33, -168183.84, -0.00, -0.00, -0.00
90, -147959.25, -109995.99, -167934.97, -168520.88, -127846.95, -167135.36, 103530.69, -167913.42, -0.00, -0.00, -0.00
91, -147287.69, -118384.24, -168000.64, -169827.00, -130911.52, -167245.84, 103872.09, -168167.03, -0.00, -0.00, -0.00
92, -146634.84, -122335.34, -168036.41, -169638.52, -135010.36, -167297.73, 104042.90, -168454.98, -0.00, -0.00, -0.00
93, -147332.56, -114398.59, -168006.25, -169122.97, -132346.70, -167310.69, 103780.24, -168270.70, -0.00, -0.00, -0.00
94, -148171.72, -109361.88, -167968.80, -169393.14, -127905.33, -167160.80, 103616.41, -167950.23, -0.00, -0.00, -0.00
95, -147719.14, -116493.11, -168008.98, -169763.59, -129832.98, -167221.91, 103899.27, -168113.77, -0.00, -0.00, -0.00
96, -146900.39, -122558.73, -168065.16, -169336.86, -134574.02, -167233.09, 104146.45, -168445.52, -0.00, -0.00, -0.00
97, -147387.17, -116060.67, -168019.27, -168734.30, -133134.97, -167279.36, 103935.92, -168333.64, -0.00, -0.00, -0.00
98, -148342.27, -109247.30, -167980.94, -168871.48, -128256.18, -167172.53, 103703.84, -167988.59, -0.00, -0.00, -0.00
99, -148124.56, -114641.78, -168003.34, -169314.50, -128925.62, -167187.28, 103919.67, -168031.17, -0.00, -0.00, -0.00
100, -147202.77, -122369.23, -168068.50, -169031.42, -133959.34, -167213.22, 104224.44, -168402.78, -0.00, -0.00, -0.00
101, -147442.09, -117762.87, -168033.84, -168375.94, -133844.36, -167260.53, 104081.99, -168374.28, -0.00, -0.00, -0.00
102, -148454.77, -109605.28, -167980.33, -168365.67, -128850.83, -167192.09, 103803.38, -168036.36, -0.00, -0.00, -0.00
103, -148492.52, -112881.54, -167977.25, -168845.14, -128202.80, -167161.19, 103940.39, -167959.19, -0.00, -0.00, -0.00
104, -147541.05, -121683.61, -168031.58, -168715.13, -133143.06, -167194.06, 104284.14, -168328.64, -0.00, -0.00, -0.00
105, -147515.52, -119305.09, -168029.44, -168039.98, -134362.39, -167201.34, 104224.28, -168388.84, -0.00, -0.00, -0.00
106, -148522.28, -110388.34, -167953.44, -167875.81, -129608.04, -167191.69, 103919.98, -168076.17, -0.00, -0.00, -0.00
107, -148818.11, -111334.13, -167959.81, -168350.41, -127684.05, -167128.09, 103972.84, -167904.20, -0.00, -0.00, -0.00
108, -147922.52, -120542.88, -168005.73, -168381.72, -132168.81, -167178.34, 104331.55, -168245.06, -0.00, -0.00, -0.00
109, -147637.38, -120587.01, -168032.11, -167470.86, -134648.58, -167164.94, 104362.37, -168389.41, -0.00, -0.00, -0.00
110, -148560.28, -111536.01, -167930.81, -166365.38, -130458.30, -167180.45, 104067.08, -168102.08, -0.00, -0.00, -0.00
111, -149071.53, -110082.09, -167905.25, -166828.19, -127382.68, -167074.34, 104050.97, -167848.92, -0.00, -0.00, -0.00
112, -148278.14, -118974.73, -167922.55, -167251.23, -131063.65, -167160.16, 104420.93, -168120.11, -0.00, -0.00, -0.00
113, -147729.77, -121450.34, -167948.91, -166907.20, -134602.11, -167175.33, 104563.91, -168341.28, -0.00, -0.00, -0.00
114, -148508.30, -112893.90, -167885.22, -166712.42, -131268.81, -167180.47, 104302.52, -168092.42, -0.00, -0.00, -0.00
115, -149220.27, -109146.00, -167828.98, -167293.23, -127262.18, -167018.13, 104206.31, -167792.06, -0.00, -0.00, -0.00
116, -148612.52, -117098.53, -167859.83, -167842.16, -129908.91, -167106.38, 104539.46, -168002.23, -0.00, -0.00, -0.00
117, -147866.86, -121872.84, -167886.83, -167589.23, -134271.19, -167164.59, 104764.92, -168300.61, -0.00, -0.00, -0.00
118, -148456.84, -114418.60, -167841.23, -167283.67, -132041.88, -167170.09, 104545.99, -168122.91, -0.00, -0.00, -0.00
119, -149318.05, -108649.95, -167771.78, -167763.73, -127389.43, -166988.22, 104378.84, -167778.63, -0.00, -0.00, -0.00
120, -148934.73, -115136.38, -167805.00, -168988.30, -128824.74, -167034.94, 104657.16, -167902.03, -0.00, -0.00, -0.00
121, -148061.59, -121873.80, -167855.81, -169368.86, -133701.45, -167132.66, 104937.10, -168261.31, -0.00, -0.00, -0.00
122, -148446.69, -116049.59, -167844.03, -168772.89, -132755.92, -167166.95, 104756.43, -168186.30, -0.00, -0.00, -0.00
123, -149421.92, -108657.19, -167802.75, -168849.25, -127793.95, -167020.55, 104509.27, -167838.39, -0.00, -0.00, -0.00
124, -149303.77, -113252.58, -167816.36, -169311.80, -127946.55, -167023.56, 104698.18, -167854.83, -0.00, -0.00, -0.00
125, -148363.44, -121449.25, -167878.14, -169086.88, -132973.52, -167082.84, 105021.68, -168231.66, -0.00, -0.00, -0.00
126, -148497.08, -117670.71, -167865.78, -168417.23, -133371.16, -167121.95, 104912.40, -168235.06, -0.00, -0.00, -0.00
127, -149506.03, -109160.09, -167819.17, -168343.59, -128431.55, -167053.41, 104624.29, -167900.38, -0.00, -0.00, -0.00
128, -149638.80, -111557.53, -167820.58, -168822.81, -127282.23, -167006.00, 104733.09, -167798.81, -0.00, -0.00, -0.00
129, -148697.88, -120600.64, -167875.97, -168755.31, -132087.27, -167063.70, 105086.09, -168165.13, -0.00, -0.00, -0.00
130, -148567.25, -119143.87, -167883.50, -168084.36, -133815.48, -167046.89, 105059.81, -168253.91, -0.00, -0.00, -0.00
131, -149548.39, -110099.68, -167811.33, -167860.20, -129248.69, -167048.78, 104751.55, -167951.92, -0.00, -0.00, -0.00
132, -149933.19, -110131.53, -167805.09, -168319.73, -126866.30, -166976.28, 104768.34, -167760.94, -0.00, -0.00, -0.00
133, -149069.52, -119326.48, -167840.27, -168408.98, -131094.09, -167037.91, 105123.78, -168088.33, -0.00, -0.00, -0.00
134, -148681.16, -120335.06, -167881.52, -167593.95, -134027.31, -167011.53, 105187.87, -168259.03, -0.00, -0.00, -0.00
135, -149555.78, -111413.90, -167783.09, -166416.64, -130151.07, -167037.02, 104896.82, -167993.27, -0.00, -0.00, -0.00
136, -150144.34, -109073.20, -167753.08, -166755.94, -126696.61, -166927.00, 104847.73, -167711.38, -0.00, -0.00, -0.00
137, -149408.02, -117708.93, -167768.59, -167228.64, -130022.48, -167015.92, 105203.78, -167953.75, -0.00, -0.00, -0.00
138, -148769.09, -121128.73, -167803.22, -166914.08, -133937.73, -167025.91, 105378.44, -168197.97, -0.00, -0.00, -0.00
139, -149476.34, -112935.83, -167751.58, -166673.63, -131024.24, -167044.19, 105129.80, -167973.56, -0.00, -0.00, -0.00
140, -150248.52, -108379.88, -167690.78, -167211.89, -126744.29, -166881.88, 105002.86, -167655.22, -0.00, -0.00, -0.00
141, -149711.73, -115861.25, -167723.28, -167795.55, -128956.33, -166958.83, 105318.22, -167831.78, -0.00, -0.00, -0.00
142, -148892.14, -121456.07, -167754.11, -167584.45, -133575.73, -167026.91, 105573.27, -168151.98, -0.00, -0.00, -0.00
143, -149397.48, -114547.91, -167713.52, -167247.89, -131824.33, -167037.39, 105374.61, -168004.13, -0.00, -0.00, -0.00
144, -150302.47, -108076.31, -167642.30, -167676.61, -126997.82, -166861.00, 105184.06, -167647.94, -0.00, -0.00, -0.00
145, -150009.28, -113883.38, -167670.02, -168928.44, -127943.08, -166887.27, 105436.48, -167735.80, -0.00, -0.00, -0.00
146, -149095.86, -121258.19, -167725.67, -169362.92, -132924.80, -166967.77, 105737.34, -168106.55, -0.00, -0.00, -0.00
147, -149388.86, -116155.10, -167712.70, -168749.52, -132485.48, -167020.86, 105581.03, -168063.23, -0.00, -0.00, -0.00
148, -150391.14, -108249.43, -167674.20, -168769.98, -127481.96, -166895.55, 105313.37, -167717.03, -0.00, -0.00, -0.00
149, -150371.83, -112020.70, -167679.34, -169244.00, -127119.24, -166878.09, 105471.46, -167696.77, -0.00, -0.00, -0.00
150, -149423.48, -120613.85, -167740.53, -169078.95, -132095.59, -166937.00, 105809.53, -168074.77, -0.00, -0.00, -0.00
151, -149458.69, -117679.29, -167734.44, -168403.61, -132998.98, -166967.66, 105732.02, -168108.84, -0.00, -0.00, -0.00
152, -150470.67, -108869.95, -167679.27, -168272.84, -128151.09, -166918.55, 105433.78, -167781.38, -0.00, -0.00, -0.00
153, -150712.05, -110355.63, -167676.17, -168753.66, -126500.38, -166854.97, 105506.38, -167644.88, -0.00, -0.00, -0.00
154, -149800.84, -119522.75, -167725.39, -168751.91, -131103.80, -166910.97, 105864.27, -167999.44, -0.00, -0.00, -0.00
155, -149576.23, -118981.35, -167746.81, -168091.73, -133294.00, -166908.38, 105871.00, -168120.19, -0.00, -0.00, -0.00
156, -150536.72, -109896.57, -167673.03, -167813.97, -128949.55, -166923.63, 105561.12, -167837.44, -0.00, -0.00, -0.00
157, -151023.20, -108996.02, -167664.59, -168259.25, -126125.44, -166832.91, 105544.69, -167605.98, -0.00, -0.00, -0.00
158, -150225.52, -118019.17, -167694.84, -168414.06, -130014.39, -166910.55, 105895.21, -167902.41, -0.00, -0.00, -0.00
159, -149757.89, -119929.42, -167745.08, -167690.14, -133324.64, -166872.73, 105991.37, -168108.06, -0.00, -0.00, -0.00
160, -150585.66, -111200.39, -167653.48, -166484.30, -129774.24, -166900.84, 105706.05, -167860.66, -0.00, -0.00, -0.00
161, -151261.00, -107965.34, -167614.94, -166680.50, -125959.38, -166784.69, 105622.85, -167560.94, -0.00, -0.00, -0.00
162, -150619.45, -116172.98, -167632.25, -167210.59, -128849.78, -166863.88, 105965.15, -167776.34, -0.00, -0.00, -0.00
163, -149937.67, -120382.05, -167664.47, -166949.69, -133014.83, -166876.59, 106166.78, -168051.19, -0.00, -0.00, -0.00
164, -150507.41, -112771.95, -167610.67, -166629.03, -130540.46, -166903.80, 105932.38, -167854.55, -0.00, -0.00, -0.00
165, -151190.86, -107845.80, -167555.67, -167029.47, -126241.53, -166745.89, 105786.58, -167527.14, -0.00, -0.00, -0.00
166, -150818.59, -114567.39, -167578.11, -167696.17, -128059.17, -166807.95, 106080.64, -167675.19, -0.00, -0.00, -0.00
167, -150132.03, -120382.53, -167601.91, -167647.88, -132580.59, -166886.59, 106349.91, -167996.13, -0.00, -0.00, -0.00
168, -150460.94, -114325.88, -167567.94, -167223.55, -131234.83, -166900.02, 106173.76, -167869.48, -0.00, -0.00, -0.00
169, -151184.27, -107870.77, -167507.70, -167459.08, -126633.34, -166730.42, 105970.00, -167519.69, -0.00, -0.00, -0.00
170, -151071.09, -112754.63, -167525.58, -168763.22, -127210.23, -166744.98, 106191.80, -167577.42, -0.00, -0.00, -0.00
171, -150369.30, -120005.51, -167569.72, -169434.80, -131897.34, -166837.66, 106498.02, -167942.38, -0.00, -0.00, -0.00
172, -150466.48, -115922.91, -167559.33, -168748.95, -131846.14, -166873.88, 106370.52, -167926.50, -0.00, -0.00, -0.00
173, -151186.50, -108422.77, -167537.16, -168527.09, -127279.39, -166772.38, 106103.68, -167600.08, -0.00, -0.00, -0.00
174, -151342.19, -111178.16, -167543.39, -169060.50, -126623.12, -166744.97, 106231.65, -167544.14, -0.00, -0.00, -0.00
175, -150718.08, -119181.84, -167584.64, -169158.47, -131082.30, -166797.14, 106562.70, -167901.20, -0.00, -0.00, -0.00
176, -150599.05, -117243.45, -167577.81, -168443.88, -132237.98, -166818.59, 106514.55, -167956.08, -0.00, -0.00, -0.00
177, -151265.22, -109181.49, -167537.25, -168042.38, -127957.30, -166797.56, 106225.73, -167660.05, -0.00, -0.00, -0.00
178, -151621.42, -109749.12, -167531.64, -168530.06, -126146.34, -166729.02, 106268.48, -167491.42, -0.00, -0.00, -0.00
179, -151085.53, -117997.31, -167553.56, -168806.47, -130129.30, -166768.06, 106609.99, -167811.69, -0.00, -0.00, -0.00
180, -150788.23, -118283.35, -167582.22, -168170.27, -132414.91, -166760.56, 106641.48, -167960.59, -0.00, -0.00, -0.00
181, -151370.48, -110190.90, -167534.09, -167621.34, -128679.93, -166792.80, 106350.73, -167707.13, -0.00, -0.00, -0.00
182, -151875.89, -108618.21, -167523.92, -168005.58, -125854.02, -166707.66, 106310.39, -167467.11, -0.00, -0.00, -0.00
183, -151466.70, -116516.96, -167527.59, -168425.50, -129111.18, -166752.97, 106638.36, -167727.34, -0.00, -0.00, -0.00
184, -151013.92, -119018.66, -167574.06, -167825.52, -132360.67, -166725.95, 106757.09, -167949.75, -0.00, -0.00, -0.00
185, -151449.36, -111493.45, -167504.48, -166397.72, -129447.22, -166781.98, 106497.48, -167738.22, -0.00, -0.00, -0.00
186, -152048.47, -107877.59, -167478.42, -166374.75, -125807.88, -166673.00, 106396.06, -167439.53, -0.00, -0.00, -0.00
187, -151794.78, -114792.99, -167479.33, -167145.05, -128079.38, -166731.17, 106707.88, -167612.42, -0.00, -0.00, -0.00
188, -151213.39, -119320.02, -167501.03, -167031.56, -132021.20, -166725.50, 106925.02, -167890.55, -0.00, -0.00, -0.00
189, -151469.98, -112873.11, -167464.27, -166520.42, -130121.48, -166768.45, 106721.59, -167725.67, -0.00, -0.00, -0.00
190, -152119.34, -107515.06, -167418.45, -166820.08, -125948.37, -166624.41, 106559.10, -167396.91, -0.00, -0.00, -0.00
191, -152034.61, -113054.63, -167422.72, -167644.97, -127139.27, -166663.30, 106819.79, -167499.42, -0.00, -0.00, -0.00
192, -151391.88, -119265.15, -167438.55, -167698.61, -131502.89, -166738.63, 107107.16, -167827.67, -0.00, -0.00, -0.00
193, -151473.28, -114335.12, -167423.48, -167146.78, -130749.07, -166765.44, 106963.55, -167739.48, -0.00, -0.00, -0.00
194, -152141.61, -107576.84, -167373.95, -167273.44, -126315.38, -166612.88, 106748.38, -167395.42, -0.00, -0.00, -0.00
195, -152246.11, -111346.20, -167386.44, -168649.16, -126331.07, -166606.75, 106938.09, -167408.59, -0.00, -0.00, -0.00
196, -151622.20, -118777.81, -167428.63, -169465.69, -130791.38, -166698.77, 107254.15, -167772.13, -0.00, -0.00, -0.00
197, -151549.89, -115721.95, -167413.78, -168731.09, -131246.67, -166727.77, 107160.77, -167793.84, -0.00, -0.00, -0.00
198, -152213.66, -108065.09, -167394.17, -168413.22, -126874.20, -166650.44, 106885.95, -167480.81, -0.00, -0.00, -0.00
199, -152503.02, -109848.78, -167391.94, -168970.70, -125740.88, -166604.25, 106980.63, -167380.89, -0.00, -0.00, -0.00
200, -151936.41, -117923.27, -167424.31, -169157.77, -129965.48, -166649.66, 107317.18, -167727.75, -0.00, -0.00, -0.00
201, -151699.23, -116949.51, -167434.55, -168437.98, -131589.00, -166663.52, 107301.42, -167821.58, -0.00, -0.00, -0.00
202, -152301.00, -108910.75, -167401.70, -167954.22, -127569.36, -166669.84, 107010.94, -167542.70, -0.00, -0.00, -0.00
203, -152743.14, -108583.83, -167397.06, -168425.64, -125351.53, -166590.70, 107022.16, -167347.19, -0.00, -0.00, -0.00
204, -152280.23, -116689.76, -167417.00, -168780.28, -129029.69, -166640.03, 107359.02, -167649.88, -0.00, -0.00, -0.00
205, -151889.69, -117908.69, -167445.77, -168167.03, -131714.83, -166594.44, 107427.82, -167823.28, -0.00, -0.00, -0.00
206, -152381.53, -110084.15, -167377.17, -167541.42, -128343.76, -166640.09, 107146.19, -167591.00, -0.00, -0.00, -0.00
207, -152941.34, -107682.66, -167378.50, -167880.91, -125208.37, -166566.63, 107075.23, -167329.00, -0.00, -0.00, -0.00
208, -152620.61, -115188.08, -167379.64, -168366.25, -128069.28, -166622.17, 107392.28, -167553.98, -0.00, -0.00, -0.00
209, -152107.61, -118537.35, -167428.55, -167848.77, -131609.33, -166575.14, 107542.93, -167803.03, -0.00, -0.00, -0.00
210, -152458.72, -111445.95, -167365.44, -166440.58, -129112.99, -166631.64, 107296.17, -167618.23, -0.00, -0.00, -0.00
211, -153090.69, -107101.64, -167337.11, -166229.16, -125254.84, -166532.47, 107165.46, -167303.63, -0.00, -0.00, -0.00
212, -152922.81, -113467.13, -167334.08, -167028.88, -127088.10, -166581.78, 107455.96, -167433.77, -0.00, -0.00, -0.00
213, -152306.48, -118695.83, -167354.34, -166976.11, -131209.47, -166587.61, 107701.79, -167733.91, -0.00, -0.00, -0.00
214, -152477.16, -112832.92, -167322.58, -166435.31, -129764.14, -166637.86, 107520.45, -167599.20, -0.00, -0.00, -0.00
215, -153144.58, -106856.09, -167275.38, -166670.72, -125461.48, -166493.94, 107335.51, -167261.72, -0.00, -0.00, -0.00
216, -153151.05, -111675.62, -167283.11, -167519.59, -126163.10, -166513.05, 107571.61, -167321.80, -0.00, -0.00, -0.00
217, -152502.95, -118401.41, -167298.23, -167648.06, -130567.33, -166594.45, 107879.69, -167663.98, -0.00, -0.00, -0.00
218, -152499.39, -114192.24, -167277.75, -167088.47, -130282.93, -166615.64, 107765.11, -167618.94, -0.00, -0.00, -0.00
219, -153159.27, -107027.57, -167231.59, -167134.83, -125848.95, -166481.75, 107534.09, -167276.38, -0.00, -0.00, -0.00
220, -153344.94, -109997.98, -167231.52, -168453.94, -125392.59, -166457.03, 107691.88, -167247.06, -0.00, -0.00, -0.00
221, -152736.44, -117732.53, -167270.48, -169397.42, -129770.02, -166553.34, 108019.98, -167605.95, -0.00, -0.00, -0.00
222, -152581.63, -115508.98, -167264.78, -168690.00, -130696.48, -166573.39, 107955.91, -167660.09, -0.00, -0.00, -0.00
223, -153214.66, -107669.66, -167245.72, -168298.64, -126459.08, -166518.50, 107673.29, -167358.92, -0.00, -0.00, -0.00
224, -153572.22, -108605.54, -167247.30, -168832.42, -124889.34, -166456.16, 107736.25, -167218.02, -0.00, -0.00, -0.00
225, -153043.59, -116741.16, -167282.11, -169089.58, -128908.41, -166514.88, 108076.73, -167550.53, -0.00, -0.00, -0.00
226, -152725.17, -116658.53, -167291.27, -168395.11, -130969.80, -166499.77, 108093.39, -167675.81, -0.00, -0.00, -0.00
227, -153272.55, -108676.50, -167252.72, -167842.69, -127206.68, -166527.91, 107805.05, -167413.16, -0.00, -0.00, -0.00
228, -153770.34, -107502.59, -167254.97, -168273.25, -124615.82, -166445.70, 107782.70, -167191.13, -0.00, -0.00, -0.00
229, -153365.73, -115403.20, -167272.61, -168687.97, -127977.34, -166496.38, 108112.30, -167468.03, -0.00, -0.00, -0.00
230, -152912.13, -117494.60, -167305.91, -168116.34, -131018.66, -166464.31, 108212.68, -167676.56, -0.00, -0.00, -0.00
231, -153343.69, -109929.32, -167246.20, -167438.83, -127988.92, -166524.88, 107941.73, -167464.45, -0.00, -0.00, -0.00
232, -153947.66, -106719.92, -167242.94, -167723.81, -124547.18, -166431.48, 107841.13, -167186.38, -0.00, -0.00, -0.00
233, -153701.30, -113808.04, -167243.81, -168256.30, -127000.28, -166475.31, 108140.06, -167386.64, -0.00, -0.00, -0.00
234, -153147.83, -117946.69, -167293.50, -167845.56, -130799.86, -166428.56, 108318.77, -167654.27, -0.00, -0.00, -0.00
235, -153436.94, -111317.45, -167222.48, -167083.48, -128727.78, -166490.42, 108082.15, -167500.14, -0.00, -0.00, -0.00
236, -154110.63, -106304.91, -167216.61, -167197.13, -124683.99, -166419.70, 107907.58, -167191.09, -0.00, -0.00, -0.00
237, -154042.05, -112091.54, -167221.80, -167801.20, -126077.11, -166450.13, 108158.10, -167292.72, -0.00, -0.00, -0.00
238, -153434.45, -117962.06, -167271.78, -167542.86, -130343.41, -166419.81, 108406.25, -167619.17, -0.00, -0.00, -0.00
239, -153552.45, -112741.48, -167219.66, -166104.72, -129370.20, -166473.89, 108229.78, -167528.91, -0.00, -0.00, -0.00
240, -154230.41, -106249.10, -167176.77, -165575.66, -124993.74, -166400.34, 108017.06, -167191.27, -0.00, -0.00, -0.00
241, -154319.97, -110349.55, -167176.88, -166411.95, -125229.51, -166394.88, 108220.99, -167181.03, -0.00, -0.00, -0.00
242, -153683.39, -117524.73, -167190.75, -166621.77, -129642.17, -166421.22, 108542.73, -167522.36, -0.00, -0.00, -0.00
243, -153614.33, -114074.49, -167170.44, -166072.38, -129835.29, -166477.22, 108452.63, -167505.52, -0.00, -0.00, -0.00
244, -154268.52, -106577.61, -167128.14, -166045.30, -125442.97, -166372.50, 108206.09, -167165.67, -0.00, -0.00, -0.00
245, -154528.95, -108727.80, -167111.14, -166872.73, -124520.27, -166323.27, 108336.55, -167095.36, -0.00, -0.00, -0.00
246, -153938.92, -116657.91, -167125.44, -167268.95, -128758.88, -166410.72, 108688.93, -167436.05, -0.00, -0.00, -0.00
247, -153695.59, -115259.43, -167119.86, -166767.83, -130123.45, -166443.31, 108681.13, -167501.42, -0.00, -0.00, -0.00
248, -154277.34, -107286.73, -167082.45, -166554.55, -126030.82, -166362.03, 108422.43, -167181.28, -0.00, -0.00, -0.00
249, -154685.17, -107355.76, -167056.23, -167510.14, -124020.13, -166266.86, 108473.39, -167032.03, -0.00, -0.00, -0.00
250, -154197.95, -115448.79, -167095.00, -168883.86, -127785.63, -166371.56, 108822.13, -167352.06, -0.00, -0.00, -0.00
251, -153818.31, -116235.84, -167105.97, -168476.53, -130248.20, -166389.64, 108876.05, -167525.36, -0.00, -0.00, -0.00
252, -154320.27, -108368.12, -167093.55, -167867.30, -126756.27, -166390.52, 108594.63, -167280.36, -0.00, -0.00, -0.00
253, -154870.66, -106365.63, -167081.59, -168245.58, -123809.46, -166279.97, 108543.46, -167040.58, -0.00, -0.00, -0.00
254, -154531.63, -113992.91, -167106.80, -168713.91, -126824.35, -166357.91, 108864.75, -167298.36, -0.00, -0.00, -0.00
255, -154030.42, -116924.61, -167140.02, -168197.92, -130192.72, -166340.27, 108998.59, -167533.34, -0.00, -0.00, -0.00
0, -154400.64, -109691.20, -167096.03, -167476.19, -127533.20, -166392.28, 108742.28, -167341.38, -0.00, -0.00, -0.00
1, -155037.48, -105743.41, -167086.80, -167695.20, -123834.63, -166285.06, 108613.00, -167047.75, -0.00, -0.00, -0.00
2, -154862.77, -112371.65, -167083.33, -168260.94, -125886.65, -166330.61, 108895.77, -167210.44, -0.00, -0.00, -0.00
3, -154278.11, -117256.78, -167135.97, -167915.47, -129912.29, -166290.84, 109102.39, -167504.33, -0.00, -0.00, -0.00
4, -154495.56, -111163.88, -167087.23, -167126.94, -128277.46, -166356.25, 108885.31, -167377.92, -0.00, -0.00, -0.00
5, -155181.88, -105538.14, -167076.92, -167165.56, -124088.88, -166285.34, 108688.84, -167061.72, -0.00, -0.00, -0.00
6, -155185.72, -110706.24, -167076.47, -167783.92, -125042.16, -166300.11, 108915.30, -167126.38, -0.00, -0.00, -0.00
7, -154565.23, -117170.95, -167126.30, -167616.03, -129419.48, -166270.98, 109186.55, -167465.75, -0.00, -0.00, -0.00
8, -154609.17, -112641.92, -167084.41, -166265.77, -128927.34, -166309.77, 109036.08, -167405.94, -0.00, -0.00, -0.00
9, -155282.75, -105711.77, -167037.95, -165538.80, -124530.04, -166261.80, 108802.84, -167072.88, -0.00, -0.00, -0.00
10, -155443.77, -109068.48, -167036.02, -166344.11, -124310.67, -166247.91, 108977.67, -167020.30, -0.00, -0.00, -0.00
11, -154818.03, -116612.49, -167051.34, -166627.80, -128693.20, -166293.11, 109315.65, -167361.31, -0.00, -0.00, -0.00
12, -154673.11, -113954.66, -167033.48, -166089.59, -129361.55, -166321.88, 109257.42, -167379.28, -0.00, -0.00, -0.00
13, -155299.77, -106209.27, -166988.47, -165986.44, -125060.91, -166242.69, 109002.70, -167047.80, -0.00, -0.00, -0.00
14, -155622.45, -107547.72, -166969.83, -166786.45, -123699.04, -166174.47, 109103.64, -166942.69, -0.00, -0.00, -0.00
15, -155063.39, -115613.99, -166985.94, -167250.55, -127779.55, -166280.45, 109462.08, -167273.16, -0.00, -0.00, -0.00
16, -154749.03, -115072.34, -166981.09, -166777.02, -129589.33, -166307.56, 109488.70, -167377.67, -0.00, -0.00, -0.00
17, -155292.22, -107071.42, -166949.05, -166500.19, -125704.95, -166237.03, 109226.47, -167076.06, -0.00, -0.00, -0.00
18, -155750.91, -106310.73, -166915.92, -167393.13, -123303.30, -166125.48, 109245.06, -166889.98, -0.00, -0.00, -0.00
19, -155314.69, -114278.99, -166954.42, -168832.27, -126792.14, -166229.16, 109590.95, -167189.77, -0.00, -0.00, -0.00
20, -154882.45, -115925.17, -166969.00, -168500.81, -129632.07, -166248.61, 109677.75, -167394.20, -0.00, -0.00, -0.00
21, -155332.59, -108247.75, -166951.30, -167840.73, -126446.43, -166262.73, 109404.34, -167171.84, -0.00, -0.00, -0.00
22, -155917.41, -105464.22, -166938.16, -168159.19, -123179.25, -166143.06, 109320.21, -166904.66, -0.00, -0.00, -0.00
23, -155635.23, -112761.15, -166952.23, -168668.45, -125838.33, -166204.53, 109629.29, -167123.56, -0.00, -0.00, -0.00
24, -155097.08, -116479.30, -166992.53, -168218.38, -129488.75, -166177.75, 109797.33, -167383.52, -0.00, -0.00, -0.00
25, -155412.86, -109626.98, -166952.08, -167467.47, -127205.92, -166251.31, 109554.57, -167215.50, -0.00, -0.00, -0.00
26, -156066.33, -104996.34, -166941.39, -167613.89, -123288.38, -166147.55, 109397.57, -166910.95, -0.00, -0.00, -0.00
27, -155946.73, -111123.98, -166948.19, -168199.39, -124935.88, -166178.13, 109659.33, -167040.09, -0.00, -0.00, -0.00
28, -155345.33, -116663.80, -166997.31, -167930.03, -129138.34, -166140.52, 109892.55, -167360.83, -0.00, -0.00, -0.00
29, -155510.02, -111091.14, -166951.64, -167134.52, -127920.10, -166197.53, 109698.65, -167261.61, -0.00, -0.00, -0.00
30, -156196.64, -104911.42, -166934.91, -167093.59, -123606.95, -166140.00, 109478.95, -166943.03, -0.00, -0.00, -0.00
31, -156249.47, -109461.20, -166932.25, -167704.89, -124128.62, -166147.75, 109678.20, -166956.84, -0.00, -0.00, -0.00
32, -155623.61, -116416.33, -166979.95, -167619.80, -128564.52, -166132.52, 109968.81, -167303.66, -0.00, -0.00, -0.00
33, -155619.30, -112529.92, -166949.17, -166389.80, -128508.80, -166175.98, 109842.52, -167277.81, -0.00, -0.00, -0.00
34, -156283.55, -105210.13, -166898.92, -165483.03, -124093.53, -166130.67, 109592.48, -166950.45, -0.00, -0.00, -0.00
35, -156478.95, -107870.99, -166894.19, -166215.41, -123444.77, -166097.47, 109738.99, -166865.63, -0.00, -0.00, -0.00
36, -155860.67, -115717.50, -166910.28, -166569.47, -127781.05, -166152.16, 110085.80, -167203.52, -0.00, -0.00, -0.00
37, -155674.11, -113792.99, -166898.89, -166072.53, -128886.46, -166168.52, 110057.04, -167248.47, -0.00, -0.00, -0.00
38, -156281.92, -105843.80, -166854.30, -165907.14, -124676.17, -166110.02, 109794.24, -166926.44, -0.00, -0.00, -0.00
39, -156629.70, -106432.86, -166833.02, -166653.64, -122908.70, -166025.94, 109863.65, -166781.16, -0.00, -0.00, -0.00
40, -156087.34, -114565.12, -166849.69, -167172.45, -126819.59, -166127.03, 110226.59, -167097.14, -0.00, -0.00, -0.00
41, -155736.94, -114793.55, -166845.94, -166754.22, -129026.38, -166163.53, 110284.11, -167239.41, -0.00, -0.00, -0.00
42, -156259.77, -106782.08, -166809.44, -166433.91, -125329.89, -166105.47, 110021.88, -166953.25, -0.00, -0.00, -0.00
43, -156746.05, -105255.99, -166771.59, -167248.05, -122558.55, -165977.91, 110008.84, -166737.89, -0.00, -0.00, -0.00
44, -156342.38, -113065.89, -166803.44, -168728.94, -125777.33, -166092.03, 110347.18, -167015.14, -0.00, -0.00, -0.00
45, -155872.33, -115488.42, -166825.17, -168483.53, -128946.09, -166124.13, 110466.14, -167251.73, -0.00, -0.00, -0.00
46, -156281.73, -108043.63, -166805.88, -167787.20, -126059.45, -166132.33, 110203.17, -167047.19, -0.00, -0.00, -0.00
47, -156895.14, -104518.20, -166791.27, -168040.50, -122504.03, -166004.61, 110093.31, -166766.52, -0.00, -0.00, -0.00
48, -156671.78, -111408.91, -166813.30, -168583.72, -124782.27, -166057.72, 110388.29, -166964.08, -0.00, -0.00, -0.00
49, -156097.02, -115880.18, -166850.67, -168196.11, -128680.24, -166028.33, 110580.67, -167242.05, -0.00, -0.00, -0.00
50, -156345.55, -109501.57, -166807.42, -167416.13, -126807.74, -166101.66, 110355.66, -167098.53, -0.00, -0.00, -0.00
51, -157020.03, -104234.02, -166797.09, -167497.13, -122716.10, -166007.77, 110171.50, -166784.86, -0.00, -0.00, -0.00
52, -156985.33, -109743.58, -166795.97, -168113.39, -123917.55, -166032.89, 110407.47, -166867.50, -0.00, -0.00, -0.00
53, -156362.30, -115893.79, -166844.69, -167913.36, -128232.69, -166009.13, 110663.57, -167204.59, -0.00, -0.00, -0.00
54, -156434.78, -111031.26, -166812.50, -167093.17, -127501.07, -166069.86, 110494.75, -167135.59, -0.00, -0.00, -0.00
55, -157125.31, -104371.65, -166794.67, -166982.25, -123153.50, -166010.02, 110258.16, -166815.69, -0.00, -0.00, -0.00
56, -157278.72, -108116.91, -166791.59, -167613.41, -123191.45, -166006.72, 110429.59, -166794.88, -0.00, -0.00, -0.00
57, -156666.59, -115460.93, -166830.89, -167610.19, -127592.34, -166009.34, 110734.27, -167145.13, -0.00, -0.00, -0.00
58, -156562.67, -112439.30, -166812.38, -166446.75, -128034.38, -166016.64, 110638.07, -167152.08, -0.00, -0.00, -0.00
59, -157209.73, -104871.30, -166761.94, -165401.88, -123726.89, -165998.58, 110377.91, -166834.55, -0.00, -0.00, -0.00
60, -157520.97, -106617.62, -166752.38, -166103.52, -122607.54, -165951.80, 110489.01, -166711.84, -0.00, -0.00, -0.00
61, -156953.20, -114579.20, -166758.97, -166537.08, -126750.34, -166006.38, 110842.27, -167036.25, -0.00, -0.00, -0.00
62, -156662.75, -113615.34, -166754.63, -166037.36, -128324.09, -166017.67, 110848.65, -167118.72, -0.00, -0.00, -0.00
63, -157222.30, -105667.33, -166713.97, -165797.44, -124355.02, -165980.83, 110587.60, -166812.50, -0.00, -0.00, -0.00
64, -157674.14, -105315.18, -166683.38, -166537.13, -122166.83, -165880.27, 110624.88, -166635.53, -0.00, -0.00, -0.00
65, -157215.81, -113290.91, -166695.86, -167139.13, -125767.54, -165988.61, 110982.02, -166932.41, -0.00, -0.00, -0.00
66, -156775.59, -114480.29, -166697.56, -166740.50, -128378.96, -166013.00, 111074.33, -167105.92, -0.00, -0.00, -0.00
67, -157222.33, -106731.90, -166667.47, -166348.20, -125039.14, -165977.83, 110821.78, -166843.77, -0.00, -0.00, -0.00
68, -157791.17, -104330.05, -166628.47, -167116.75, -121938.40, -165842.09, 110777.59, -166598.20, -0.00, -0.00, -0.00
69, -157488.80, -111742.34, -166665.84, -168668.84, -124754.07, -165936.02, 111105.49, -166844.09, -0.00, -0.00, -0.00
70, -156954.06, -115048.83, -166683.61, -168494.42, -128231.88, -165954.95, 111257.91, -167107.36, -0.00, -0.00, -0.00
71, -157279.72, -108045.49, -166662.92, -167742.64, -125767.36, -165991.16, 111011.27, -166932.41, -0.00, -0.00, -0.00
72, -157940.59, -103767.32, -166652.34, -167940.55, -121979.95, -165864.56, 110874.38, -166632.83, -0.00, -0.00, -0.00
73, -157817.66, -110099.34, -166678.27, -168534.42, -123810.89, -165914.25, 111148.49, -166780.03, -0.00, -0.00, -0.00
74, -157213.69, -115282.05, -166714.86, -168212.50, -127887.98, -165892.00, 111368.95, -167087.44, -0.00, -0.00, -0.00
75, -157382.84, -109490.30, -166676.78, -167398.72, -126465.56, -165962.34, 111166.17, -166975.06, -0.00, -0.00, -0.00
76, -158082.48, -103607.35, -166665.39, -167412.02, -122245.51, -165877.36, 110961.05, -166659.31, -0.00, -0.00, -0.00
77, -158137.33, -108422.20, -166657.48, -168050.33, -122978.94, -165896.61, 111174.96, -166696.94, -0.00, -0.00, -0.00
78, -157512.97, -115092.88, -166703.64, -167925.05, -127350.13, -165883.84, 111454.04, -167041.69, -0.00, -0.00, -0.00
79, -157511.06, -110923.99, -166676.39, -167094.84, -127072.84, -165895.64, 111312.27, -167003.11, -0.00, -0.00, -0.00
80, -158195.27, -103848.01, -166651.61, -166907.05, -122708.48, -165872.67, 111062.66, -166685.61, -0.00, -0.00, -0.00
81, -158428.52, -106807.29, -166641.38, -167538.86, -122279.28, -165859.86, 111205.34, -166637.08, -0.00, -0.00, -0.00
82, -157834.88, -114460.15, -166676.97, -167614.42, -126607.30, -165871.16, 111522.37, -166985.05, -0.00, -0.00, -0.00
83, -157657.89, -112235.48, -166667.94, -166818.86, -127505.39, -165848.39, 111454.38, -167021.08, -0.00, -0.00, -0.00
84, -158290.11, -104469.39, -166620.38, -166443.44, -123313.92, -165866.50, 111171.78, -166731.38, -0.00, -0.00, -0.00
85, -158676.58, -105423.09, -166624.42, -167012.83, -121779.14, -165827.23, 111232.47, -166578.97, -0.00, -0.00, -0.00
86, -158162.19, -113487.55, -166643.48, -167275.58, -125763.25, -165860.53, 111567.90, -166902.02, -0.00, -0.00, -0.00
87, -157826.89, -113373.25, -166663.91, -166303.36, -127779.84, -165826.25, 111584.51, -167025.06, -0.00, -0.00, -0.00
88, -158351.11, -105450.88, -166603.55, -164961.25, -124040.09, -165855.48, 111312.64, -166752.88, -0.00, -0.00, -0.00
89, -158836.56, -104346.48, -166581.94, -165448.20, -121502.38, -165772.47, 111314.74, -166519.78, -0.00, -0.00, -0.00
90, -158417.31, -112207.63, -166576.69, -166107.11, -124853.11, -165838.25, 111666.02, -166779.14, -0.00, -0.00, -0.00
91, -157932.09, -114207.28, -166590.58, -165768.67, -127825.45, -165844.38, 111787.98, -166977.83, -0.00, -0.00, -0.00
92, -158333.00, -106655.97, -166551.36, -165337.80, -124783.37, -165862.88, 111541.23, -166739.02, -0.00, -0.00, -0.00
93, -158916.52, -103542.06, -166513.47, -165876.22, -121399.77, -165722.78, 111469.66, -166463.88, -0.00, -0.00, -0.00
94, -158646.53, -110640.44, -166524.16, -166644.61, -123878.41, -165800.92, 111795.98, -166669.11, -0.00, -0.00, -0.00
95, -158055.34, -114691.85, -166533.59, -166457.28, -127619.83, -165815.98, 112000.05, -166942.67, -0.00, -0.00, -0.00
96, -158301.31, -108066.66, -166506.83, -165929.48, -125525.47, -165837.33, 111791.13, -166766.94, -0.00, -0.00, -0.00
97, -158950.36, -103133.20, -166461.42, -166332.98, -121532.55, -165688.61, 111647.43, -166448.09, -0.00, -0.00, -0.00
98, -158865.11, -108953.62, -166488.84, -167836.36, -122962.91, -165738.56, 111916.50, -166571.94, -0.00, -0.00, -0.00
99, -158230.31, -114786.64, -166518.84, -168246.09, -127207.57, -165795.72, 112168.05, -166907.63, -0.00, -0.00, -0.00
100, -158323.03, -109584.48, -166508.17, -167435.42, -126237.20, -165849.22, 111989.12, -166829.53, -0.00, -0.00, -0.00
101, -159014.70, -103188.52, -166493.78, -167366.73, -121931.65, -165727.88, 111767.44, -166508.20, -0.00, -0.00, -0.00
102, -159132.97, -107332.60, -166503.92, -168005.58, -122217.30, -165734.02, 111958.34, -166534.59, -0.00, -0.00, -0.00
103, -158500.73, -114473.23, -166542.38, -167951.34, -126623.77, -165745.27, 112256.96, -166887.22, -0.00, -0.00, -0.00
104, -158418.83, -111037.25, -166521.77, -167122.20, -126820.62, -165783.13, 112145.20, -166877.42, -0.00, -0.00, -0.00
105, -159080.95, -103638.40, -166498.67, -166856.86, -122500.32, -165745.73, 111883.13, -166569.64, -0.00, -0.00, -0.00
106, -159371.27, -105851.91, -166493.89, -167468.58, -121643.91, -165712.31, 111997.41, -166473.19, -0.00, -0.00, -0.00
107, -158796.78, -113742.34, -166524.64, -167615.92, -125882.09, -165727.41, 112324.95, -166817.45, -0.00, -0.00, -0.00
108, -158554.66, -112309.89, -166528.81, -166844.08, -127225.59, -165710.63, 112288.32, -166895.08, -0.00, -0.00, -0.00
109, -159158.14, -104394.69, -166482.58, -166398.83, -123169.30, -165738.16, 112004.05, -166613.67, -0.00, -0.00, -0.00
110, -159606.67, -104527.35, -166489.75, -166934.47, -121215.65, -165683.50, 112036.38, -166435.47, -0.00, -0.00, -0.00
111, -159140.44, -112572.45, -166506.78, -167262.95, -124969.52, -165712.14, 112372.23, -166744.14, -0.00, -0.00, -0.00
112, -158748.70, -113281.61, -166528.83, -166391.50, -127370.98, -165690.33, 112420.13, -166896.38, -0.00, -0.00, -0.00
113, -159239.05, -105431.41, -166455.92, -164976.70, -123871.55, -165731.67, 112148.80, -166642.03, -0.00, -0.00, -0.00
114, -159794.69, -103471.90, -166443.36, -165355.34, -120956.66, -165632.91, 112117.09, -166384.44, -0.00, -0.00, -0.00
115, -159450.83, -111055.02, -166448.36, -166072.50, -123949.54, -165705.92, 112459.16, -166616.33, -0.00, -0.00, -0.00
116, -158915.58, -113890.70, -166459.41, -165782.81, -127239.24, -165702.95, 112611.64, -166841.58, -0.00, -0.00, -0.00
117, -159254.70, -106651.91, -166422.83, -165306.03, -124551.34, -165727.77, 112375.88, -166626.91, -0.00, -0.00, -0.00
118, -159892.86, -102752.64, -166383.09, -165793.48, -120886.26, -165584.00, 112271.47, -166329.97, -0.00, -0.00, -0.00
119, -159716.89, -109355.93, -166390.06, -166609.88, -122934.32, -165652.77, 112574.63, -166500.19, -0.00, -0.00, -0.00
120, -159096.41, -114132.18, -166400.33, -166484.03, -126880.66, -165700.19, 112804.96, -166792.48, -0.00, -0.00, -0.00
121, -159273.83, -108016.50, -166384.13, -165924.17, -125202.22, -165720.61, 112613.70, -166644.00, -0.00, -0.00, -0.00
122, -159950.95, -102445.88, -166334.77, -166253.20, -121045.45, -165559.86, 112447.30, -166316.38, -0.00, -0.00, -0.00
123, -159958.33, -107619.29, -166347.22, -167759.67, -122012.27, -165594.08, 112694.85, -166409.38, -0.00, -0.00, -0.00
124, -159323.92, -114010.03, -166377.81, -168276.84, -126339.74, -165658.11, 112969.80, -166760.59, -0.00, -0.00, -0.00
125, -159347.64, -109467.77, -166370.98, -167461.77, -125816.47, -165697.16, 112814.30, -166714.80, -0.00, -0.00, -0.00
126, -160041.41, -102618.55, -166357.81, -167317.78, -121472.61, -165594.64, 112573.53, -166393.42, -0.00, -0.00, -0.00
127, -160241.84, -106022.03, -166364.55, -167957.13, -121308.68, -165583.11, 112736.52, -166374.33, -0.00, -0.00, -0.00
128, -159630.66, -113516.51, -166399.70, -167980.69, -125671.83, -165603.36, 113051.23, -166728.39, -0.00, -0.00, -0.00
129, -159480.19, -110854.23, -166384.72, -167160.89, -126321.02, -165642.00, 112967.30, -166754.88, -0.00, -0.00, -0.00
130, -160128.25, -103191.07, -166355.00, -166823.41, -122074.80, -165613.91, 112691.88, -166457.14, -0.00, -0.00, -0.00
131, -160497.14, -104576.52, -166358.48, -167418.34, -120772.98, -165566.00, 112772.03, -166322.47, -0.00, -0.00, -0.00
132, -159965.58, -112595.10, -166385.31, -167639.59, -124844.34, -165596.89, 113104.27, -166654.64, -0.00, -0.00, -0.00
133, -159650.81, -112025.30, -166396.27, -166890.69, -126626.67, -165571.41, 113098.84, -166761.38, -0.00, -0.00, -0.00
134, -160211.38, -104090.20, -166346.58, -166376.05, -122781.23, -165606.73, 112812.23, -166491.88, -0.00, -0.00, -0.00
135, -160720.02, -103385.55, -166341.25, -166873.42, -120438.13, -165539.00, 112812.73, -166290.47, -0.00, -0.00, -0.00
136, -160310.02, -111307.46, -166342.89, -167267.17, -123910.18, -165579.08, 113145.11, -166581.44, -0.00, -0.00, -0.00
137, -159849.28, -112904.49, -166383.30, -166500.42, -126698.09, -165540.30, 113226.58, -166764.66, -0.00, -0.00, -0.00
138, -160273.22, -105275.86, -166321.09, -165035.64, -123527.74, -165595.33, 112962.00, -166535.38, -0.00, -0.00, -0.00
139, -160876.61, -102508.52, -166301.91, -165252.08, -120296.05, -165496.78, 112898.61, -166257.34, -0.00, -0.00, -0.00
140, -160608.09, -109734.61, -166299.50, -166022.41, -122916.64, -165560.14, 113224.45, -166458.80, -0.00, -0.00, -0.00
141, -160018.41, -113392.97, -166316.58, -165785.66, -126495.47, -165541.27, 113407.63, -166702.67, -0.00, -0.00, -0.00
142, -160277.63, -106570.09, -166276.52, -165261.13, -124215.21, -165585.09, 113188.31, -166510.45, -0.00, -0.00, -0.00
143, -160940.31, -101955.06, -166236.53, -165681.66, -120329.61, -165445.78, 113060.44, -166199.39, -0.00, -0.00, -0.00
144, -160843.84, -108000.74, -166245.14, -166534.19, -121936.02, -165502.02, 113348.02, -166334.75, -0.00, -0.00, -0.00
145, -160193.63, -113459.09, -166256.09, -166476.08, -126045.64, -165565.20, 113603.36, -166645.08, -0.00, -0.00, -0.00
146, -160283.91, -107936.99, -166236.44, -165887.63, -124817.30, -165583.89, 113433.71, -166524.77, -0.00, -0.00, -0.00
147, -160964.86, -101808.66, -166189.86, -166135.58, -120555.80, -165428.72, 113244.91, -166191.78, -0.00, -0.00, -0.00
148, -161055.56, -106289.60, -166204.23, -167637.81, -121064.62, -165444.03, 113463.71, -166257.17, -0.00, -0.00, -0.00
149, -160414.23, -113172.29, -166236.89, -168260.81, -125429.54, -165506.09, 113756.72, -166611.42, -0.00, -0.00, -0.00
150, -160343.72, -109372.45, -166232.17, -167437.94, -125385.59, -165545.17, 113629.96, -166592.98, -0.00, -0.00, -0.00
151, -161017.64, -102146.89, -166218.72, -167215.67, -121063.44, -165462.67, 113375.55, -166276.14, -0.00, -0.00, -0.00
152, -161295.50, -104763.83, -166217.67, -167853.42, -120438.86, -165433.48, 113508.39, -166214.41, -0.00, -0.00, -0.00
153, -160705.95, -112540.45, -166251.20, -167954.36, -124718.84, -165455.92, 113833.38, -166565.11, -0.00, -0.00, -0.00
154, -160468.22, -110712.03, -166249.86, -167142.03, -125835.09, -165493.66, 113780.68, -166618.92, -0.00, -0.00, -0.00
155, -161076.34, -102895.52, -166223.03, -166728.30, -121736.85, -165483.33, 113499.70, -166329.09, -0.00, -0.00, -0.00
156, -161512.73, -103467.83, -166217.53, -167301.66, -120021.94, -165421.39, 113549.20, -166174.19, -0.00, -0.00, -0.00
157, -161019.92, -111537.08, -166234.81, -167593.75, -123896.81, -165457.63, 113885.89, -166496.70, -0.00, -0.00, -0.00
158, -160628.61, -111822.42, -166258.33, -166870.42, -126100.31, -165413.31, 113915.08, -166634.06, -0.00, -0.00, -0.00
159, -161135.06, -103949.33, -166208.11, -166288.41, -122503.70, -165459.03, 113631.10, -166384.88, -0.00, -0.00, -0.00
160, -161696.72, -102435.83, -166200.95, -166745.02, -119803.49, -165392.59, 113600.30, -166151.44, -0.00, -0.00, -0.00
161, -161344.72, -110173.91, -166202.17, -167199.38, -122978.96, -165436.67, 113926.97, -166412.23, -0.00, -0.00, -0.00
162, -160829.72, -112585.78, -166248.30, -166520.13, -126104.09, -165391.86, 114039.11, -166624.34, -0.00, -0.00, -0.00
163, -161197.88, -105204.90, -166181.80, -165040.48, -123260.68, -165449.94, 113780.57, -166417.00, -0.00, -0.00, -0.00
164, -161838.19, -101707.14, -166165.03, -165110.05, -119754.67, -165357.50, 113688.44, -166122.20, -0.00, -0.00, -0.00
165, -161638.00, -108547.94, -166166.02, -165918.25, -122005.34, -165407.06, 114003.52, -166285.33, -0.00, -0.00, -0.00
166, -161018.77, -112929.26, -166179.78, -165746.16, -125821.25, -165394.08, 114215.02, -166557.45, -0.00, -0.00, -0.00
167, -161215.75, -106537.06, -166134.67, -165192.94, -123924.91, -165450.31, 114011.57, -166391.31, -0.00, -0.00, -0.00
168, -161897.02, -101288.24, -166094.48, -165545.19, -119854.56, -165306.45, 113859.05, -166067.08, -0.00, -0.00, -0.00
169, -161875.95, -106782.15, -166106.80, -166421.52, -121043.55, -165346.00, 114123.96, -166168.61, -0.00, -0.00, -0.00
170, -161217.09, -112831.29, -166116.81, -166434.41, -125280.47, -165417.36, 114403.60, -166495.05, -0.00, -0.00, -0.00
171, -161241.17, -107894.75, -166098.84, -165832.81, -124485.00, -165444.19, 114256.33, -166408.86, -0.00, -0.00, -0.00
172, -161927.08, -101260.33, -166055.84, -166004.03, -120149.41, -165293.88, 114047.94, -166071.80, -0.00, -0.00, -0.00
173, -162092.34, -105040.14, -166060.78, -167484.09, -120202.85, -165290.23, 114244.14, -166089.80, -0.00, -0.00, -0.00
174, -161463.77, -112328.27, -166094.44, -168214.50, -124558.94, -165371.19, 114555.16, -166446.97, -0.00, -0.00, -0.00
175, -161332.11, -109236.13, -166092.70, -167406.94, -124947.43, -165405.94, 114455.59, -166458.69, -0.00, -0.00, -0.00
176, -161990.39, -101707.84, -166079.42, -167110.00, -120663.79, -165325.95, 114190.50, -166146.86, -0.00, -0.00, -0.00
177, -162336.09, -103542.64, -166076.89, -167729.97, -119603.82, -165283.13, 114293.09, -166052.38, -0.00, -0.00, -0.00
178, -161779.55, -111494.55, -166108.03, -167906.50, -123752.42, -165319.38, 114623.99, -166398.98, -0.00, -0.00, -0.00
179, -161482.11, -110460.80, -166113.91, -167124.34, -125289.86, -165332.94, 114600.43, -166489.41, -0.00, -0.00, -0.00
180, -162060.94, -102548.33, -166084.98, -166644.67, -121345.59, -165344.66, 114313.14, -166216.53, -0.00, -0.00, -0.00
181, -162555.72, -102306.88, -166077.03, -167180.11, -119226.37, -165272.17, 114332.79, -166021.17, -0.00, -0.00, -0.00
182, -162116.89, -110312.92, -166086.98, -167539.66, -122849.25, -165320.16, 114668.73, -166316.84, -0.00, -0.00, -0.00
183, -161672.27, -111428.23, -166119.36, -166862.19, -125427.80, -165285.63, 114728.77, -166484.48, -0.00, -0.00, -0.00
184, -162130.58, -103678.59, -166065.20, -166223.25, -122097.16, -165338.55, 114451.66, -166248.45, -0.00, -0.00, -0.00
185, -162736.97, -101382.48, -166059.75, -166624.73, -119061.91, -165253.80, 114390.08, -165996.47, -0.00, -0.00, -0.00
186, -162451.58, -108839.55, -166051.19, -167131.16, -121900.58, -165304.00, 114705.20, -166233.84, -0.00, -0.00, -0.00
187, -161897.72, -112055.52, -166105.13, -166547.33, -125333.31, -165258.89, 114846.55, -166479.08, -0.00, -0.00, -0.00
188, -162208.95, -105024.95, -166051.64, -165091.92, -122852.60, -165325.31, 114597.84, -166296.33, -0.00, -0.00, -0.00
189, -162872.06, -100831.78, -166026.05, -164962.55, -119117.92, -165227.67, 114476.06, -165987.48, -0.00, -0.00, -0.00
190, -162740.28, -107212.84, -166016.81, -165791.73, -120980.09, -165273.06, 114772.00, -166116.02, -0.00, -0.00, -0.00
191, -162094.00, -112299.50, -166035.59, -165685.91, -125000.96, -165267.61, 115012.66, -166406.83, -0.00, -0.00, -0.00
192, -162216.75, -106445.42, -166000.80, -165103.09, -123535.09, -165321.91, 114832.42, -166263.48, -0.00, -0.00, -0.00
193, -162903.78, -100625.18, -165958.72, -165377.33, -119347.45, -165182.94, 114657.54, -165934.25, -0.00, -0.00, -0.00
194, -162955.41, -105494.24, -165959.63, -166266.27, -120104.52, -165205.34, 114898.58, -166012.02, -0.00, -0.00, -0.00
195, -162292.66, -112089.10, -165972.22, -166354.58, -124421.30, -165275.39, 115198.67, -166348.41, -0.00, -0.00, -0.00
196, -162246.41, -107836.05, -165953.84, -165748.48, -124085.93, -165310.75, 115078.13, -166295.94, -0.00, -0.00, -0.00
197, -162924.61, -100791.09, -165911.20, -165837.78, -119738.89, -165170.84, 114854.68, -165957.41, -0.00, -0.00, -0.00
198, -163166.50, -103814.88, -165914.94, -167267.39, -119344.72, -165146.55, 115022.03, -165931.66, -0.00, -0.00, -0.00
199, -162560.56, -111418.28, -165951.17, -168135.67, -123644.17, -165226.28, 115347.83, -166285.17, -0.00, -0.00, -0.00
200, -162357.13, -109108.56, -165944.36, -167355.13, -124483.30, -165263.19, 115280.52, -166327.94, -0.00, -0.00, -0.00
201, -162990.53, -101365.45, -165933.00, -166984.67, -120302.47, -165202.28, 115006.09, -166028.17, -0.00, -0.00, -0.00
202, -163405.03, -102389.96, -165925.36, -167581.69, -118812.41, -165143.63, 115077.41, -165900.67, -0.00, -0.00, -0.00
203, -162893.66, -110431.54, -165950.30, -167832.73, -122778.71, -165185.59, 115412.52, -166234.28, -0.00, -0.00, -0.00
204, -162537.50, -110231.31, -165966.66, -167083.03, -124735.52, -165184.13, 115420.18, -166355.58, -0.00, -0.00, -0.00
205, -163073.52, -102323.87, -165928.97, -166536.20, -121006.20, -165214.66, 115136.76, -166097.08, -0.00, -0.00, -0.00
206, -163622.55, -101272.38, -165928.64, -167028.02, -118512.86, -165133.20, 115126.19, -165877.25, -0.00, -0.00, -0.00
207, -163244.03, -109128.56, -165937.41, -167452.38, -121854.30, -165175.66, 115459.77, -166150.88, -0.00, -0.00, -0.00
208, -162756.20, -111065.55, -165972.14, -166827.09, -124778.14, -165134.17, 115554.73, -166353.33, -0.00, -0.00, -0.00
209, -163165.88, -103531.45, -165918.72, -166138.31, -121752.72, -165194.78, 115286.16, -166139.86, -0.00, -0.00, -0.00
210, -163807.81, -100479.63, -165917.47, -166480.45, -118426.47, -165111.92, 115195.99, -165866.45, -0.00, -0.00, -0.00
211, -163588.98, -107582.14, -165915.50, -167032.95, -120910.80, -165152.52, 115498.23, -166067.55, -0.00, -0.00, -0.00
212, -163010.84, -111543.70, -165965.97, -166572.44, -124599.70, -165109.48, 115667.88, -166338.48, -0.00, -0.00, -0.00
213, -163272.80, -104889.55, -165907.09, -165788.41, -122486.57, -165184.33, 115431.13, -166182.75, -0.00, -0.00, -0.00
214, -163973.36, -100042.31, -165901.30, -165951.11, -118549.78, -165104.80, 115267.88, -165876.94, -0.00, -0.00, -0.00
215, -163933.81, -105905.63, -165893.92, -166583.09, -120008.05, -165129.78, 115523.45, -165977.70, -0.00, -0.00, -0.00
216, -163307.36, -111614.57, -165945.78, -166279.47, -124184.09, -165089.80, 115764.66, -166298.89, -0.00, -0.00, -0.00
217, -163397.97, -106307.11, -165897.08, -164808.09, -123137.19, -165149.23, 115583.98, -166204.53, -0.00, -0.00, -0.00
218, -164097.19, -99966.88, -165859.75, -164319.30, -118847.51, -165078.78, 115379.73, -165872.48, -0.00, -0.00, -0.00
219, -164223.77, -104182.02, -165856.53, -165196.08, -119167.43, -165081.73, 115592.87, -165871.55, -0.00, -0.00, -0.00
220, -163579.58, -111206.05, -165871.94, -165372.33, -123507.60, -165104.94, 115908.38, -166206.06, -0.00, -0.00, -0.00
221, -163474.42, -107617.92, -165854.77, -164778.69, -123594.77, -165149.25, 115813.55, -166175.02, -0.00, -0.00, -0.00
222, -164135.38, -100227.14, -165813.64, -164780.98, -119256.14, -165051.78, 115576.93, -165837.78, -0.00, -0.00, -0.00
223, -164435.34, -102514.59, -165795.88, -165657.02, -118430.42, -165009.05, 115720.52, -165773.14, -0.00, -0.00, -0.00
224, -163843.48, -110336.21, -165807.02, -166027.80, -122621.13, -165109.02, 116074.80, -166110.92, -0.00, -0.00, -0.00
225, -163562.64, -108761.38, -165803.42, -165472.89, -123860.13, -165144.25, 116061.90, -166177.08, -0.00, -0.00, -0.00
226, -164143.30, -100866.45, -165768.84, -165278.41, -119790.10, -165047.05, 115807.18, -165860.16, -0.00, -0.00, -0.00
227, -164594.27, -101102.32, -165741.98, -166334.09, -117895.34, -164955.64, 115871.13, -165716.94, -0.00, -0.00, -0.00
228, -164122.50, -109129.77, -165777.03, -167688.75, -121642.48, -165061.95, 116219.03, -166038.36, -0.00, -0.00, -0.00
229, -163708.02, -109718.32, -165788.00, -167181.41, -123969.12, -165081.02, 116264.54, -166205.59, -0.00, -0.00, -0.00
230, -164191.91, -101896.39, -165779.39, -166570.92, -120479.03, -165073.91, 115986.98, -165959.59, -0.00, -0.00, -0.00
231, -164776.36, -100098.44, -165767.22, -167008.89, -117665.08, -164968.05, 115947.84, -165720.80, -0.00, -0.00, -0.00
232, -164451.30, -107743.70, -165786.84, -167482.33, -120712.89, -165040.84, 116272.72, -165974.77, -0.00, -0.00, -0.00
233, -163912.17, -110486.48, -165819.23, -166905.48, -123960.60, -165002.42, 116397.51, -166203.75, -0.00, -0.00, -0.00
234, -164255.67, -103255.22, -165782.64, -166169.92, -121278.70, -165060.30, 116139.73, -166010.84, -0.00, -0.00, -0.00
235, -164926.78, -99502.14, -165775.59, -166450.84, -117706.95, -164966.95, 116020.99, -165724.30, -0.00, -0.00, -0.00
236, -164779.89, -106192.06, -165770.59, -167040.75, -119818.06, -165016.36, 116307.37, -165897.23, -0.00, -0.00, -0.00
237, -164163.59, -110880.56, -165822.09, -166637.03, -123732.41, -164971.92, 116505.36, -166193.80, -0.00, -0.00, -0.00
238, -164340.38, -104729.36, -165774.05, -165813.75, -122041.10, -165031.33, 116286.20, -166064.97, -0.00, -0.00, -0.00
239, -164914.55, -99283.20, -165763.55, -165905.02, -117961.35, -164964.98, 116098.78, -165754.77, -0.00, -0.00, -0.00
240, -164870.69, -104572.16, -165745.91, -166559.36, -119005.87, -164987.36, 116330.52, -165815.78, -0.00, -0.00, -0.00
241, -164345.20, -110862.77, -165802.03, -166338.56, -123293.94, -164955.59, 116591.01, -166147.27, -0.00, -0.00, -0.00
242, -164354.58, -106208.13, -165764.59, -164921.25, -122703.14, -164990.25, 116433.54, -166080.30, -0.00, -0.00, -0.00
243, -164908.69, -99431.55, -165726.00, -164266.09, -118385.07, -164947.80, 116209.98, -165751.19, -0.00, -0.00, -0.00
244, -164966.83, -102943.62, -165723.47, -165128.22, -118276.87, -164940.47, 116393.27, -165715.33, -0.00, -0.00, -0.00
245, -164468.58, -110341.48, -165736.56, -165377.06, -122600.25, -164970.64, 116723.94, -166053.67, -0.00, -0.00, -0.00
246, -164308.34, -107520.98, -165713.55, -164786.42, -123146.75, -165010.45, 116656.41, -166058.97, -0.00, -0.00, -0.00
247, -164832.98, -99891.51, -165669.72, -164713.00, -118896.32, -164929.31, 116407.61, -165729.22, -0.00, -0.00, -0.00
248, -165007.61, -101407.67, -165652.14, -165569.56, -117659.60, -164869.84, 116519.33, -165624.50, -0.00, -0.00, -0.00
249, -164577.34, -109369.92, -165663.66, -166012.19, -121709.11, -164966.27, 116876.38, -165953.42, -0.00, -0.00, -0.00
250, -164276.98, -108601.49, -165664.22, -165481.06, -123369.53, -164973.55, 116890.90, -166045.66, -0.00, -0.00, -0.00
251, -164738.66, -100653.50, -165634.48, -165217.36, -119483.75, -164918.70, 116630.68, -165743.39, -0.00, -0.00, -0.00
252, -165029.72, -100094.46, -165604.94, -166214.70, -117208.16, -164818.63, 116657.66, -165566.39, -0.00, -0.00, -0.00
253, -164704.70, -108030.54, -165642.14, -167643.47, -120703.20, -164922.98, 117001.95, -165870.75, -0.00, -0.00, -0.00
254, -164320.63, -109425.11, -165654.06, -167205.34, -123381.78, -164938.25, 117080.40, -166067.02, -0.00, -0.00, -0.00
255, -164686.91, -101749.02, -165638.05, -166543.56, -120154.55, -164947.20, 116808.29, -165838.14, -0.00, -0.00, -0.00
0, -165074.47, -99176.38, -165628.81, -166924.86, -117015.38, -164835.03, 116737.75, -165582.23, -0.00, -0.00, -0.00
1, -164865.67, -106500.74, -165654.38, -167450.02, -119722.58, -164886.63, 117049.35, -165815.34, -0.00, -0.00, -0.00
2, -164412.20, -109986.47, -165686.34, -166940.53, -123238.28, -164848.25, 117202.66, -166070.38, -0.00, -0.00, -0.00
3, -164653.25, -103096.50, -165637.17, -166170.73, -120899.82, -164924.16, 116954.54, -165899.05, -0.00, -0.00, -0.00
4, -165108.13, -98670.32, -165634.59, -166383.45, -117100.20, -164833.84, 116803.55, -165602.19, -0.00, -0.00, -0.00
5, -165005.02, -104870.16, -165629.02, -167006.00, -118818.74, -164877.19, 117067.50, -165740.30, -0.00, -0.00, -0.00
6, -164526.64, -110197.45, -165681.23, -166683.19, -122898.63, -164840.25, 117289.41, -166044.38, -0.00, -0.00, -0.00
7, -164626.94, -104576.21, -165639.09, -165847.02, -121607.30, -164893.80, 117090.84, -165935.14, -0.00, -0.00, -0.00
8, -165109.47, -98582.37, -165625.02, -165862.75, -117405.98, -164835.80, 116881.47, -165620.98, -0.00, -0.00, -0.00
9, -165127.73, -103216.91, -165606.58, -166532.58, -118015.93, -164839.75, 117085.02, -165654.67, -0.00, -0.00, -0.00
10, -164647.39, -109981.64, -165659.30, -166410.45, -122356.04, -164806.20, 117363.06, -165996.03, -0.00, -0.00, -0.00
11, -164610.78, -106011.93, -165627.16, -165125.98, -122202.55, -164846.13, 117230.67, -165957.20, -0.00, -0.00, -0.00
12, -165075.66, -98866.81, -165584.59, -164263.23, -117882.36, -164817.88, 116987.62, -165635.78, -0.00, -0.00, -0.00
13, -165215.81, -101621.33, -165577.30, -165071.97, -117338.36, -164792.52, 117138.02, -165558.97, -0.00, -0.00, -0.00
14, -164737.52, -109285.97, -165587.33, -165403.11, -121585.95, -164814.84, 117476.38, -165894.78, -0.00, -0.00, -0.00
15, -164556.89, -107240.07, -165574.41, -164831.84, -122561.65, -164860.27, 117441.05, -165932.91, -0.00, -0.00, -0.00
16, -164969.92, -99429.05, -165530.55, -164686.78, -118416.01, -164796.88, 117187.51, -165612.72, -0.00, -0.00, -0.00
17, -165230.48, -100131.54, -165515.58, -165519.42, -116761.17, -164721.94, 117264.29, -165476.69, -0.00, -0.00, -0.00
18, -164818.31, -108135.43, -165534.20, -166040.00, -120617.77, -164821.69, 117619.46, -165793.80, -0.00, -0.00, -0.00
19, -164514.94, -108208.01, -165529.09, -165548.77, -122681.41, -164830.14, 117665.63, -165924.84, -0.00, -0.00, -0.00
20, -164863.83, -100310.65, -165500.30, -165226.38, -119021.34, -164792.48, 117405.64, -165640.19, -0.00, -0.00, -0.00
21, -165213.88, -98943.91, -165470.94, -166180.05, -116384.88, -164677.88, 117401.38, -165434.06, -0.00, -0.00, -0.00
22, -164890.09, -106682.21, -165514.80, -167670.84, -119585.56, -164780.45, 117738.73, -165720.50, -0.00, -0.00, -0.00
23, -164516.52, -108904.69, -165527.48, -167286.00, -122608.23, -164787.67, 117848.65, -165933.73, -0.00, -0.00, -0.00
24, -164783.80, -101497.62, -165507.73, -166573.67, -119711.00, -164812.19, 117588.63, -165725.39, -0.00, -0.00, -0.00
25, -165221.72, -98164.12, -165497.73, -166900.25, -116290.84, -164697.17, 117486.94, -165450.53, -0.00, -0.00, -0.00
26, -165023.69, -105078.70, -165502.48, -167474.13, -118617.44, -164753.05, 117782.18, -165650.83, -0.00, -0.00, -0.00
27, -164578.55, -109308.45, -165551.19, -167032.72, -122374.03, -164714.11, 117964.16, -165931.59, -0.00, -0.00, -0.00
28, -164729.94, -102873.03, -165508.89, -166230.28, -120426.41, -164785.44, 117733.95, -165788.36, -0.00, -0.00, -0.00
29, -165201.64, -97807.74, -165505.56, -166372.34, -116449.63, -164706.92, 117559.64, -165483.91, -0.00, -0.00, -0.00
30, -165135.16, -103418.86, -165498.44, -167025.02, -117740.54, -164737.30, 117801.65, -165572.89, -0.00, -0.00, -0.00
31, -164645.42, -109341.53, -165550.84, -166777.95, -121941.14, -164700.03, 118048.37, -165897.50, -0.00, -0.00, -0.00
32, -164676.94, -104319.25, -165503.28, -165925.23, -121077.88, -164739.03, 117874.91, -165817.38, -0.00, -0.00, -0.00
33, -165145.61, -97852.78, -165483.80, -165864.22, -116813.38, -164705.19, 117647.73, -165506.41, -0.00, -0.00, -0.00
34, -165228.38, -101802.76, -165453.39, -166540.78, -116990.28, -164707.25, 117826.59, -165492.75, -0.00, -0.00, -0.00
35, -164725.80, -108982.61, -165505.55, -166501.80, -121333.63, -164689.86, 118123.02, -165845.16, -0.00, -0.00, -0.00
36, -164637.88, -105737.78, -165492.41, -165655.36, -121627.10, -164678.58, 118015.71, -165849.63, -0.00, -0.00, -0.00
37, -165075.39, -98308.52, -165463.98, -165394.00, -117367.38, -164692.67, 117747.71, -165553.59, -0.00, -0.00, -0.00
38, -165301.36, -100323.45, -165449.27, -166044.33, -116415.03, -164676.25, 117848.49, -165440.67, -0.00, -0.00, -0.00
39, -164813.47, -108215.85, -165480.70, -166209.63, -120567.34, -164697.81, 118172.69, -165775.64, -0.00, -0.00, -0.00
40, -164611.56, -106988.95, -165490.66, -165108.33, -121995.75, -164652.31, 118144.73, -165848.80, -0.00, -0.00, -0.00
41, -164973.06, -99108.33, -165433.72, -163882.63, -118033.44, -164675.48, 117872.73, -165562.03, -0.00, -0.00, -0.00
42, -165299.39, -99049.38, -165420.61, -164522.16, -116011.27, -164618.47, 117912.96, -165366.67, -0.00, -0.00, -0.00
43, -164870.34, -107033.65, -165418.59, -165114.81, -119657.55, -164674.55, 118265.52, -165656.23, -0.00, -0.00, -0.00
44, -164543.39, -107917.93, -165429.09, -164669.08, -122104.54, -164683.92, 118341.62, -165812.67, -0.00, -0.00, -0.00
45, -164825.33, -100138.52, -165384.73, -164296.11, -118704.30, -164688.63, 118085.94, -165551.08, -0.00, -0.00, -0.00
46, -165231.52, -98021.29, -165355.89, -164967.52, -115751.55, -164567.53, 118050.82, -165307.14, -0.00, -0.00, -0.00
47, -164920.16, -105505.70, -165363.75, -165708.31, -118639.81, -164653.77, 118388.09, -165549.13, -0.00, -0.00, -0.00
48, -164496.42, -108485.95, -165374.77, -165402.08, -121950.82, -164664.73, 118546.83, -165787.53, -0.00, -0.00, -0.00
49, -164691.31, -101361.96, -165356.44, -164900.23, -119372.84, -164680.63, 118316.74, -165579.92, -0.00, -0.00, -0.00
50, -165140.03, -97333.28, -165315.94, -165493.61, -115700.43, -164536.42, 118209.30, -165286.25, -0.00, -0.00, -0.00
51, -164975.58, -103802.52, -165347.47, -167112.05, -117641.52, -164607.69, 118501.93, -165462.41, -0.00, -0.00, -0.00
52, -164505.75, -108702.77, -165375.28, -167211.89, -121592.55, -164630.20, 118715.19, -165776.53, -0.00, -0.00, -0.00
53, -164607.56, -102733.77, -165357.11, -166385.63, -120030.59, -164680.70, 118506.66, -165661.56, -0.00, -0.00, -0.00
54, -165091.13, -97081.63, -165350.42, -166456.19, -115903.11, -164570.72, 118313.05, -165349.86, -0.00, -0.00, -0.00
55, -165083.92, -102102.07, -165349.58, -167126.89, -116773.24, -164596.11, 118535.99, -165406.02, -0.00, -0.00, -0.00
56, -164577.66, -108546.15, -165394.13, -166955.98, -121053.89, -164579.28, 118805.53, -165746.27, -0.00, -0.00, -0.00
57, -164569.50, -104133.45, -165370.03, -166099.11, -120609.77, -164606.06, 118654.92, -165696.92, -0.00, -0.00, -0.00
58, -165037.55, -97223.07, -165354.22, -165965.70, -116294.49, -164577.36, 118411.27, -165386.81, -0.00, -0.00, -0.00
59, -165182.38, -100459.82, -165325.14, -166642.95, -116031.37, -164566.28, 118564.73, -165347.00, -0.00, -0.00, -0.00
60, -164673.98, -107961.73, -165372.14, -166684.78, -120328.06, -164555.19, 118874.04, -165699.53, -0.00, -0.00, -0.00
61, -164546.03, -105429.46, -165365.64, -165851.02, -121039.50, -164556.67, 118794.66, -165727.05, -0.00, -0.00, -0.00
62, -164963.45, -97748.51, -165330.39, -165516.83, -116846.22, -164575.05, 118519.20, -165438.53, -0.00, -0.00, -0.00
63, -165249.91, -98986.66, -165317.16, -166143.91, -115471.68, -164541.28, 118593.13, -165294.75, -0.00, -0.00, -0.00
64, -164778.00, -106982.42, -165339.47, -166385.36, -119462.05, -164553.47, 118924.53, -165618.98, -0.00, -0.00, -0.00
65, -164541.41, -106534.47, -165358.48, -165625.02, -121282.22, -164527.88, 118924.64, -165728.59, -0.00, -0.00, -0.00
66, -164886.73, -98623.60, -165300.47, -165107.56, -117498.22, -164572.00, 118637.89, -165469.20, -0.00, -0.00, -0.00
67, -165285.20, -97782.76, -165305.81, -165634.73, -115106.92, -164514.02, 118627.99, -165258.25, -0.00, -0.00, -0.00
68, -164900.25, -105647.73, -165314.08, -166057.08, -118497.01, -164539.28, 118953.84, -165539.81, -0.00, -0.00, -0.00
69, -164558.95, -107335.64, -165356.05, -165256.88, -121299.45, -164494.33, 119036.36, -165725.80, -0.00, -0.00, -0.00
70, -164802.83, -99743.07, -165289.67, -163777.86, -118188.35, -164548.39, 118771.65, -165498.64, -0.00, -0.00, -0.00
71, -165264.09, -96874.55, -165271.28, -164072.30, -114932.46, -164467.13, 118704.66, -165221.98, -0.00, -0.00, -0.00
72, -164986.53, -104032.03, -165259.89, -164866.91, -117473.70, -164522.67, 119027.77, -165421.80, -0.00, -0.00, -0.00
73, -164530.61, -107763.70, -165282.63, -164631.36, -121049.38, -164504.23, 119209.78, -165668.17, -0.00, -0.00, -0.00
74, -164671.78, -101018.80, -165247.06, -164099.03, -118830.68, -164556.91, 118990.42, -165481.41, -0.00, -0.00, -0.00
75, -165153.59, -96331.16, -165213.09, -164536.42, -114951.13, -164421.38, 118853.59, -165172.66, -0.00, -0.00, -0.00
76, -165030.56, -102295.98, -165225.36, -165416.14, -116489.87, -164476.00, 119130.10, -165305.69, -0.00, -0.00, -0.00
77, -164506.53, -107831.72, -165237.55, -165361.94, -120593.67, -164507.52, 119385.11, -165617.17, -0.00, -0.00, -0.00
78, -164542.83, -102406.99, -165214.19, -164762.03, -119444.90, -164538.05, 119218.41, -165504.78, -0.00, -0.00, -0.00
79, -165008.53, -96215.18, -165173.81, -165015.23, -115209.73, -164403.38, 119025.07, -165172.55, -0.00, -0.00, -0.00
80, -165050.34, -100573.73, -165180.80, -166517.45, -115641.33, -164415.06, 119239.83, -165219.13, -0.00, -0.00, -0.00
81, -164533.33, -107482.41, -165212.17, -167182.89, -119955.51, -164472.47, 119532.79, -165574.55, -0.00, -0.00, -0.00
82, -164470.92, -103769.58, -165200.67, -166360.52, -119954.23, -164525.64, 119408.76, -165560.44, -0.00, -0.00, -0.00
83, -164915.97, -96519.21, -165190.20, -166142.80, -115666.27, -164441.63, 119152.54, -165249.92, -0.00, -0.00, -0.00
84, -165117.36, -99004.50, -165187.08, -166804.94, -114975.11, -164417.80, 119275.48, -165185.36, -0.00, -0.00, -0.00
85, -164608.28, -106758.37, -165220.47, -166924.50, -119184.41, -164442.69, 119596.55, -165536.48, -0.00, -0.00, -0.00
86, -164438.31, -105021.92, -165223.33, -166110.17, -120335.57, -164434.31, 119548.75, -165598.55, -0.00, -0.00, -0.00
87, -164826.83, -97190.59, -165195.28, -165699.89, -116273.57, -164449.80, 119267.43, -165320.36, -0.00, -0.00, -0.00
88, -165160.41, -97624.23, -165186.88, -166294.30, -114489.07, -164395.84, 119309.96, -165145.61, -0.00, -0.00, -0.00
89, -164710.83, -105629.47, -165202.39, -166609.34, -118267.91, -164423.27, 119640.59, -165454.78, -0.00, -0.00, -0.00
90, -164433.19, -106008.09, -165230.11, -165886.97, -120485.30, -164372.36, 119672.27, -165595.78, -0.00, -0.00, -0.00
91, -164739.77, -98162.20, -165177.28, -165304.95, -116944.63, -164424.77, 119389.80, -165354.52, -0.00, -0.00, -0.00
92, -165153.70, -96518.98, -165167.56, -165783.48, -114206.34, -164372.78, 119347.78, -165120.09, -0.00, -0.00, -0.00
93, -164830.50, -104165.18, -165156.56, -166265.48, -117284.67, -164417.34, 119665.23, -165372.59, -0.00, -0.00, -0.00
94, -164452.42, -106673.90, -165215.33, -165680.83, -120411.84, -164360.66, 119779.66, -165588.13, -0.00, -0.00, -0.00
95, -164661.61, -99365.50, -165155.64, -164962.95, -117639.88, -164416.94, 119518.10, -165391.44, -0.00, -0.00, -0.00
96, -165097.56, -95768.44, -165153.95, -165279.23, -114126.98, -164358.20, 119404.76, -165109.97, -0.00, -0.00, -0.00
97, -164915.41, -102508.90, -165140.19, -165881.56, -116295.90, -164395.98, 119692.16, -165288.64, -0.00, -0.00, -0.00
98, -164458.59, -106988.70, -165202.59, -165409.41, -120111.90, -164340.33, 119880.65, -165572.31, -0.00, -0.00, -0.00
99, -164571.47, -100722.45, -165147.13, -163881.84, -118307.98, -164385.14, 119663.10, -165430.75, -0.00, -0.00, -0.00
100, -165022.83, -95409.80, -165124.31, -163683.41, -114264.20, -164330.33, 119496.27, -165112.17, -0.00, -0.00, -0.00
101, -164974.17, -100776.23, -165114.14, -164584.36, -115365.87, -164357.05, 119750.12, -165173.28, -0.00, -0.00, -0.00
102, -164451.34, -106892.16, -165135.84, -164616.09, -119571.55, -164343.44, 120026.27, -165493.34, -0.00, -0.00, -0.00
103, -164444.28, -102095.63, -165110.19, -164010.34, -118861.08, -164402.59, 119883.69, -165409.08, -0.00, -0.00, -0.00
104, -164899.55, -95441.74, -165073.94, -164167.03, -114574.75, -164298.64, 119672.78, -165073.86, -0.00, -0.00, -0.00
105, -165001.52, -99093.86, -165063.52, -165085.44, -114559.66, -164292.22, 119863.04, -165068.50, -0.00, -0.00, -0.00
106, -164450.77, -106394.32, -165078.27, -165316.72, -118858.21, -164351.50, 120189.82, -165412.31, -0.00, -0.00, -0.00
107, -164326.80, -103426.15, -165068.70, -164713.00, -119309.27, -164377.50, 120118.09, -165413.86, -0.00, -0.00, -0.00
108, -164730.27, -95888.80, -165035.02, -164662.22, -115079.41, -164290.09, 119871.57, -165086.73, -0.00, -0.00, -0.00
109, -164971.92, -97581.34, -165024.63, -165919.72, -113948.77, -164240.08, 119983.80, -165007.08, -0.00, -0.00, -0.00
110, -164488.22, -105518.52, -165058.17, -167074.55, -118021.77, -164323.72, 120319.84, -165352.88, -0.00, -0.00, -0.00
111, -164261.20, -104612.20, -165060.72, -166399.77, -119613.30, -164330.89, 120304.08, -165450.38, -0.00, -0.00, -0.00
112, -164611.89, -96730.91, -165044.25, -165909.03, -115739.54, -164320.91, 120024.33, -165177.52, -0.00, -0.00, -0.00
113, -164978.02, -96371.11, -165046.80, -166457.92, -113577.19, -164244.91, 120038.30, -164992.66, -0.00, -0.00, -0.00
114, -164579.38, -104328.09, -165073.44, -166835.30, -117121.82, -164292.30, 120370.38, -165294.91, -0.00, -0.00, -0.00
115, -164247.27, -105569.52, -165095.55, -166152.27, -119730.87, -164263.34, 120435.62, -165466.03, -0.00, -0.00, -0.00
116, -164517.06, -97897.42, -165049.81, -165504.88, -116487.09, -164320.61, 120160.36, -165240.78, -0.00, -0.00, -0.00
117, -164959.78, -95498.41, -165040.33, -165920.55, -113445.96, -164242.17, 120094.09, -164987.97, -0.00, -0.00, -0.00
118, -164668.73, -102874.33, -165024.91, -166449.44, -116210.07, -164279.75, 120404.28, -165218.75, -0.00, -0.00, -0.00
119, -164245.48, -106192.44, -165087.44, -165920.38, -119647.48, -164218.28, 120548.85, -165461.80, -0.00, -0.00, -0.00
120, -164420.77, -99252.43, -165022.45, -165153.88, -117255.17, -164267.84, 120302.07, -165289.58, -0.00, -0.00, -0.00
121, -164909.20, -94974.48, -165024.20, -165396.44, -113528.80, -164226.44, 120159.24, -164998.52, -0.00, -0.00, -0.00
122, -164772.97, -101247.63, -165014.97, -166027.95, -115308.11, -164260.42, 120427.22, -165125.16, -0.00, -0.00, -0.00
123, -164283.28, -106418.80, -165075.14, -165664.28, -119320.45, -164204.38, 120643.76, -165426.80, -0.00, -0.00, -0.00
124, -164348.45, -100681.44, -165022.23, -164240.39, -117947.02, -164231.73, 120443.51, -165313.08, -0.00, -0.00, -0.00
125, -164828.70, -94807.80, -164993.05, -163770.31, -113789.30, -164196.42, 120252.85, -164990.27, -0.00, -0.00, -0.00
126, -164837.88, -99548.88, -164974.69, -164652.78, -114463.10, -164211.75, 120482.31, -165012.78, -0.00, -0.00, -0.00
127, -164295.17, -106179.30, -164996.38, -164758.23, -118735.84, -164213.70, 120779.01, -165341.30, -0.00, -0.00, -0.00
128, -164233.22, -102047.04, -164969.66, -164144.17, -118472.87, -164278.91, 120663.36, -165283.64, -0.00, -0.00, -0.00
129, -164667.89, -94996.54, -164931.97, -164217.50, -114176.10, -164175.34, 120438.86, -164948.81, -0.00, -0.00, -0.00
130, -164823.20, -97914.12, -164923.33, -165124.89, -113724.11, -164151.61, 120601.27, -164921.69, -0.00, -0.00, -0.00
131, -164298.45, -105508.99, -164937.34, -165436.44, -117960.12, -164216.86, 120935.98, -165267.61, -0.00, -0.00, -0.00
132, -164131.92, -103308.38, -164926.63, -164851.58, -118849.83, -164233.48, 120891.04, -165303.06, -0.00, -0.00, -0.00
133, -164519.31, -95565.75, -164892.86, -164724.73, -114723.50, -164165.16, 120637.32, -164983.92, -0.00, -0.00, -0.00
134, -164803.14, -96467.60, -164882.52, -165953.22, -113175.98, -164095.45, 120718.51, -164863.80, -0.00, -0.00, -0.00
135, -164349.05, -104467.87, -164921.42, -167182.45, -117062.83, -164190.48, 121058.90, -165197.80, -0.00, -0.00, -0.00
136, -164082.83, -104378.24, -164924.95, -166543.42, -119053.01, -164200.22, 121076.29, -165330.50, -0.00, -0.00, -0.00
137, -164415.16, -96507.25, -164909.83, -165988.63, -115394.32, -164197.05, 120796.96, -165074.41, -0.00, -0.00, -0.00
138, -164813.06, -95341.67, -164902.50, -166494.36, -112867.79, -164108.11, 120780.59, -164858.17, -0.00, -0.00, -0.00
139, -164464.91, -103122.05, -164915.81, -166937.34, -116120.88, -164151.89, 121106.20, -165134.73, -0.00, -0.00, -0.00
140, -164097.86, -105183.23, -164953.36, -166309.28, -119069.33, -164114.50, 121199.91, -165341.72, -0.00, -0.00, -0.00
141, -164330.16, -97741.60, -164907.20, -165610.55, -116138.34, -164185.50, 120930.71, -165139.00, -0.00, -0.00, -0.00
142, -164798.58, -94592.67, -164910.25, -165967.03, -112811.28, -164106.09, 120831.94, -164866.11, -0.00, -0.00, -0.00
143, -164576.38, -101596.01, -164908.28, -166542.69, -115205.09, -164146.28, 121128.99, -165050.53, -0.00, -0.00, -0.00
144, -164126.64, -105658.52, -164959.59, -166079.72, -118888.12, -164092.59, 121303.78, -165320.02, -0.00, -0.00, -0.00
145, -164254.97, -99134.37, -164905.08, -165280.30, -116877.24, -164156.44, 121071.21, -165171.11, -0.00, -0.00, -0.00
146, -164751.39, -94208.69, -164893.42, -165451.25, -112961.00, -164100.83, 120905.23, -164870.66, -0.00, -0.00, -0.00
147, -164683.61, -99930.00, -164861.45, -166112.09, -114324.81, -164121.45, 121151.95, -164969.45, -0.00, -0.00, -0.00
148, -164183.14, -105709.58, -164933.34, -165848.27, -118470.66, -164072.59, 121389.23, -165289.33, -0.00, -0.00, -0.00
149, -164209.45, -100568.19, -164892.30, -164997.38, -117524.71, -164102.19, 121208.21, -165205.14, -0.00, -0.00, -0.00
150, -164692.83, -94213.63, -164876.11, -164966.48, -113298.91, -164089.20, 120983.57, -164897.86, -0.00, -0.00, -0.00
151, -164779.88, -98288.41, -164844.42, -165658.03, -113553.05, -164097.86, 121166.30, -164886.42, -0.00, -0.00, -0.00
152, -164247.11, -105360.24, -164901.48, -165598.13, -117854.91, -164073.06, 121457.20, -165228.20, -0.00, -0.00, -0.00
153, -164164.75, -101954.62, -164879.00, -164311.16, -118049.84, -164061.06, 121344.89, -165215.73, -0.00, -0.00, -0.00
154, -164590.84, -94588.58, -164832.28, -163395.06, -113799.16, -164064.08, 121095.34, -164902.42, -0.00, -0.00, -0.00
155, -164808.84, -96743.06, -164829.84, -164206.73, -112919.27, -164040.31, 121225.66, -164799.66, -0.00, -0.00, -0.00
156, -164291.89, -104554.59, -164839.30, -164601.75, -117044.59, -164087.02, 121569.26, -165131.33, -0.00, -0.00, -0.00
157, -164084.48, -103130.25, -164833.94, -164045.91, -118354.88, -164105.39, 121554.57, -165192.58, -0.00, -0.00, -0.00
158, -164437.22, -95273.55, -164797.55, -163852.45, -114376.20, -164066.17, 121295.09, -164886.11, -0.00, -0.00, -0.00
159, -164774.42, -95373.15, -164771.48, -164673.20, -112437.01, -163981.84, 121350.09, -164725.73, -0.00, -0.00, -0.00
160, -164332.86, -103344.61, -164776.42, -165252.39, -116094.02, -164076.28, 121706.32, -165031.69, -0.00, -0.00, -0.00
161, -164012.06, -104049.69, -164781.59, -164789.92, -118448.87, -164081.56, 121776.01, -165183.34, -0.00, -0.00, -0.00
162, -164290.39, -96258.37, -164754.03, -164426.05, -115024.33, -164059.16, 121520.53, -164916.28, -0.00, -0.00, -0.00
163, -164707.78, -94307.69, -164722.88, -165315.00, -112151.73, -163937.97, 121494.49, -164685.28, -0.00, -0.00, -0.00
164, -164397.05, -101842.57, -164753.56, -166868.53, -115083.72, -164029.48, 121822.59, -164948.09, -0.00, -0.00, -0.00
165, -163996.94, -104671.77, -164775.13, -166573.17, -118329.39, -164024.78, 121953.59, -165190.94, -0.00, -0.00, -0.00
166, -164190.98, -97512.86, -164756.31, -165829.28, -115724.19, -164069.84, 121699.74, -165005.13, -0.00, -0.00, -0.00
167, -164671.36, -93651.77, -164748.91, -166116.39, -112141.47, -163958.72, 121576.81, -164721.98, -0.00, -0.00, -0.00
168, -164498.02, -100209.55, -164751.94, -166730.17, -114150.78, -164005.61, 121860.34, -164890.41, -0.00, -0.00, -0.00
169, -164023.27, -104967.01, -164798.31, -166341.30, -118037.79, -163966.17, 122063.66, -165182.52, -0.00, -0.00, -0.00
170, -164116.03, -98921.35, -164754.80, -165514.30, -116428.84, -164036.63, 121849.93, -165056.14, -0.00, -0.00, -0.00
171, -164608.28, -93401.27, -164752.13, -165609.45, -112382.16, -163968.25, 121657.26, -164750.80, -0.00, -0.00, -0.00
172, -164590.89, -98554.13, -164749.52, -166286.84, -113339.37, -163984.55, 121881.94, -164811.50, -0.00, -0.00, -0.00
173, -164060.77, -104900.00, -164801.02, -166100.81, -117594.55, -163948.72, 122142.84, -165148.05, -0.00, -0.00, -0.00
174, -164048.36, -100382.22, -164765.31, -165241.20, -117090.23, -163997.00, 121985.29, -165093.23, -0.00, -0.00, -0.00
175, -164514.89, -93587.35, -164744.72, -165128.14, -112829.23, -163970.58, 121743.64, -164789.92, -0.00, -0.00, -0.00
176, -164656.56, -96975.05, -164710.92, -165813.11, -112659.70, -163956.09, 121899.99, -164735.59, -0.00, -0.00, -0.00
177, -164124.72, -104422.23, -164762.39, -165835.55, -116949.38, -163931.98, 122205.48, -165081.81, -0.00, -0.00, -0.00
178, -163999.80, -101770.22, -164751.73, -164991.52, -117591.05, -163943.47, 122120.63, -165105.77, -0.00, -0.00, -0.00
179, -164413.30, -94165.98, -164710.98, -164673.75, -113426.98, -163963.45, 121846.82, -164817.25, -0.00, -0.00, -0.00
180, -164696.05, -95565.26, -164711.59, -165314.88, -112148.78, -163933.25, 121926.66, -164684.83, -0.00, -0.00, -0.00
181, -164211.56, -103533.95, -164741.83, -165543.77, -116147.59, -163933.61, 122254.72, -165014.19, -0.00, -0.00, -0.00
182, -163973.08, -102938.66, -164756.17, -164512.34, -117892.02, -163896.73, 122249.35, -165116.20, -0.00, -0.00, -0.00
183, -164300.63, -95053.63, -164690.36, -163209.50, -114109.95, -163934.73, 121974.76, -164845.83, -0.00, -0.00, -0.00
184, -164674.23, -94368.46, -164680.81, -163783.11, -111801.25, -163879.56, 121992.20, -164624.13, -0.00, -0.00, -0.00
185, -164263.83, -102243.56, -164674.42, -164432.55, -115208.91, -163930.80, 122342.41, -164894.36, -0.00, -0.00, -0.00
186, -163898.55, -103767.73, -164691.88, -164022.22, -117922.16, -163908.80, 122443.05, -165072.41, -0.00, -0.00, -0.00
187, -164134.08, -96152.22, -164648.36, -163606.27, -114781.37, -163940.45, 122192.91, -164826.63, -0.00, -0.00, -0.00
188, -164577.86, -93446.36, -164623.55, -164241.27, -111609.16, -163822.61, 122135.65, -164566.97, -0.00, -0.00, -0.00
189, -164299.17, -100663.20, -164634.31, -165027.64, -114205.99, -163908.59, 122463.82, -164788.77, -0.00, -0.00, -0.00
190, -163848.05, -104233.16, -164645.77, -164768.83, -117711.13, -163918.17, 122644.78, -165043.80, -0.00, -0.00, -0.00
191, -163995.34, -97413.50, -164620.23, -164236.08, -115435.83, -163937.02, 122426.42, -164857.52, -0.00, -0.00, -0.00
192, -164464.11, -92865.39, -164579.70, -164768.05, -111616.54, -163794.89, 122300.78, -164548.55, -0.00, -0.00, -0.00
193, -164343.03, -98921.64, -164586.94, -166399.80, -113220.77, -163851.94, 122578.62, -164691.83, -0.00, -0.00, -0.00
194, -163849.50, -104318.31, -164620.30, -166588.55, -117273.59, -163885.63, 122810.05, -165015.70, -0.00, -0.00, -0.00
195, -163912.88, -98801.77, -164611.70, -165745.05, -116057.30, -163946.08, 122617.73, -164920.08, -0.00, -0.00, -0.00
196, -164398.80, -92748.52, -164605.30, -165758.66, -111875.82, -163834.59, 122406.44, -164608.98, -0.00, -0.00, -0.00
197, -164446.47, -97248.03, -164611.14, -166445.88, -112397.30, -163844.83, 122607.88, -164650.47, -0.00, -0.00, -0.00
198, -163928.02, -104062.59, -164652.98, -166340.36, -116694.16, -163826.53, 122888.12, -164997.33, -0.00, -0.00, -0.00
199, -163872.64, -100225.91, -164622.45, -165480.02, -116617.41, -163863.14, 122757.20, -164969.70, -0.00, -0.00, -0.00
200, -164324.72, -93058.31, -164598.69, -165286.00, -112350.86, -163843.38, 122502.46, -164669.47, -0.00, -0.00, -0.00
201, -164526.58, -95691.46, -164593.38, -165963.00, -111748.64, -163819.39, 122630.14, -164580.06, -0.00, -0.00, -0.00
202, -164010.23, -103393.84, -164630.30, -166069.70, -115960.66, -163808.38, 122945.97, -164918.89, -0.00, -0.00, -0.00
203, -163851.94, -101504.41, -164627.56, -165247.94, -117025.51, -163804.27, 122888.05, -164972.39, -0.00, -0.00, -0.00
204, -164244.86, -93727.21, -164582.70, -164854.92, -112965.18, -163834.92, 122605.30, -164692.61, -0.00, -0.00, -0.00
205, -164573.83, -94329.27, -164570.88, -165466.66, -111277.17, -163796.34, 122653.14, -164534.25, -0.00, -0.00, -0.00
206, -164121.95, -102332.90, -164587.53, -165770.50, -115092.93, -163818.39, 122981.40, -164854.89, -0.00, -0.00, -0.00
207, -163847.58, -102557.60, -164618.83, -165036.17, -117232.34, -163763.98, 123005.63, -164987.30, -0.00, -0.00, -0.00
208, -164151.97, -94717.70, -164563.53, -164465.38, -113664.74, -163812.63, 122723.45, -164741.52, -0.00, -0.00, -0.00
209, -164544.22, -93251.52, -164563.42, -164959.27, -111011.57, -163767.00, 122691.05, -164512.77, -0.00, -0.00, -0.00
210, -164218.08, -100952.63, -164564.47, -165431.94, -114153.98, -163788.75, 123011.32, -164773.02, -0.00, -0.00, -0.00
211, -163842.44, -103305.69, -164614.38, -164715.67, -117219.95, -163738.86, 123118.86, -164980.20, -0.00, -0.00, -0.00
212, -164050.72, -95957.66, -164544.80, -163215.27, -114399.38, -163797.16, 122862.93, -164776.11, -0.00, -0.00, -0.00
213, -164491.48, -92513.29, -164533.95, -163378.45, -110953.25, -163727.13, 122771.94, -164483.70, -0.00, -0.00, -0.00
214, -164279.59, -99332.96, -164534.34, -164209.34, -113186.77, -163785.89, 123081.66, -164644.53, -0.00, -0.00, -0.00
215, -163806.94, -103646.42, -164551.50, -164023.31, -116933.33, -163768.91, 123289.45, -164916.84, -0.00, -0.00, -0.00
216, -163902.63, -97275.59, -164507.00, -163461.23, -115044.09, -163819.13, 123088.98, -164752.47, -0.00, -0.00, -0.00
217, -164380.22, -92095.46, -164474.41, -163840.50, -111045.77, -163687.50, 122933.65, -164433.98, -0.00, -0.00, -0.00
218, -164311.33, -97589.14, -164479.19, -164740.70, -112238.01, -163724.83, 123193.45, -164538.77, -0.00, -0.00, -0.00
219, -163782.58, -103568.88, -164493.80, -164746.86, -116409.47, -163755.22, 123465.98, -164859.98, -0.00, -0.00, -0.00
220, -163779.00, -98633.57, -164475.48, -164134.11, -115604.31, -163801.11, 123317.79, -164770.22, -0.00, -0.00, -0.00
221, -164227.77, -92080.16, -164437.67, -164323.52, -111336.16, -163672.30, 123111.35, -164436.22, -0.00, -0.00, -0.00
222, -164311.89, -95886.77, -164431.81, -165829.08, -111420.31, -163670.52, 123304.02, -164460.02, -0.00, -0.00, -0.00
223, -163787.30, -103103.03, -164463.03, -166558.08, -115720.54, -163724.47, 123607.63, -164816.94, -0.00, -0.00, -0.00
224, -163690.84, -99976.53, -164463.17, -165738.05, -116074.68, -163763.02, 123508.27, -164824.47, -0.00, -0.00, -0.00
225, -164115.69, -92513.35, -164454.86, -165457.08, -111849.60, -163705.98, 123244.07, -164522.61, -0.00, -0.00, -0.00
226, -164355.52, -94391.81, -164456.63, -166103.86, -110828.17, -163665.81, 123344.03, -164420.72, -0.00, -0.00, -0.00
227, -163869.28, -102286.02, -164489.56, -166283.11, -114925.67, -163685.89, 123670.68, -164763.94, -0.00, -0.00, -0.00
228, -163658.53, -101190.23, -164492.34, -165491.06, -116413.05, -163663.95, 123645.17, -164855.75, -0.00, -0.00, -0.00
229, -164013.83, -93334.34, -164448.13, -165021.53, -112512.02, -163698.16, 123360.88, -164587.02, -0.00, -0.00, -0.00
230, -164366.20, -93172.22, -164441.13, -165581.22, -110457.58, -163649.83, 123377.80, -164400.00, -0.00, -0.00, -0.00
231, -163949.34, -101136.01, -164450.03, -165949.00, -114057.41, -163686.30, 123706.75, -164700.48, -0.00, -0.00, -0.00
232, -163632.88, -102178.13, -164488.11, -165260.95, -116573.53, -163635.48, 123765.77, -164867.33, -0.00, -0.00, -0.00
233, -163907.14, -94480.69, -164431.86, -164627.77, -113275.46, -163690.36, 123490.01, -164643.53, -0.00, -0.00, -0.00
234, -164335.81, -92288.98, -164432.75, -165054.64, -110324.67, -163633.97, 123426.73, -164389.75, -0.00, -0.00, -0.00
235, -164040.39, -99746.84, -164428.84, -165573.20, -113168.20, -163674.78, 123736.93, -164606.47, -0.00, -0.00, -0.00
236, -163624.23, -102901.10, -164486.86, -165032.00, -116548.30, -163614.58, 123873.50, -164846.09, -0.00, -0.00, -0.00
237, -163800.38, -95897.83, -164420.91, -164275.34, -114094.85, -163669.80, 123622.71, -164672.67, -0.00, -0.00, -0.00
238, -164275.25, -91801.78, -164413.25, -164531.56, -110444.13, -163624.84, 123487.21, -164383.70, -0.00, -0.00, -0.00
239, -164121.33, -98207.10, -164385.27, -165153.88, -112328.22, -163656.03, 123759.80, -164516.03, -0.00, -0.00, -0.00
240, -163637.83, -103229.47, -164457.64, -164741.81, -116305.82, -163598.31, 123971.69, -164816.86, -0.00, -0.00, -0.00
241, -163707.72, -97390.88, -164412.09, -163208.00, -114851.55, -163624.86, 123770.57, -164696.52, -0.00, -0.00, -0.00
242, -164173.83, -91664.05, -164384.09, -162909.05, -110739.59, -163589.86, 123588.87, -164374.39, -0.00, -0.00, -0.00
243, -164158.97, -96572.36, -164367.09, -163812.91, -111528.36, -163611.56, 123826.02, -164418.55, -0.00, -0.00, -0.00
244, -163622.36, -103095.05, -164391.31, -163902.86, -115797.50, -163605.17, 124118.74, -164747.69, -0.00, -0.00, -0.00
245, -163580.56, -98822.67, -164364.59, -163289.34, -115445.48, -163651.31, 123996.77, -164686.50, -0.00, -0.00, -0.00
246, -164019.36, -91862.18, -164329.84, -163385.25, -111164.59, -163568.39, 123774.68, -164355.08, -0.00, -0.00, -0.00
247, -164164.92, -94948.51, -164316.31, -164302.91, -110815.79, -163549.58, 123944.87, -164318.98, -0.00, -0.00, -0.00
248, -163652.00, -102475.75, -164328.17, -164594.86, -115060.74, -163612.33, 124281.64, -164661.73, -0.00, -0.00, -0.00
249, -163485.38, -100095.27, -164321.91, -164002.39, -115850.23, -163643.84, 124232.80, -164692.03, -0.00, -0.00, -0.00
250, -163877.16, -92403.83, -164288.58, -163892.89, -111707.13, -163562.94, 123983.02, -164372.38, -0.00, -0.00, -0.00
251, -164149.97, -93481.63, -164267.91, -165109.41, -110257.95, -163496.95, 124075.53, -164259.56, -0.00, -0.00, -0.00
252, -163712.69, -101466.68, -164295.64, -166344.41, -114181.80, -163582.11, 124415.26, -164598.83, -0.00, -0.00, -0.00
253, -163450.92, -101187.08, -164311.69, -165710.91, -116073.90, -163592.48, 124425.83, -164718.50, -0.00, -0.00, -0.00
254, -163790.20, -93317.95, -164300.69, -165171.89, -112376.90, -163593.86, 124146.57, -164459.97, -0.00, -0.00, -0.00
255, -164181.98, -92336.71, -164299.33, -165694.13, -109941.79, -163510.34, 124137.47, -164249.38, -0.00, -0.00, -0.00
0, -163822.05, -100156.73, -164320.50, -166124.63, -113253.98, -163555.13, 124465.98, -164528.75, -0.00, -0.00, -0.00
1, -163466.64, -102003.44, -164349.05, -165482.39, -116108.97, -163506.42, 124554.66, -164724.66, -0.00, -0.00, -0.00
2, -163716.83, -94491.13, -164299.64, -164798.72, -113098.48, -163570.06, 124285.71, -164513.55, -0.00, -0.00, -0.00
3, -164187.80, -91507.52, -164298.58, -165177.02, -109829.70, -163499.73, 124196.44, -164248.19, -0.00, -0.00, -0.00
4, -163962.36, -98586.48, -164291.27, -165748.73, -112296.97, -163539.86, 124495.37, -164456.91, -0.00, -0.00, -0.00
5, -163527.45, -102447.36, -164348.73, -165271.92, -115907.18, -163479.80, 124660.81, -164720.48, -0.00, -0.00, -0.00
6, -163672.72, -95799.57, -164291.27, -164483.08, -113792.64, -163530.20, 124422.57, -164566.14, -0.00, -0.00, -0.00
7, -164182.31, -91022.58, -164288.16, -164679.69, -109916.24, -163489.45, 124260.07, -164268.89, -0.00, -0.00, -0.00
8, -164095.11, -96871.59, -164270.56, -165338.89, -111372.80, -163513.80, 124514.27, -164364.59, -0.00, -0.00, -0.00
9, -163582.16, -102488.35, -164331.66, -165057.25, -115470.59, -163467.84, 124747.34, -164681.20, -0.00, -0.00, -0.00
10, -163628.88, -97181.11, -164279.14, -164209.08, -114407.45, -163522.97, 124560.92, -164592.55, -0.00, -0.00, -0.00
11, -164101.30, -90934.59, -164264.66, -164202.25, -110195.91, -163488.34, 124340.88, -164287.69, -0.00, -0.00, -0.00
12, -164169.88, -95179.55, -164248.91, -164899.86, -110553.27, -163492.86, 124529.19, -164283.45, -0.00, -0.00, -0.00
13, -163654.58, -102141.91, -164304.11, -164814.92, -114839.77, -163460.73, 124815.84, -164627.83, -0.00, -0.00, -0.00
14, -163585.23, -98556.30, -164279.22, -163445.83, -114921.60, -163464.61, 124698.43, -164609.48, -0.00, -0.00, -0.00
15, -164009.70, -91258.34, -164233.59, -162628.42, -110661.83, -163463.27, 124451.80, -164295.38, -0.00, -0.00, -0.00
16, -163637.89, -101203.60, -164183.13, -164477.73, -113868.43, -163458.72, 125105.99, -164480.92, -0.00, -0.00, -0.00
17, -163424.84, -99648.88, -164177.89, -163903.25, -115099.09, -163479.58, 125088.45, -164549.89, -0.00, -0.00, -0.00
18, -163776.61, -91833.39, -164145.86, -163714.94, -111108.33, -163422.58, 124831.16, -164243.30, -0.00, -0.00, -0.00
19, -164104.33, -92091.62, -164125.09, -164846.34, -109255.93, -163341.52, 124888.11, -164089.77, -0.00, -0.00, -0.00
20, -163675.16, -100081.63, -164159.86, -166184.23, -112961.48, -163422.09, 125228.13, -164412.47, -0.00, -0.00, -0.00
21, -163366.88, -100663.94, -164170.92, -165621.53, -115258.98, -163439.17, 125270.59, -164575.63, -0.00, -0.00, -0.00
22, -163656.41, -92888.75, -164154.72, -165015.30, -111818.27, -163455.75, 124993.32, -164337.38, -0.00, -0.00, -0.00
23, -164084.83, -91111.66, -164151.09, -165483.06, -109041.41, -163357.11, 124950.54, -164099.84, -0.00, -0.00, -0.00
24, -163757.86, -98707.58, -164162.92, -165970.23, -112044.84, -163410.30, 125268.89, -164349.89, -0.00, -0.00, -0.00
25, -163361.31, -101378.39, -164200.88, -165384.03, -115231.22, -163350.81, 125388.27, -164574.97, -0.00, -0.00, -0.00
26, -163568.09, -94177.93, -164146.67, -164648.00, -112572.63, -163407.09, 125130.13, -164387.48, -0.00, -0.00, -0.00
27, -164047.41, -90478.30, -164150.84, -164953.45, -109057.02, -163349.88, 125011.05, -164104.22, -0.00, -0.00, -0.00
28, -163866.53, -97131.07, -164146.52, -165562.38, -111147.27, -163384.89, 125293.10, -164265.44, -0.00, -0.00, -0.00
29, -163391.47, -101742.66, -164203.00, -165154.16, -114990.20, -163328.44, 125487.77, -164557.05, -0.00, -0.00, -0.00
30, -163493.55, -95609.56, -164151.34, -164328.25, -113301.41, -163377.25, 125269.07, -164429.64, -0.00, -0.00, -0.00
31, -163986.16, -90220.80, -164139.03, -164441.27, -109282.32, -163344.39, 125081.30, -164125.55, -0.00, -0.00, -0.00
32, -163958.94, -95474.67, -164108.09, -165117.73, -110314.20, -163361.83, 125310.27, -164180.53, -0.00, -0.00, -0.00
33, -163430.19, -101685.03, -164176.28, -164901.83, -114521.20, -163320.44, 125566.04, -164514.63, -0.00, -0.00, -0.00
34, -163426.50, -97030.91, -164135.38, -163551.91, -113916.04, -163360.22, 125405.58, -164451.59, -0.00, -0.00, -0.00
35, -163888.23, -90319.93, -164100.53, -162828.86, -109662.59, -163329.36, 125181.01, -164129.56, -0.00, -0.00, -0.00
36, -164009.97, -93829.52, -164100.64, -163687.52, -109565.97, -163325.00, 125362.77, -164093.38, -0.00, -0.00, -0.00
37, -163470.86, -101157.66, -164116.00, -163933.33, -113821.38, -163343.77, 125688.23, -164430.80, -0.00, -0.00, -0.00
38, -163333.59, -98322.62, -164092.55, -163330.05, -114342.05, -163376.69, 125620.55, -164433.69, -0.00, -0.00, -0.00
39, -163731.50, -90765.83, -164053.13, -163269.58, -110157.06, -163315.45, 125374.13, -164112.89, -0.00, -0.00, -0.00
40, -163985.67, -92311.74, -164038.52, -164151.70, -108953.26, -163261.19, 125483.47, -164000.72, -0.00, -0.00, -0.00
41, -163496.13, -100222.89, -164047.84, -164597.06, -112949.93, -163324.73, 125831.47, -164328.39, -0.00, -0.00, -0.00
42, -163243.70, -99442.82, -164049.92, -164050.84, -114583.64, -163336.50, 125842.09, -164422.33, -0.00, -0.00, -0.00
43, -163577.14, -91564.39, -164022.17, -163798.03, -110764.11, -163304.83, 125584.05, -164127.38, -0.00, -0.00, -0.00
44, -163935.80, -91053.56, -163999.27, -164893.55, -108543.46, -163210.94, 125611.57, -163952.30, -0.00, -0.00, -0.00
45, -163546.45, -98956.87, -164034.34, -166297.75, -112005.46, -163296.83, 125949.23, -164259.55, -0.00, -0.00, -0.00
46, -163205.95, -100317.45, -164046.13, -165781.83, -114648.64, -163298.08, 126019.65, -164444.28, -0.00, -0.00, -0.00
47, -163469.83, -92695.95, -164015.64, -165120.42, -111474.27, -163329.27, 125746.55, -164220.31, -0.00, -0.00, -0.00
48, -163918.77, -90182.80, -164017.81, -165531.63, -108399.79, -163224.61, 125677.40, -163965.17, -0.00, -0.00, -0.00
49, -163649.13, -97484.05, -164028.88, -166069.70, -111078.53, -163271.08, 125986.59, -164191.58, -0.00, -0.00, -0.00
50, -163220.45, -100908.66, -164072.06, -165542.58, -114530.47, -163221.75, 126135.61, -164446.56, -0.00, -0.00, -0.00
51, -163384.45, -94048.49, -164019.33, -164766.59, -112217.63, -163290.69, 125890.02, -164282.45, -0.00, -0.00, -0.00
52, -163874.63, -89697.21, -164018.45, -165005.58, -108495.52, -163225.22, 125743.24, -163991.03, -0.00, -0.00, -0.00
53, -163750.14, -95892.45, -163998.47, -165645.55, -110207.59, -163255.44, 126006.97, -164112.69, -0.00, -0.00, -0.00
54, -163251.80, -101144.44, -164061.73, -165307.42, -114222.84, -163204.81, 126224.43, -164414.02, -0.00, -0.00, -0.00
55, -163311.47, -95523.13, -164016.14, -164459.34, -112933.28, -163254.09, 126025.03, -164307.47, -0.00, -0.00, -0.00
56, -163795.55, -89621.93, -164004.52, -164496.14, -108814.79, -163220.13, 125819.28, -164000.05, -0.00, -0.00, -0.00
57, -163829.83, -94284.77, -163969.69, -165185.67, -109444.06, -163232.58, 126026.48, -164035.83, -0.00, -0.00, -0.00
58, -163303.78, -100973.42, -164032.36, -165055.05, -113713.65, -163200.56, 126300.38, -164377.25, -0.00, -0.00, -0.00
59, -163256.05, -96962.53, -164006.08, -164188.22, -113534.74, -163220.97, 126160.48, -164343.36, -0.00, -0.00, -0.00
60, -163709.92, -89914.20, -163985.56, -164017.09, -109296.77, -163222.63, 125906.10, -164046.91, -0.00, -0.00, -0.00
61, -163897.05, -92736.89, -163958.41, -164701.70, -108806.97, -163207.78, 126038.30, -163967.05, -0.00, -0.00, -0.00
62, -163381.97, -100362.95, -164002.55, -164781.61, -113013.57, -163191.06, 126350.52, -164308.61, -0.00, -0.00, -0.00
63, -163217.63, -98280.70, -164004.44, -163590.98, -113968.66, -163169.89, 126288.89, -164351.50, -0.00, -0.00, -0.00
64, -163597.38, -90555.05, -163953.69, -162474.28, -109897.20, -163191.83, 126023.63, -164054.72, -0.00, -0.00, -0.00
65, -163902.92, -91349.27, -163945.50, -163201.84, -108310.88, -163151.13, 126098.59, -163893.42, -0.00, -0.00, -0.00
66, -163433.61, -99323.59, -163946.55, -163722.44, -112136.84, -163192.31, 126450.61, -164201.63, -0.00, -0.00, -0.00
67, -163140.59, -99322.41, -163950.64, -163216.77, -114156.59, -163185.14, 126490.35, -164321.28, -0.00, -0.00, -0.00
68, -163437.56, -91481.71, -163910.72, -162905.05, -110550.90, -163192.63, 126230.94, -164044.41, -0.00, -0.00, -0.00
69, -163826.59, -90228.94, -163891.70, -163648.16, -108004.32, -163090.53, 126231.65, -163833.03, -0.00, -0.00, -0.00
70, -163461.30, -97963.98, -163905.50, -164335.30, -111190.02, -163163.50, 126577.45, -164105.08, -0.00, -0.00, -0.00
71, -163064.67, -100103.60, -163911.48, -163950.63, -114147.05, -163188.11, 126700.70, -164305.45, -0.00, -0.00, -0.00
72, -163280.58, -92700.82, -163877.67, -163485.22, -111269.30, -163199.14, 126461.85, -164074.61, -0.00, -0.00, -0.00
73, -163718.28, -89476.11, -163845.86, -164199.00, -107925.69, -163060.58, 126385.32, -163803.91, -0.00, -0.00, -0.00
74, -163497.44, -96415.14, -163867.31, -165815.77, -110258.73, -163126.17, 126692.84, -164017.31, -0.00, -0.00, -0.00
75, -163039.75, -100563.65, -163895.84, -165734.69, -113952.59, -163128.41, 126874.27, -164300.27, -0.00, -0.00, -0.00
76, -163168.89, -94136.80, -163871.97, -164921.00, -112019.66, -163202.91, 126646.43, -164157.67, -0.00, -0.00, -0.00
77, -163645.13, -89172.88, -163868.39, -165080.48, -108126.25, -163089.03, 126478.41, -163856.50, -0.00, -0.00, -0.00
78, -163579.20, -94840.33, -163867.88, -165741.06, -109442.70, -163116.20, 126725.98, -163954.75, -0.00, -0.00, -0.00
79, -163073.06, -100695.70, -163917.67, -165475.02, -113591.25, -163076.91, 126969.55, -164277.58, -0.00, -0.00, -0.00
80, -163088.20, -95649.19, -163881.78, -164608.28, -112723.94, -163130.22, 126794.31, -164198.34, -0.00, -0.00, -0.00
81, -163558.48, -89255.90, -163873.08, -164565.11, -108531.26, -163095.89, 126570.30, -163894.63, -0.00, -0.00, -0.00
82, -163651.42, -93261.24, -163858.28, -165256.48, -108738.71, -163097.59, 126750.23, -163873.11, -0.00, -0.00, -0.00
83, -163138.45, -100379.89, -163907.64, -165202.39, -113028.34, -163076.11, 127041.63, -164217.64, -0.00, -0.00, -0.00
84, -163041.75, -97087.84, -163886.98, -164336.39, -113295.06, -163088.58, 126931.13, -164217.48, -0.00, -0.00, -0.00
85, -163470.22, -89735.55, -163854.08, -164081.58, -109108.20, -163098.44, 126668.41, -163924.02, -0.00, -0.00, -0.00
86, -163698.72, -91812.85, -163837.36, -164747.30, -108207.05, -163073.89, 126774.87, -163822.64, -0.00, -0.00, -0.00
87, -163218.41, -99652.01, -163872.30, -164904.17, -112312.08, -163064.78, 127097.67, -164159.41, -0.00, -0.00, -0.00
88, -163001.25, -98373.17, -163879.98, -164089.50, -113695.30, -163037.44, 127067.07, -164228.70, -0.00, -0.00, -0.00
89, -163363.70, -90572.53, -163828.92, -163636.33, -109797.17, -163080.69, 126787.18, -163959.11, -0.00, -0.00, -0.00
90, -163704.66, -90608.29, -163826.70, -164217.84, -107851.32, -163044.91, 126812.64, -163778.17, -0.00, -0.00, -0.00
91, -163287.95, -98581.83, -163839.11, -164565.83, -111482.05, -163074.05, 127141.81, -164081.33, -0.00, -0.00, -0.00
92, -162964.86, -99437.07, -163877.91, -163635.94, -113908.46, -163013.19, 127191.66, -164239.36, -0.00, -0.00, -0.00
93, -163240.97, -91724.42, -163808.20, -162204.13, -110582.03, -163056.03, 126922.81, -164001.69, -0.00, -0.00, -0.00
94, -163648.53, -89704.90, -163799.80, -162649.38, -107713.48, -162998.33, 126885.62, -163740.61, -0.00, -0.00, -0.00
95, -163340.22, -97208.00, -163789.78, -163395.66, -110600.45, -163053.48, 127218.93, -163956.23, -0.00, -0.00, -0.00
96, -162904.73, -100138.88, -163811.55, -163070.52, -113870.09, -163033.08, 127371.81, -164175.28, -0.00, -0.00, -0.00
97, -163082.75, -93051.80, -163768.36, -162564.98, -111337.41, -163082.14, 127141.84, -163966.41, -0.00, -0.00, -0.00
98, -163531.25, -89126.44, -163738.14, -163086.39, -107755.41, -162951.72, 127038.02, -163678.17, -0.00, -0.00, -0.00
99, -163375.75, -95627.63, -163734.95, -163940.97, -109707.30, -163007.28, 127337.28, -163851.06, -0.00, -0.00, -0.00
100, -162880.94, -100470.55, -163754.94, -163794.41, -113601.80, -163006.44, 127563.23, -164147.20, -0.00, -0.00, -0.00
101, -162957.08, -94508.70, -163734.38, -163203.58, -112054.90, -163061.48, 127374.74, -164010.08, -0.00, -0.00, -0.00
102, -163414.98, -88939.76, -163697.47, -163559.94, -108006.38, -162928.39, 127206.41, -163687.78, -0.00, -0.00, -0.00
103, -163398.64, -93996.80, -163700.61, -165108.78, -108896.45, -162956.86, 127447.72, -163767.73, -0.00, -0.00, -0.00
104, -162890.28, -100388.66, -163731.47, -165613.39, -113129.15, -162978.23, 127719.92, -164113.52, -0.00, -0.00, -0.00
105, -162862.11, -95972.04, -163720.91, -164761.34, -112691.55, -163032.03, 127569.54, -164072.44, -0.00, -0.00, -0.00
106, -163319.92, -89150.80, -163716.63, -164633.25, -108463.76, -162961.98, 127330.71, -163765.70, -0.00, -0.00, -0.00
107, -163457.88, -92443.08, -163720.52, -165319.08, -108244.17, -162949.94, 127486.61, -163726.05, -0.00, -0.00, -0.00
108, -162960.70, -99907.58, -163760.77, -165343.69, -112498.49, -162945.78, 127793.70, -164076.50, -0.00, -0.00, -0.00
109, -162818.38, -97357.80, -163751.75, -164488.25, -113200.49, -162957.91, 127714.11, -164105.00, -0.00, -0.00, -0.00
110, -163233.31, -89762.39, -163724.64, -164154.25, -109086.73, -162970.66, 127444.41, -163821.83, -0.00, -0.00, -0.00
111, -163501.23, -91079.40, -163702.86, -164794.69, -107773.80, -162936.48, 127521.86, -163676.39, -0.00, -0.00, -0.00
112, -163055.80, -99045.63, -163724.31, -165024.11, -111730.76, -162949.73, 127853.34, -163998.00, -0.00, -0.00, -0.00
113, -162792.72, -98558.63, -163747.44, -164239.09, -113524.22, -162902.97, 127853.63, -164108.98, -0.00, -0.00, -0.00
114, -163139.36, -90711.47, -163699.50, -163719.86, -109811.21, -162950.41, 127570.88, -163855.31, -0.00, -0.00, -0.00
115, -163509.58, -89965.79, -163699.72, -164261.02, -107498.41, -162908.53, 127566.72, -163645.70, -0.00, -0.00, -0.00
116, -163145.41, -97836.98, -163707.05, -164674.42, -110880.32, -162928.47, 127892.68, -163925.39, -0.00, -0.00, -0.00
117, -162782.19, -99486.92, -163751.84, -163877.22, -113651.04, -162877.56, 127972.52, -164112.45, -0.00, -0.00, -0.00
118, -163037.50, -91946.73, -163682.27, -162400.30, -110599.09, -162930.73, 127711.43, -163890.92, -0.00, -0.00, -0.00
119, -163460.31, -89183.55, -163669.33, -162651.58, -107434.08, -162866.52, 127647.50, -163613.92, -0.00, -0.00, -0.00
120, -163209.44, -96360.47, -163655.33, -163441.98, -109986.36, -162923.27, 127972.54, -163803.66, -0.00, -0.00, -0.00
121, -162743.42, -100027.59, -163680.17, -163181.14, -113512.97, -162902.33, 128154.64, -164054.44, -0.00, -0.00, -0.00
122, -162885.06, -93317.23, -163645.55, -162637.56, -111326.01, -162956.28, 127938.05, -163870.17, -0.00, -0.00, -0.00
123, -163333.91, -88744.05, -163612.02, -163086.80, -107543.56, -162826.33, 127809.02, -163565.02, -0.00, -0.00, -0.00
124, -163224.64, -94744.59, -163612.23, -163969.95, -109117.14, -162877.58, 128089.82, -163701.53, -0.00, -0.00, -0.00
125, -162706.66, -100213.04, -163629.34, -163892.08, -113173.27, -162890.50, 128341.66, -164013.61, -0.00, -0.00, -0.00
126, -162742.53, -94791.80, -163603.61, -163277.91, -112026.83, -162932.16, 128174.30, -163902.97, -0.00, -0.00, -0.00
127, -163196.61, -88708.93, -163568.41, -163554.75, -107875.21, -162808.98, 127985.73, -163573.33, -0.00, -0.00, -0.00
128, -163231.20, -93142.78, -163573.84, -165112.36, -108359.89, -162822.86, 128201.69, -163610.67, -0.00, -0.00, -0.00
129, -162723.53, -100011.07, -163605.53, -165695.06, -112649.70, -162862.42, 128488.59, -163961.75, -0.00, -0.00, -0.00
130, -162643.95, -96298.40, -163597.34, -164840.44, -112650.20, -162902.17, 128363.83, -163948.67, -0.00, -0.00, -0.00
131, -163097.25, -89147.07, -163590.31, -164632.34, -108443.59, -162841.59, 128112.17, -163644.95, -0.00, -0.00, -0.00
132, -163276.38, -91720.96, -163591.09, -165307.66, -107824.23, -162820.73, 128238.10, -163582.06, -0.00, -0.00, -0.00
133, -162803.27, -99451.20, -163625.53, -165410.61, -112018.55, -162838.22, 128554.11, -163928.77, -0.00, -0.00, -0.00
134, -162602.86, -97679.53, -163622.56, -164574.22, -113149.42, -162811.23, 128500.09, -163980.38, -0.00, -0.00, -0.00
135, -163008.89, -89941.70, -163586.58, -164166.20, -109161.47, -162839.94, 128220.73, -163704.02, -0.00, -0.00, -0.00
136, -163300.34, -90484.82, -163587.41, -164772.56, -107466.00, -162798.17, 128266.55, -163539.50, -0.00, -0.00, -0.00
137, -162884.28, -98496.91, -163604.45, -165072.80, -111254.51, -162817.77, 128596.51, -163852.83, -0.00, -0.00, -0.00
138, -162573.78, -98839.48, -163629.45, -164323.73, -113448.11, -162777.84, 128626.33, -163987.80, -0.00, -0.00, -0.00
139, -162904.02, -91069.41, -163571.25, -163736.72, -109966.00, -162835.89, 128347.80, -163749.70, -0.00, -0.00, -0.00
140, -163290.63, -89560.64, -163568.45, -164225.75, -107327.40, -162782.86, 128313.67, -163518.34, -0.00, -0.00, -0.00
141, -162984.53, -97233.13, -163570.00, -164695.83, -110439.79, -162804.02, 128632.85, -163768.64, -0.00, -0.00, -0.00
142, -162577.17, -99680.88, -163622.00, -164081.42, -113537.18, -162747.61, 128742.49, -163983.25, -0.00, -0.00, -0.00
143, -162808.14, -92414.49, -163548.52, -163355.34, -110801.39, -162804.72, 128481.76, -163791.52, -0.00, -0.00, -0.00
144, -163257.89, -88935.15, -163552.88, -163685.53, -107383.90, -162761.80, 128371.30, -163511.55, -0.00, -0.00, -0.00
145, -163074.39, -95721.77, -163542.66, -164283.50, -109591.54, -162800.69, 128657.58, -163674.28, -0.00, -0.00, -0.00
146, -162603.81, -100133.78, -163602.81, -163774.06, -113372.49, -162740.08, 128844.15, -163956.66, -0.00, -0.00, -0.00
147, -162724.69, -93875.60, -163540.33, -162215.34, -111580.64, -162778.63, 128627.42, -163816.41, -0.00, -0.00, -0.00
148, -163186.53, -88671.47, -163518.97, -162059.89, -107619.27, -162733.38, 128465.40, -163501.16, -0.00, -0.00, -0.00
149, -163135.70, -94108.40, -163505.47, -162962.66, -108775.25, -162757.84, 128721.63, -163562.50, -0.00, -0.00, -0.00
150, -162611.66, -100160.51, -163529.14, -162966.39, -112951.50, -162738.44, 128996.67, -163881.91, -0.00, -0.00, -0.00
151, -162593.22, -95346.81, -163505.39, -162341.97, -112231.55, -162804.02, 128854.54, -163797.25, -0.00, -0.00, -0.00
152, -163042.78, -88792.16, -163470.91, -162510.00, -108018.34, -162703.17, 128650.71, -163465.47, -0.00, -0.00, -0.00
153, -163127.16, -92534.52, -163462.92, -163437.06, -108073.61, -162697.19, 128844.21, -163471.63, -0.00, -0.00, -0.00
154, -162610.25, -99790.99, -163477.08, -163647.58, -112355.48, -162740.52, 129165.01, -163813.45, -0.00, -0.00, -0.00
155, -162465.73, -96782.70, -163468.34, -163023.81, -112780.13, -162777.59, 129090.23, -163810.77, -0.00, -0.00, -0.00
156, -162898.34, -89336.25, -163438.47, -162980.17, -108617.88, -162694.92, 128847.81, -163488.63, -0.00, -0.00, -0.00
157, -163101.48, -91138.45, -163420.44, -164251.25, -107572.21, -162647.25, 128965.18, -163400.92, -0.00, -0.00, -0.00
158, -162651.53, -99054.73, -163445.14, -165391.14, -111649.28, -162713.41, 129300.44, -163748.89, -0.00, -0.00, -0.00
159, -162394.09, -98088.70, -163454.17, -164695.58, -113206.10, -162726.42, 129284.59, -163852.66, -0.00, -0.00, -0.00
160, -162790.55, -90271.96, -163440.89, -164211.36, -109383.35, -162724.63, 129008.43, -163585.77, -0.00, -0.00, -0.00
161, -163110.95, -90036.66, -163440.28, -164777.53, -107315.35, -162652.66, 129027.59, -163397.92, -0.00, -0.00, -0.00
162, -162748.75, -98014.16, -163460.98, -165142.70, -110880.81, -162701.61, 129358.84, -163697.05, -0.00, -0.00, -0.00
163, -162383.81, -99170.69, -163488.41, -164435.77, -113448.64, -162638.84, 129420.59, -163868.48, -0.00, -0.00, -0.00
164, -162689.56, -91529.52, -163437.33, -163789.16, -110234.48, -162693.89, 129147.28, -163646.66, -0.00, -0.00, -0.00
165, -163099.20, -89260.33, -163438.59, -164222.27, -107282.83, -162643.05, 129085.30, -163396.20, -0.00, -0.00, -0.00
166, -162850.52, -96687.54, -163433.42, -164743.23, -110086.07, -162689.33, 129397.62, -163622.91, -0.00, -0.00, -0.00
167, -162406.14, -99914.59, -163491.11, -164187.70, -113485.41, -162623.59, 129539.44, -163863.58, -0.00, -0.00, -0.00
168, -162603.45, -92974.76, -163427.48, -163415.78, -111101.24, -162671.13, 129291.78, -163693.06, -0.00, -0.00, -0.00
169, -163065.17, -88829.41, -163421.94, -163677.23, -107462.09, -162633.98, 129150.86, -163405.53, -0.00, -0.00, -0.00
170, -162941.73, -95194.00, -163394.00, -164307.48, -109307.67, -162670.52, 129418.70, -163522.83, -0.00, -0.00, -0.00
171, -162452.63, -100295.05, -163467.59, -163902.05, -113296.25, -162615.02, 129630.91, -163823.22, -0.00, -0.00, -0.00
172, -162532.05, -94533.26, -163415.30, -162399.86, -111909.75, -162633.80, 129432.04, -163710.08, -0.00, -0.00, -0.00
173, -162994.44, -88791.01, -163391.61, -162038.50, -107833.08, -162607.08, 129249.02, -163389.88, -0.00, -0.00, -0.00
174, -162995.31, -93656.13, -163379.78, -162940.02, -108597.16, -162624.41, 129484.27, -163417.05, -0.00, -0.00, -0.00
175, -162468.48, -100234.09, -163402.44, -163022.23, -112865.82, -162611.75, 129779.43, -163742.53, -0.00, -0.00, -0.00
176, -162405.06, -96033.88, -163376.00, -162394.89, -112568.95, -162671.55, 129660.97, -163682.80, -0.00, -0.00, -0.00
177, -162854.77, -89072.57, -163342.14, -162482.05, -108327.05, -162583.31, 129440.69, -163351.17, -0.00, -0.00, -0.00
178, -162985.31, -92114.35, -163328.38, -163399.05, -107960.53, -162562.06, 129610.12, -163322.20, -0.00, -0.00, -0.00
179, -162490.63, -99687.19, -163342.50, -163687.56, -112199.45, -162613.67, 129946.98, -163666.42, -0.00, -0.00, -0.00
180, -162294.14, -97394.55, -163335.67, -163082.17, -113040.45, -162647.41, 129900.04, -163695.75, -0.00, -0.00, -0.00
181, -162719.75, -89706.31, -163303.47, -162962.92, -108948.23, -162579.78, 129650.91, -163380.14, -0.00, -0.00, -0.00
182, -162968.19, -90737.95, -163290.86, -164181.14, -107488.13, -162513.09, 129741.63, -163259.50, -0.00, -0.00, -0.00
183, -162548.86, -98765.85, -163320.92, -165410.86, -111405.85, -162571.55, 130083.91, -163595.39, -0.00, -0.00, -0.00
184, -162240.59, -98585.09, -163331.05, -164763.27, -113358.52, -162601.61, 130096.67, -163727.73, -0.00, -0.00, -0.00
185, -162611.64, -90756.95, -163317.02, -164211.91, -109726.48, -162608.73, 129818.39, -163473.03, -0.00, -0.00, -0.00
186, -162967.50, -89752.82, -163315.67, -164730.97, -107303.13, -162521.45, 129807.39, -163263.22, -0.00, -0.00, -0.00
187, -162645.97, -97610.78, -163333.53, -165161.11, -110614.91, -162560.16, 130134.18, -163545.25, -0.00, -0.00, -0.00
188, -162252.47, -99563.98, -163369.50, -164509.70, -113527.03, -162509.14, 130223.36, -163746.28, -0.00, -0.00, -0.00
189, -162532.25, -92105.37, -163316.17, -163813.20, -110590.93, -162571.73, 129955.63, -163542.81, -0.00, -0.00, -0.00
190, -162962.63, -89101.43, -163310.05, -164185.11, -107347.84, -162514.13, 129862.45, -163272.83, -0.00, -0.00, -0.00
191, -162751.78, -96208.43, -163286.78, -164752.28, -109816.53, -162551.58, 130160.22, -163456.20, -0.00, -0.00, -0.00
192, -162288.13, -100184.67, -163356.28, -164264.75, -113476.23, -162491.72, 130330.52, -163724.16, -0.00, -0.00, -0.00
193, -162448.06, -93617.95, -163303.27, -163460.48, -111448.09, -162546.03, 130095.17, -163575.33, -0.00, -0.00, -0.00
194, -162919.61, -88821.05, -163291.72, -163645.36, -107607.44, -162506.98, 129930.15, -163279.08, -0.00, -0.00, -0.00
195, -162851.14, -94675.33, -163251.25, -164303.67, -109054.91, -162533.31, 130178.09, -163375.41, -0.00, -0.00, -0.00
196, -162353.59, -100398.71, -163330.20, -164000.98, -113196.63, -162484.22, 130412.61, -163695.20, -0.00, -0.00, -0.00
197, -162388.30, -95174.13, -163290.48, -162602.09, -112219.37, -162508.83, 130231.63, -163606.53, -0.00, -0.00, -0.00
198, -162857.20, -88888.86, -163263.23, -162010.80, -108030.91, -162485.33, 130026.02, -163286.69, -0.00, -0.00, -0.00
199, -162908.56, -93083.37, -163252.47, -162888.78, -108351.58, -162493.09, 130235.48, -163271.19, -0.00, -0.00, -0.00
200, -162379.92, -100104.09, -163269.23, -163052.22, -112641.43, -162492.34, 130549.96, -163603.50, -0.00, -0.00, -0.00
201, -162275.98, -96590.89, -163248.22, -162429.83, -112776.64, -162532.77, 130456.42, -163577.97, -0.00, -0.00, -0.00
202, -162719.16, -89259.43, -163213.11, -162442.11, -108540.27, -162463.41, 130219.76, -163250.34, -0.00, -0.00, -0.00
203, -162906.23, -91542.84, -163205.53, -163347.70, -107738.34, -162424.84, 130357.36, -163181.28, -0.00, -0.00, -0.00
204, -162432.72, -99349.97, -163222.45, -163717.41, -111880.16, -162479.05, 130700.73, -163522.78, -0.00, -0.00, -0.00
205, -162192.44, -97823.68, -163214.72, -163137.80, -113136.70, -162518.23, 130681.62, -163582.08, -0.00, -0.00, -0.00
206, -162587.23, -89986.51, -163183.08, -162948.55, -109163.16, -162460.83, 130425.02, -163273.47, -0.00, -0.00, -0.00
207, -162883.61, -90225.05, -163164.22, -164132.25, -107301.31, -162379.14, 130483.84, -163125.58, -0.00, -0.00, -0.00
208, -162492.89, -98247.29, -163191.13, -165435.89, -111004.30, -162447.25, 130828.04, -163447.23, -0.00, -0.00, -0.00
209, -162159.33, -98868.18, -163204.39, -164834.03, -113335.70, -162451.05, 130871.38, -163610.88, -0.00, -0.00, -0.00
210, -162492.91, -91089.32, -163184.06, -164222.64, -109923.91, -162479.66, 130593.17, -163373.31, -0.00, -0.00, -0.00
211, -162895.28, -89286.77, -163184.02, -164690.38, -107144.13, -162385.47, 130548.73, -163136.69, -0.00, -0.00, -0.00
212, -162615.63, -96907.84, -163194.78, -165182.20, -110144.74, -162426.25, 130865.64, -163388.81, -0.00, -0.00, -0.00
213, -162200.30, -99648.70, -163238.97, -164590.89, -113362.27, -162376.66, 130985.24, -163614.88, -0.00, -0.00, -0.00
214, -162424.91, -92451.88, -163186.14, -163847.25, -110738.72, -162446.14, 130726.50, -163430.23, -0.00, -0.00, -0.00
215, -162886.13, -88716.91, -163184.67, -164150.48, -107223.44, -162381.59, 130606.18, -163146.63, -0.00, -0.00, -0.00
216, -162719.38, -95385.93, -163166.20, -164758.88, -109301.44, -162421.42, 130890.88, -163291.88, -0.00, -0.00, -0.00
217, -162239.14, -100070.23, -163230.47, -164343.97, -113172.84, -162365.77, 131088.31, -163588.25, -0.00, -0.00, -0.00
218, -162351.75, -93947.66, -163174.69, -163511.75, -111525.61, -162410.70, 130870.94, -163464.38, -0.00, -0.00, -0.00
219, -162837.61, -88528.26, -163164.13, -163621.80, -107512.87, -162376.59, 130684.01, -163161.67, -0.00, -0.00, -0.00
220, -162818.80, -93789.70, -163128.95, -164301.13, -108532.02, -162395.23, 130910.56, -163221.02, -0.00, -0.00, -0.00
221, -162304.48, -100078.63, -163199.77, -164090.63, -112769.93, -162352.53, 131168.59, -163552.45, -0.00, -0.00, -0.00
222, -162299.23, -95464.50, -163167.34, -163219.36, -112217.80, -162380.97, 131007.39, -163493.53, -0.00, -0.00, -0.00
223, -162774.41, -88723.50, -163149.67, -163120.95, -107981.97, -162374.28, 130768.23, -163190.28, -0.00, -0.00, -0.00
224, -162904.72, -92225.44, -163121.22, -163812.78, -107876.47, -162370.42, 130930.41, -163146.98, -0.00, -0.00, -0.00
225, -162397.73, -99635.11, -163172.72, -163810.39, -112161.66, -162351.53, 131233.86, -163493.33, -0.00, -0.00, -0.00
226, -162259.06, -96871.18, -163162.31, -162517.20, -112748.30, -162336.13, 131145.69, -163509.39, -0.00, -0.00, -0.00
227, -162674.83, -89289.56, -163111.58, -161532.05, -108587.70, -162349.97, 130888.44, -163208.19, -0.00, -0.00, -0.00
228, -162923.89, -90800.29, -163104.05, -162331.14, -107367.02, -162320.22, 130991.01, -163065.92, -0.00, -0.00, -0.00
229, -162451.28, -98769.56, -163109.09, -162783.48, -111372.34, -162355.78, 131340.50, -163382.44, -0.00, -0.00, -0.00
230, -162174.34, -98059.96, -163112.44, -162234.67, -113057.06, -162358.03, 131353.17, -163474.91, -0.00, -0.00, -0.00
231, -162516.94, -90167.56, -163072.16, -161975.69, -109264.09, -162350.66, 131092.78, -163185.00, -0.00, -0.00, -0.00
232, -162863.31, -89618.06, -163052.30, -162763.41, -107025.54, -162256.92, 131120.61, -162993.98, -0.00, -0.00, -0.00
233, -162476.08, -97549.24, -163064.98, -163394.06, -110476.91, -162340.88, 131473.11, -163285.17, -0.00, -0.00, -0.00
234, -162098.63, -98976.65, -163068.52, -162955.75, -113150.72, -162342.70, 131567.58, -163459.44, -0.00, -0.00, -0.00
235, -162373.55, -91336.38, -163038.05, -162534.55, -109997.02, -162345.77, 131316.14, -163211.67, -0.00, -0.00, -0.00
