%OpenBCI Raw EEG Data
%
%Sample Rate = 250.0 Hz
%First Column = SampleIndex
%Other Columns = EEG data in microvolts followed by Accel Data (in G) interleaved with Aux Data
0, 172766.27, 171211.20, -187500.02, -187500.02, 187500.00, -187500.02, -187500.02, -187500.02, 0.00, 0.00, 0.00
1, 170768.63, 169214.17, -187500.02, -187500.02, 187500.00, -187500.02, -187500.02, -187500.02, 0.00, 0.00, 0.00
2, 170001.70, 168444.31, -187500.02, -187500.02, 187500.00, -187500.02, -187500.02, -187500.02, 0.00, 0.00, 0.00
3, 171668.09, 170111.09, -187500.02, -187500.02, 187500.00, -187500.02, -187500.02, -187500.02, 0.00, 0.00, 0.00
4, 172694.28, 171140.73, -187500.02, -187500.02, 187500.00, -187500.02, -187500.02, -187500.02, 0.00, 0.00, 0.00
5, 170984.56, 169427.41, -187500.02, -187500.02, 187500.00, -187500.02, -187500.02, -187500.02, 0.00, 0.00, 0.00
6, 169818.28, 168257.75, -187500.02, -187500.02, 187500.00, -187500.02, -187500.02, -187500.02, 0.00, 0.00, 0.00
7, 171394.17, 169832.66, -187500.02, -187500.02, 187500.00, -187500.02, -187500.02, -187500.02, 0.00, 0.00, 0.00
8, 173035.75, 171476.14, -187500.02, -187500.02, 187500.00, -187500.02, -187500.02, -187500.02, 0.00, 0.00, 0.00
9, 171766.72, 170208.28, -187500.02, -187500.02, 187500.00, -187500.02, -187500.02, -187500.02, 0.00, 0.00, 0.00
10, 170173.02, 168612.02, -187500.02, -187500.02, 187500.00, -187500.02, -187500.02, -187500.02, 0.00, 0.00, 0.00
11, 171298.36, 169734.20, -187500.02, -187500.02, 187500.00, -187500.02, -187500.02, -187500.02, 0.00, 0.00, 0.00
12, 173174.73, 171610.16, -187500.02, -187500.02, 187500.00, -187500.02, -187500.02, -187500.02, 0.00, 0.00, 0.00
13, 172201.47, 170641.66, -187500.02, -187500.02, 187500.00, -187500.02, -187500.02, -187500.02, 0.00, 0.00, 0.00
14, 170297.38, 168739.02, -187500.02, -187500.02, 187500.00, -187500.02, -187500.02, -187500.02, 0.00, 0.00, 0.00
15, 170920.36, 169359.63, -187500.02, -187500.02, 187500.00, -187500.02, -187500.02, -187500.02, 0.00, 0.00, 0.00
16, 172918.03, 171357.31, -187500.02, -187500.02, 187500.00, -187500.02, -187500.02, -187500.02, 0.00, 0.00, 0.00
17, 172521.44, 170961.92, -187500.02, -187500.02, 187500.00, -187500.02, -187500.02, -187500.02, 0.00, 0.00, 0.00
18, 170467.23, 168906.19, -187500.02, -187500.02, 187500.00, -187500.02, -187500.02, -187500.02, 0.00, 0.00, 0.00
19, 170516.45, 168953.86, -187500.02, -187500.02, 187500.00, -187500.02, -187500.02, -187500.02, 0.00, 0.00, 0.00
20, 172517.13, 170955.59, -187500.02, -187500.02, 187500.00, -187500.02, -187500.02, -187500.02, 0.00, 0.00, 0.00
21, 172670.75, 171111.94, -187500.02, -187500.02, 187500.00, -187500.02, -187500.02, -187500.02, 0.00, 0.00, 0.00
22, 170521.19, 168961.92, -187500.02, -187500.02, 187500.00, -187500.02, -187500.02, -187500.02, 0.00, 0.00, 0.00
23, 170068.41, 168508.09, -187500.02, -187500.02, 187500.00, -187500.02, -187500.02, -187500.02, 0.00, 0.00, 0.00
24, 172084.06, 170523.64, -187500.02, -187500.02, 187500.00, -187500.02, -187500.02, -187500.02, 0.00, 0.00, 0.00
25, 172740.17, 171183.59, -187500.02, -187500.02, 187500.00, -187500.02, -187500.02, -187500.02, 0.00, 0.00, 0.00
26, 170738.80, 169183.13, -187500.02, -187500.02, 187500.00, -187500.02, -187500.02, -187500.02, 0.00, 0.00, 0.00
27, 169791.69, 168231.53, -187500.02, -187500.02, 187500.00, -187500.02, -187500.02, -187500.02, 0.00, 0.00, 0.00
28, 171616.63, 170053.63, -187500.02, -187500.02, 187500.00, -187500.02, -187500.02, -187500.02, 0.00, 0.00, 0.00
29, 173024.53, 171463.89, -187500.02, -187500.02, 187500.00, -187500.02, -187500.02, -187500.02, 0.00, 0.00, 0.00
30, 171432.59, 169874.19, -187500.02, -187500.02, 187500.00, -187500.02, -187500.02, -187500.02, 0.00, 0.00, 0.00
31, 170159.38, 168597.66, -187500.02, -187500.02, 187500.00, -187500.02, -187500.02, -187500.02, 0.00, 0.00, 0.00
32, 171621.92, 170056.78, -187500.02, -187500.02, 187500.00, -187500.02, -187500.02, -187500.02, 0.00, 0.00, 0.00
33, 173522.05, 171958.53, -187500.02, -187500.02, 187500.00, -187500.02, -187500.02, -187500.02, 0.00, 0.00, 0.00
34, 172269.42, 170710.19, -187500.02, -187500.02, 187500.00, -187500.02, -187500.02, -187500.02, 0.00, 0.00, 0.00
35, 170431.08, 168867.38, -187500.02, -187500.02, 187500.00, -187500.02, -187500.02, -187500.02, 0.00, 0.00, 0.00
36, 171278.03, 169709.06, -187500.02, -187500.02, 187500.00, -187500.02, -187500.02, -187500.02, 0.00, 0.00, 0.00
37, 173205.31, 171639.73, -187500.02, -187500.02, 187500.00, -187500.02, -187500.02, -187500.02, 0.00, 0.00, 0.00
38, 172467.31, 170908.70, -187500.02, -187500.02, 187500.00, -187500.02, -187500.02, -187500.02, 0.00, 0.00, 0.00
39, 170459.06, 168898.20, -187500.02, -187500.02, 187500.00, -187500.02, -187500.02, -187500.02, 0.00, 0.00, 0.00
40, 170786.41, 169222.89, -187500.02, -187500.02, 187500.00, -187500.02, -187500.02, -187500.02, 0.00, 0.00, 0.00
41, 172659.28, 171096.81, -187500.02, -187500.02, 187500.00, -187500.02, -187500.02, -187500.02, 0.00, 0.00, 0.00
42, 172430.66, 170871.45, -187500.02, -187500.02, 187500.00, -187500.02, -187500.02, -187500.02, 0.00, 0.00, 0.00
43, 170351.88, 168792.05, -187500.02, -187500.02, 187500.00, -187500.02, -187500.02, -187500.02, 0.00, 0.00, 0.00
44, 170125.67, 168562.44, -187500.02, -187500.02, 187500.00, -187500.02, -187500.02, -187500.02, 0.00, 0.00, 0.00
45, 172043.58, 170481.91, -187500.02, -187500.02, 187500.00, -187500.02, -187500.02, -187500.02, 0.00, 0.00, 0.00
46, 172511.52, 170954.77, -187500.02, -187500.02, 187500.00, -187500.02, -187500.02, -187500.02, 0.00, 0.00, 0.00
47, 170597.30, 169040.56, -187500.02, -187500.02, 187500.00, -187500.02, -187500.02, -187500.02, 0.00, 0.00, 0.00
48, 169995.22, 168435.63, -187500.02, -187500.02, 187500.00, -187500.02, -187500.02, -187500.02, 0.00, 0.00, 0.00
49, 171941.48, 170379.19, -187500.02, -187500.02, 187500.00, -187500.02, -187500.02, -187500.02, 0.00, 0.00, 0.00
50, 173065.84, 171507.45, -187500.02, -187500.02, 187500.00, -187500.02, -187500.02, -187500.02, 0.00, 0.00, 0.00
51, 171453.81, 169897.91, -187500.02, -187500.02, 187500.00, -187500.02, -187500.02, -187500.02, 0.00, 0.00, 0.00
52, 170439.27, 168879.06, -187500.02, -187500.02, 187500.00, -187500.02, -187500.02, -187500.02, 0.00, 0.00, 0.00
53, 172190.41, 170627.67, -187500.02, -187500.02, 187500.00, -187500.02, -187500.02, -187500.02, 0.00, 0.00, 0.00
54, 173820.06, 172260.03, -187500.02, -187500.02, 187500.00, -187500.02, -187500.02, -187500.02, 0.00, 0.00, 0.00
55, 172230.88, 170672.75, -187500.02, -187500.02, 187500.00, -187500.02, -187500.02, -187500.02, 0.00, 0.00, 0.00
56, 170645.14, 169084.22, -187500.02, -187500.02, 187500.00, -187500.02, -187500.02, -187500.02, 0.00, 0.00, 0.00
57, 171874.36, 170311.53, -187500.02, -187500.02, 187500.00, -187500.02, -187500.02, -187500.02, 0.00, 0.00, 0.00
58, 173740.94, 172179.38, -187500.02, -187500.02, 187500.00, -187500.02, -187500.02, -187500.02, 0.00, 0.00, 0.00
59, 172531.77, 170972.91, -187500.02, -187500.02, 187500.00, -187500.02, -187500.02, -187500.02, 0.00, 0.00, 0.00
60, 170611.11, 169051.69, -187500.02, -187500.02, 187500.00, -187500.02, -187500.02, -187500.02, 0.00, 0.00, 0.00
61, 171282.34, 169717.97, -187500.02, -187500.02, 187500.00, -187500.02, -187500.02, -187500.02, 0.00, 0.00, 0.00
62, 173293.14, 171727.19, -187500.02, -187500.02, 187500.00, -187500.02, -187500.02, -187500.02, 0.00, 0.00, 0.00
63, 172789.55, 171227.48, -187500.02, -187500.02, 187500.00, -187500.02, -187500.02, -187500.02, 0.00, 0.00, 0.00
64, 170576.14, 169012.91, -187500.02, -187500.02, 187500.00, -187500.02, -187500.02, -187500.02, 0.00, 0.00, 0.00
65, 170683.97, 169119.64, -187500.02, -187500.02, 187500.00, -187500.02, -187500.02, -187500.02, 0.00, 0.00, 0.00
66, 172756.27, 171192.25, -187500.02, -187500.02, 187500.00, -187500.02, -187500.02, -187500.02, 0.00, 0.00, 0.00
67, 172782.02, 171219.41, -187500.02, -187500.02, 187500.00, -187500.02, -187500.02, -187500.02, 0.00, 0.00, 0.00
68, 170647.53, 169087.39, -187500.02, -187500.02, 187500.00, -187500.02, -187500.02, -187500.02, 0.00, 0.00, 0.00
69, 170274.17, 168710.84, -187500.02, -187500.02, 187500.00, -187500.02, -187500.02, -187500.02, 0.00, 0.00, 0.00
70, 172302.80, 170738.95, -187500.02, -187500.02, 187500.00, -187500.02, -187500.02, -187500.02, 0.00, 0.00, 0.00
71, 173141.28, 171579.88, -187500.02, -187500.02, 187500.00, -187500.02, -187500.02, -187500.02, 0.00, 0.00, 0.00
72, 171264.64, 169703.88, -187500.02, -187500.02, 187500.00, -187500.02, -187500.02, -187500.02, 0.00, 0.00, 0.00
73, 170522.22, 168960.20, -187500.02, -187500.02, 187500.00, -187500.02, -187500.02, -187500.02, 0.00, 0.00, 0.00
74, 172454.70, 170888.20, -187500.02, -187500.02, 187500.00, -187500.02, -187500.02, -187500.02, 0.00, 0.00, 0.00
75, 173811.27, 172243.91, -187500.02, -187500.02, 187500.00, -187500.02, -187500.02, -187500.02, 0.00, 0.00, 0.00
76, 171956.50, 170392.50, -187500.02, -187500.02, 187500.00, -187500.02, -187500.02, -187500.02, 0.00, 0.00, 0.00
77, 170507.77, 168944.25, -187500.02, -187500.02, 187500.00, -187500.02, -187500.02, -187500.02, 0.00, 0.00, 0.00
78, 171835.22, 170274.42, -187500.02, -187500.02, 187500.00, -187500.02, -187500.02, -187500.02, 0.00, 0.00, 0.00
79, 173426.64, 171868.61, -187500.02, -187500.02, 187500.00, -187500.02, -187500.02, -187500.02, 0.00, 0.00, 0.00
80, 171979.08, 170421.39, -187500.02, -187500.02, 187500.00, -187500.02, -187500.02, -187500.02, 0.00, 0.00, 0.00
81, 170299.66, 168735.91, -187500.02, -187500.02, 187500.00, -187500.02, -187500.02, -187500.02, 0.00, 0.00, 0.00
82, 171259.53, 169692.00, -187500.02, -187500.02, 187500.00, -187500.02, -187500.02, -187500.02, 0.00, 0.00, 0.00
83, 173113.81, 171547.58, -187500.02, -187500.02, 187500.00, -187500.02, -187500.02, -187500.02, 0.00, 0.00, 0.00
84, 172181.52, 170617.94, -187500.02, -187500.02, 187500.00, -187500.02, -187500.02, -187500.02, 0.00, 0.00, 0.00
85, 170182.58, 168616.55, -187500.02, -187500.02, 187500.00, -187500.02, -187500.02, -187500.02, 0.00, 0.00, 0.00
86, 170688.84, 169119.27, -187500.02, -187500.02, 187500.00, -187500.02, -187500.02, -187500.02, 0.00, 0.00, 0.00
87, 172583.94, 171015.52, -187500.02, -187500.02, 187500.00, -187500.02, -187500.02, -187500.02, 0.00, 0.00, 0.00
88, 172282.34, 170718.55, -187500.02, -187500.02, 187500.00, -187500.02, -187500.02, -187500.02, 0.00, 0.00, 0.00
89, 170297.00, 168730.16, -187500.02, -187500.02, 187500.00, -187500.02, -187500.02, -187500.02, 0.00, 0.00, 0.00
90, 170352.86, 168782.58, -187500.02, -187500.02, 187500.00, -187500.02, -187500.02, -187500.02, 0.00, 0.00, 0.00
91, 172511.42, 170942.02, -187500.02, -187500.02, 187500.00, -187500.02, -187500.02, -187500.02, 0.00, 0.00, 0.00
92, 172941.91, 171376.16, -187500.02, -187500.02, 187500.00, -187500.02, -187500.02, -187500.02, 0.00, 0.00, 0.00
93, 171004.23, 169437.75, -187500.02, -187500.02, 187500.00, -187500.02, -187500.02, -187500.02, 0.00, 0.00, 0.00
94, 170613.72, 169043.44, -187500.02, -187500.02, 187500.00, -187500.02, -187500.02, -187500.02, 0.00, 0.00, 0.00
95, 172612.88, 171044.06, -187500.02, -187500.02, 187500.00, -187500.02, -187500.02, -187500.02, 0.00, 0.00, 0.00
96, 173623.66, 172059.59, -187500.02, -187500.02, 187500.00, -187500.02, -187500.02, -187500.02, 0.00, 0.00, 0.00
97, 171636.61, 170073.75, -187500.02, -187500.02, 187500.00, -187500.02, -187500.02, -187500.02, 0.00, 0.00, 0.00
98, 170492.70, 168927.84, -187500.02, -187500.02, 187500.00, -187500.02, -187500.02, -187500.02, 0.00, 0.00, 0.00
99, 172095.70, 170531.27, -187500.02, -187500.02, 187500.00, -187500.02, -187500.02, -187500.02, 0.00, 0.00, 0.00
100, 173399.53, 171836.56, -187500.02, -187500.02, 187500.00, -187500.02, -187500.02, -187500.02, 0.00, 0.00, 0.00
101, 171759.94, 170199.75, -187500.02, -187500.02, 187500.00, -187500.02, -187500.02, -187500.02, 0.00, 0.00, 0.00
102, 170345.83, 168783.77, -187500.02, -187500.02, 187500.00, -187500.02, -187500.02, -187500.02, 0.00, 0.00, 0.00
103, 171510.81, 169946.77, -187500.02, -187500.02, 187500.00, -187500.02, -187500.02, -187500.02, 0.00, 0.00, 0.00
104, 173143.61, 171579.61, -187500.02, -187500.02, 187500.00, -187500.02, -187500.02, -187500.02, 0.00, 0.00, 0.00
105, 171967.09, 170406.36, -187500.02, -187500.02, 187500.00, -187500.02, -187500.02, -187500.02, 0.00, 0.00, 0.00
106, 170103.30, 168541.52, -187500.02, -187500.02, 187500.00, -187500.02, -187500.02, -187500.02, 0.00, 0.00, 0.00
107, 170860.64, 169297.53, -187500.02, -187500.02, 187500.00, -187500.02, -187500.02, -187500.02, 0.00, 0.00, 0.00
108, 172801.28, 171237.20, -187500.02, -187500.02, 187500.00, -187500.02, -187500.02, -187500.02, 0.00, 0.00, 0.00
109, 172131.88, 170568.56, -187500.02, -187500.02, 187500.00, -187500.02, -187500.02, -187500.02, 0.00, 0.00, 0.00
110, 170125.94, 168561.39, -187500.02, -187500.02, 187500.00, -187500.02, -187500.02, -187500.02, 0.00, 0.00, 0.00
111, 170430.75, 168864.92, -187500.02, -187500.02, 187500.00, -187500.02, -187500.02, -187500.02, 0.00, 0.00, 0.00
112, 172463.80, 170896.56, -187500.02, -187500.02, 187500.00, -187500.02, -187500.02, -187500.02, 0.00, 0.00, 0.00
113, 172326.48, 170761.56, -187500.02, -187500.02, 187500.00, -187500.02, -187500.02, -187500.02, 0.00, 0.00, 0.00
114, 170240.30, 168676.27, -187500.02, -187500.02, 187500.00, -187500.02, -187500.02, -187500.02, 0.00, 0.00, 0.00
115, 170054.72, 168488.09, -187500.02, -187500.02, 187500.00, -187500.02, -187500.02, -187500.02, 0.00, 0.00, 0.00
116, 172143.36, 170576.42, -187500.02, -187500.02, 187500.00, -187500.02, -187500.02, -187500.02, 0.00, 0.00, 0.00
117, 172851.98, 171290.16, -187500.02, -187500.02, 187500.00, -187500.02, -187500.02, -187500.02, 0.00, 0.00, 0.00
118, 171051.09, 169486.80, -187500.02, -187500.02, 187500.00, -187500.02, -187500.02, -187500.02, 0.00, 0.00, 0.00
119, 170472.45, 168905.52, -187500.02, -187500.02, 187500.00, -187500.02, -187500.02, -187500.02, 0.00, 0.00, 0.00
120, 172398.28, 170839.88, -187500.02, -187500.02, 187500.00, -187500.02, -187500.02, -187500.02, 0.00, 0.00, 0.00
121, 173570.00, 172011.89, -187500.02, -187500.02, 187500.00, -187500.02, -187500.02, -187500.02, 0.00, 0.00, 0.00
122, 171711.92, 170154.53, -187500.02, -187500.02, 187500.00, -187500.02, -187500.02, -187500.02, 0.00, 0.00, 0.00
123, 170441.98, 168879.73, -187500.02, -187500.02, 187500.00, -187500.02, -187500.02, -187500.02, 0.00, 0.00, 0.00
124, 171887.61, 170326.34, -187500.02, -187500.02, 187500.00, -187500.02, -187500.02, -187500.02, 0.00, 0.00, 0.00
125, 173361.22, 171802.08, -187500.02, -187500.02, 187500.00, -187500.02, -187500.02, -187500.02, 0.00, 0.00, 0.00
126, 171856.95, 170300.64, -187500.02, -187500.02, 187500.00, -187500.02, -187500.02, -187500.02, 0.00, 0.00, 0.00
127, 170194.00, 168634.52, -187500.02, -187500.02, 187500.00, -187500.02, -187500.02, -187500.02, 0.00, 0.00, 0.00
128, 171322.77, 169762.03, -187500.02, -187500.02, 187500.00, -187500.02, -187500.02, -187500.02, 0.00, 0.00, 0.00
129, 173061.70, 171505.41, -187500.02, -187500.02, 187500.00, -187500.02, -187500.02, -187500.02, 0.00, 0.00, 0.00
130, 172023.63, 170469.17, -187500.02, -187500.02, 187500.00, -187500.02, -187500.02, -187500.02, 0.00, 0.00, 0.00
131, 170118.11, 168562.75, -187500.02, -187500.02, 187500.00, -187500.02, -187500.02, -187500.02, 0.00, 0.00, 0.00
132, 170676.11, 169118.77, -187500.02, -187500.02, 187500.00, -187500.02, -187500.02, -187500.02, 0.00, 0.00, 0.00
133, 172610.78, 171053.73, -187500.02, -187500.02, 187500.00, -187500.02, -187500.02, -187500.02, 0.00, 0.00, 0.00
134, 172102.70, 170546.20, -187500.02, -187500.02, 187500.00, -187500.02, -187500.02, -187500.02, 0.00, 0.00, 0.00
135, 170133.09, 168574.23, -187500.02, -187500.02, 187500.00, -187500.02, -187500.02, -187500.02, 0.00, 0.00, 0.00
136, 170206.41, 168643.45, -187500.02, -187500.02, 187500.00, -187500.02, -187500.02, -187500.02, 0.00, 0.00, 0.00
137, 172344.23, 170779.69, -187500.02, -187500.02, 187500.00, -187500.02, -187500.02, -187500.02, 0.00, 0.00, 0.00
138, 172684.13, 171123.52, -187500.02, -187500.02, 187500.00, -187500.02, -187500.02, -187500.02, 0.00, 0.00, 0.00
139, 170785.61, 169223.52, -187500.02, -187500.02, 187500.00, -187500.02, -187500.02, -187500.02, 0.00, 0.00, 0.00
140, 170533.44, 168969.39, -187500.02, -187500.02, 187500.00, -187500.02, -187500.02, -187500.02, 0.00, 0.00, 0.00
141, 172563.70, 170998.19, -187500.02, -187500.02, 187500.00, -187500.02, -187500.02, -187500.02, 0.00, 0.00, 0.00
142, 173294.72, 171732.45, -187500.02, -187500.02, 187500.00, -187500.02, -187500.02, -187500.02, 0.00, 0.00, 0.00
143, 171271.44, 169710.44, -187500.02, -187500.02, 187500.00, -187500.02, -187500.02, -187500.02, 0.00, 0.00, 0.00
144, 170302.52, 168738.39, -187500.02, -187500.02, 187500.00, -187500.02, -187500.02, -187500.02, 0.00, 0.00, 0.00
145, 172032.16, 170469.50, -187500.02, -187500.02, 187500.00, -187500.02, -187500.02, -187500.02, 0.00, 0.00, 0.00
146, 173292.64, 171733.61, -187500.02, -187500.02, 187500.00, -187500.02, -187500.02, -187500.02, 0.00, 0.00, 0.00
147, 171540.09, 169983.69, -187500.02, -187500.02, 187500.00, -187500.02, -187500.02, -187500.02, 0.00, 0.00, 0.00
148, 170046.88, 168487.17, -187500.02, -187500.02, 187500.00, -187500.02, -187500.02, -187500.02, 0.00, 0.00, 0.00
149, 171277.25, 169717.08, -187500.02, -187500.02, 187500.00, -187500.02, -187500.02, -187500.02, 0.00, 0.00, 0.00
150, 172783.36, 171224.55, -187500.02, -187500.02, 187500.00, -187500.02, -187500.02, -187500.02, 0.00, 0.00, 0.00
151, 171540.22, 169984.94, -187500.02, -187500.02, 187500.00, -187500.02, -187500.02, -187500.02, 0.00, 0.00, 0.00
152, 169781.72, 168227.25, -187500.02, -187500.02, 187500.00, -187500.02, -187500.02, -187500.02, 0.00, 0.00, 0.00
153, 170581.20, 169023.58, -187500.02, -187500.02, 187500.00, -187500.02, -187500.02, -187500.02, 0.00, 0.00, 0.00
154, 172297.92, 170741.38, -187500.02, -187500.02, 187500.00, -187500.02, -187500.02, -187500.02, 0.00, 0.00, 0.00
155, 171494.25, 169939.45, -187500.02, -187500.02, 187500.00, -187500.02, -187500.02, -187500.02, 0.00, 0.00, 0.00
156, 169601.45, 168045.53, -187500.02, -187500.02, 187500.00, -187500.02, -187500.02, -187500.02, 0.00, 0.00, 0.00
157, 170112.06, 168553.25, -187500.02, -187500.02, 187500.00, -187500.02, -187500.02, -187500.02, 0.00, 0.00, 0.00
158, 172246.81, 170690.05, -187500.02, -187500.02, 187500.00, -187500.02, -187500.02, -187500.02, 0.00, 0.00, 0.00
159, 172257.69, 170702.80, -187500.02, -187500.02, 187500.00, -187500.02, -187500.02, -187500.02, 0.00, 0.00, 0.00
160, 170541.09, 168984.91, -187500.02, -187500.02, 187500.00, -187500.02, -187500.02, -187500.02, 0.00, 0.00, 0.00
161, 170649.22, 169090.69, -187500.02, -187500.02, 187500.00, -187500.02, -187500.02, -187500.02, 0.00, 0.00, 0.00
162, 172653.42, 171094.42, -187500.02, -187500.02, 187500.00, -187500.02, -187500.02, -187500.02, 0.00, 0.00, 0.00
163, 172982.11, 171425.09, -187500.02, -187500.02, 187500.00, -187500.02, -187500.02, -187500.02, 0.00, 0.00, 0.00
164, 170923.83, 169366.72, -187500.02, -187500.02, 187500.00, -187500.02, -187500.02, -187500.02, 0.00, 0.00, 0.00
165, 170260.23, 168699.58, -187500.02, -187500.02, 187500.00, -187500.02, -187500.02, -187500.02, 0.00, 0.00, 0.00
166, 172178.92, 170618.58, -187500.02, -187500.02, 187500.00, -187500.02, -187500.02, -187500.02, 0.00, 0.00, 0.00
167, 173084.84, 171527.27, -187500.02, -187500.02, 187500.00, -187500.02, -187500.02, -187500.02, 0.00, 0.00, 0.00
168, 171197.45, 169640.97, -187500.02, -187500.02, 187500.00, -187500.02, -187500.02, -187500.02, 0.00, 0.00, 0.00
169, 170078.33, 168517.97, -187500.02, -187500.02, 187500.00, -187500.02, -187500.02, -187500.02, 0.00, 0.00, 0.00
170, 171588.02, 170027.13, -187500.02, -187500.02, 187500.00, -187500.02, -187500.02, -187500.02, 0.00, 0.00, 0.00
171, 172883.98, 171323.86, -187500.02, -187500.02, 187500.00, -187500.02, -187500.02, -187500.02, 0.00, 0.00, 0.00
172, 171361.72, 169798.58, -187500.02, -187500.02, 187500.00, -187500.02, -187500.02, -187500.02, 0.00, 0.00, 0.00
173, 169838.45, 168277.19, -187500.02, -187500.02, 187500.00, -187500.02, -187500.02, -187500.02, 0.00, 0.00, 0.00
174, 170987.84, 169432.41, -187500.02, -187500.02, 187500.00, -187500.02, -187500.02, -187500.02, 0.00, 0.00, 0.00
175, 172589.53, 171032.08, -187500.02, -187500.02, 187500.00, -187500.02, -187500.02, -187500.02, 0.00, 0.00, 0.00
176, 171519.55, 169961.30, -187500.02, -187500.02, 187500.00, -187500.02, -187500.02, -187500.02, 0.00, 0.00, 0.00
177, 169702.73, 168143.97, -187500.02, -187500.02, 187500.00, -187500.02, -187500.02, -187500.02, 0.00, 0.00, 0.00
178, 170539.17, 168977.14, -187500.02, -187500.02, 187500.00, -187500.02, -187500.02, -187500.02, 0.00, 0.00, 0.00
179, 172532.42, 170973.16, -187500.02, -187500.02, 187500.00, -187500.02, -187500.02, -187500.02, 0.00, 0.00, 0.00
180, 172124.20, 170569.86, -187500.02, -187500.02, 187500.00, -187500.02, -187500.02, -187500.02, 0.00, 0.00, 0.00
181, 170342.59, 168786.59, -187500.02, -187500.02, 187500.00, -187500.02, -187500.02, -187500.02, 0.00, 0.00, 0.00
182, 170733.22, 169172.41, -187500.02, -187500.02, 187500.00, -187500.02, -187500.02, -187500.02, 0.00, 0.00, 0.00
183, 172750.34, 171188.94, -187500.02, -187500.02, 187500.00, -187500.02, -187500.02, -187500.02, 0.00, 0.00, 0.00
184, 172761.72, 171204.08, -187500.02, -187500.02, 187500.00, -187500.02, -187500.02, -187500.02, 0.00, 0.00, 0.00
185, 170812.81, 169254.98, -187500.02, -187500.02, 187500.00, -187500.02, -187500.02, -187500.02, 0.00, 0.00, 0.00
186, 170433.23, 168873.89, -187500.02, -187500.02, 187500.00, -187500.02, -187500.02, -187500.02, 0.00, 0.00, 0.00
187, 172362.45, 170803.39, -187500.02, -187500.02, 187500.00, -187500.02, -187500.02, -187500.02, 0.00, 0.00, 0.00
188, 172895.05, 171339.61, -187500.02, -187500.02, 187500.00, -187500.02, -187500.02, -187500.02, 0.00, 0.00, 0.00
189, 170857.31, 169299.80, -187500.02, -187500.02, 187500.00, -187500.02, -187500.02, -187500.02, 0.00, 0.00, 0.00
190, 170019.86, 168460.36, -187500.02, -187500.02, 187500.00, -187500.02, -187500.02, -187500.02, 0.00, 0.00, 0.00
191, 171672.56, 170115.86, -187500.02, -187500.02, 187500.00, -187500.02, -187500.02, -187500.02, 0.00, 0.00, 0.00
192, 172663.94, 171109.48, -187500.02, -187500.02, 187500.00, -187500.02, -187500.02, -187500.02, 0.00, 0.00, 0.00
193, 170973.81, 169416.06, -187500.02, -187500.02, 187500.00, -187500.02, -187500.02, -187500.02, 0.00, 0.00, 0.00
194, 169693.97, 168134.23, -187500.02, -187500.02, 187500.00, -187500.02, -187500.02, -187500.02, 0.00, 0.00, 0.00
195, 171014.89, 169455.09, -187500.02, -187500.02, 187500.00, -187500.02, -187500.02, -187500.02, 0.00, 0.00, 0.00
196, 172365.27, 170805.34, -187500.02, -187500.02, 187500.00, -187500.02, -187500.02, -187500.02, 0.00, 0.00, 0.00
197, 170971.58, 169415.31, -187500.02, -187500.02, 187500.00, -187500.02, -187500.02, -187500.02, 0.00, 0.00, 0.00
198, 169528.95, 167971.56, -187500.02, -187500.02, 187500.00, -187500.02, -187500.02, -187500.02, 0.00, 0.00, 0.00
199, 170654.80, 169092.91, -187500.02, -187500.02, 187500.00, -187500.02, -187500.02, -187500.02, 0.00, 0.00, 0.00
200, 172576.56, 171015.72, -187500.02, -187500.02, 187500.00, -187500.02, -187500.02, -187500.02, 0.00, 0.00, 0.00
201, 171759.92, 170201.89, -187500.02, -187500.02, 187500.00, -187500.02, -187500.02, -187500.02, 0.00, 0.00, 0.00
202, 170043.58, 168483.89, -187500.02, -187500.02, 187500.00, -187500.02, -187500.02, -187500.02, 0.00, 0.00, 0.00
203, 170733.73, 169169.53, -187500.02, -187500.02, 187500.00, -187500.02, -187500.02, -187500.02, 0.00, 0.00, 0.00
204, 172766.19, 171200.63, -187500.02, -187500.02, 187500.00, -187500.02, -187500.02, -187500.02, 0.00, 0.00, 0.00
205, 172332.03, 170771.25, -187500.02, -187500.02, 187500.00, -187500.02, -187500.02, -187500.02, 0.00, 0.00, 0.00
206, 170275.89, 168712.89, -187500.02, -187500.02, 187500.00, -187500.02, -187500.02, -187500.02, 0.00, 0.00, 0.00
207, 170314.78, 168750.19, -187500.02, -187500.02, 187500.00, -187500.02, -187500.02, -187500.02, 0.00, 0.00, 0.00
208, 172164.84, 170599.02, -187500.02, -187500.02, 187500.00, -187500.02, -187500.02, -187500.02, 0.00, 0.00, 0.00
209, 172298.73, 170736.31, -187500.02, -187500.02, 187500.00, -187500.02, -187500.02, -187500.02, 0.00, 0.00, 0.00
210, 170400.63, 168838.70, -187500.02, -187500.02, 187500.00, -187500.02, -187500.02, -187500.02, 0.00, 0.00, 0.00
211, 169974.86, 168408.05, -187500.02, -187500.02, 187500.00, -187500.02, -187500.02, -187500.02, 0.00, 0.00, 0.00
212, 171659.17, 170092.28, -187500.02, -187500.02, 187500.00, -187500.02, -187500.02, -187500.02, 0.00, 0.00, 0.00
213, 172400.97, 170838.31, -187500.02, -187500.02, 187500.00, -187500.02, -187500.02, -187500.02, 0.00, 0.00, 0.00
214, 170602.66, 169038.06, -187500.02, -187500.02, 187500.00, -187500.02, -187500.02, -187500.02, 0.00, 0.00, 0.00
215, 169686.70, 168119.59, -187500.02, -187500.02, 187500.00, -187500.02, -187500.02, -187500.02, 0.00, 0.00, 0.00
216, 171205.75, 169635.86, -187500.02, -187500.02, 187500.00, -187500.02, -187500.02, -187500.02, 0.00, 0.00, 0.00
217, 172285.14, 170716.72, -187500.02, -187500.02, 187500.00, -187500.02, -187500.02, -187500.02, 0.00, 0.00, 0.00
218, 170780.80, 169213.66, -187500.02, -187500.02, 187500.00, -187500.02, -187500.02, -187500.02, 0.00, 0.00, 0.00
219, 169456.25, 167887.55, -187500.02, -187500.02, 187500.00, -187500.02, -187500.02, -187500.02, 0.00, 0.00, 0.00
220, 170748.69, 169177.73, -187500.02, -187500.02, 187500.00, -187500.02, -187500.02, -187500.02, 0.00, 0.00, 0.00
221, 172382.41, 170815.92, -187500.02, -187500.02, 187500.00, -187500.02, -187500.02, -187500.02, 0.00, 0.00, 0.00
222, 171368.50, 169808.92, -187500.02, -187500.02, 187500.00, -187500.02, -187500.02, -187500.02, 0.00, 0.00, 0.00
223, 169860.89, 168295.44, -187500.02, -187500.02, 187500.00, -187500.02, -187500.02, -187500.02, 0.00, 0.00, 0.00
224, 170786.56, 169216.38, -187500.02, -187500.02, 187500.00, -187500.02, -187500.02, -187500.02, 0.00, 0.00, 0.00
225, 172684.52, 171119.98, -187500.02, -187500.02, 187500.00, -187500.02, -187500.02, -187500.02, 0.00, 0.00, 0.00
226, 172073.47, 170514.81, -187500.02, -187500.02, 187500.00, -187500.02, -187500.02, -187500.02, 0.00, 0.00, 0.00
227, 170172.86, 168612.25, -187500.02, -187500.02, 187500.00, -187500.02, -187500.02, -187500.02, 0.00, 0.00, 0.00
228, 170542.55, 168977.86, -187500.02, -187500.02, 187500.00, -187500.02, -187500.02, -187500.02, 0.00, 0.00, 0.00
229, 172409.45, 170844.38, -187500.02, -187500.02, 187500.00, -187500.02, -187500.02, -187500.02, 0.00, 0.00, 0.00
230, 172188.13, 170626.48, -187500.02, -187500.02, 187500.00, -187500.02, -187500.02, -187500.02, 0.00, 0.00, 0.00
231, 170195.50, 168634.14, -187500.02, -187500.02, 187500.00, -187500.02, -187500.02, -187500.02, 0.00, 0.00, 0.00
232, 170074.58, 168514.11, -187500.02, -187500.02, 187500.00, -187500.02, -187500.02, -187500.02, 0.00, 0.00, 0.00
233, 171888.59, 170327.50, -187500.02, -187500.02, 187500.00, -187500.02, -187500.02, -187500.02, 0.00, 0.00, 0.00
234, 172325.02, 170764.06, -187500.02, -187500.02, 187500.00, -187500.02, -187500.02, -187500.02, 0.00, 0.00, 0.00
235, 170396.47, 168835.08, -187500.02, -187500.02, 187500.00, -187500.02, -187500.02, -187500.02, 0.00, 0.00, 0.00
236, 169747.88, 168182.66, -187500.02, -187500.02, 187500.00, -187500.02, -187500.02, -187500.02, 0.00, 0.00, 0.00
237, 171419.05, 169852.42, -187500.02, -187500.02, 187500.00, -187500.02, -187500.02, -187500.02, 0.00, 0.00, 0.00
238, 172259.64, 170695.95, -187500.02, -187500.02, 187500.00, -187500.02, -187500.02, -187500.02, 0.00, 0.00, 0.00
239, 170591.22, 169027.55, -187500.02, -187500.02, 187500.00, -187500.02, -187500.02, -187500.02, 0.00, 0.00, 0.00
240, 169531.89, 167965.02, -187500.02, -187500.02, 187500.00, -187500.02, -187500.02, -187500.02, 0.00, 0.00, 0.00
241, 171031.05, 169462.63, -187500.02, -187500.02, 187500.00, -187500.02, -187500.02, -187500.02, 0.00, 0.00, 0.00
242, 172519.55, 170955.23, -187500.02, -187500.02, 187500.00, -187500.02, -187500.02, -187500.02, 0.00, 0.00, 0.00
243, 171369.05, 169806.98, -187500.02, -187500.02, 187500.00, -187500.02, -187500.02, -187500.02, 0.00, 0.00, 0.00
244, 170060.83, 168495.17, -187500.02, -187500.02, 187500.00, -187500.02, -187500.02, -187500.02, 0.00, 0.00, 0.00
245, 171285.92, 169718.00, -187500.02, -187500.02, 187500.00, -187500.02, -187500.02, -187500.02, 0.00, 0.00, 0.00
246, 173075.70, 171509.83, -187500.02, -187500.02, 187500.00, -187500.02, -187500.02, -187500.02, 0.00, 0.00, 0.00
247, 172103.52, 170540.83, -187500.02, -187500.02, 187500.00, -187500.02, -187500.02, -187500.02, 0.00, 0.00, 0.00
248, 170320.59, 168759.53, -187500.02, -187500.02, 187500.00, -187500.02, -187500.02, -187500.02, 0.00, 0.00, 0.00
249, 170950.20, 169389.14, -187500.02, -187500.02, 187500.00, -187500.02, -187500.02, -187500.02, 0.00, 0.00, 0.00
250, 172771.27, 171208.33, -187500.02, -187500.02, 187500.00, -187500.02, -187500.02, -187500.02, 0.00, 0.00, 0.00
251, 172274.80, 170715.89, -187500.02, -187500.02, 187500.00, -187500.02, -187500.02, -187500.02, 0.00, 0.00, 0.00
252, 170283.05, 168723.23, -187500.02, -187500.02, 187500.00, -187500.02, -187500.02, -187500.02, 0.00, 0.00, 0.00
253, 170325.72, 168764.72, -187500.02, -187500.02, 187500.00, -187500.02, -187500.02, -187500.02, 0.00, 0.00, 0.00
254, 172070.09, 170509.25, -187500.02, -187500.02, 187500.00, -187500.02, -187500.02, -187500.02, 0.00, 0.00, 0.00
255, 172085.83, 170527.69, -187500.02, -187500.02, 187500.00, -187500.02, -187500.02, -187500.02, 0.00, 0.00, 0.00
0, 170192.17, 168636.44, -187500.02, -187500.02, 187500.00, -187500.02, -187500.02, -187500.02, 0.00, 0.00, 0.00
1, 169954.05, 168395.09, -187500.02, -187500.02, 187500.00, -187500.02, -187500.02, -187500.02, 0.00, 0.00, 0.00
2, 171759.88, 170196.53, -187500.02, -187500.02, 187500.00, -187500.02, -187500.02, -187500.02, 0.00, 0.00, 0.00
3, 172232.91, 170671.45, -187500.02, -187500.02, 187500.00, -187500.02, -187500.02, -187500.02, 0.00, 0.00, 0.00
4, 170427.94, 168867.78, -187500.02, -187500.02, 187500.00, -187500.02, -187500.02, -187500.02, 0.00, 0.00, 0.00
5, 169650.25, 168086.98, -187500.02, -187500.02, 187500.00, -187500.02, -187500.02, -187500.02, 0.00, 0.00, 0.00
6, 171368.27, 169804.28, -187500.02, -187500.02, 187500.00, -187500.02, -187500.02, -187500.02, 0.00, 0.00, 0.00
7, 172515.41, 170954.03, -187500.02, -187500.02, 187500.00, -187500.02, -187500.02, -187500.02, 0.00, 0.00, 0.00
8, 171079.73, 169517.77, -187500.02, -187500.02, 187500.00, -187500.02, -187500.02, -187500.02, 0.00, 0.00, 0.00
9, 170089.97, 168520.84, -187500.02, -187500.02, 187500.00, -187500.02, -187500.02, -187500.02, 0.00, 0.00, 0.00
10, 171585.80, 170016.97, -187500.02, -187500.02, 187500.00, -187500.02, -187500.02, -187500.02, 0.00, 0.00, 0.00
11, 173077.33, 171513.77, -187500.02, -187500.02, 187500.00, -187500.02, -187500.02, -187500.02, 0.00, 0.00, 0.00
12, 171784.58, 170223.64, -187500.02, -187500.02, 187500.00, -187500.02, -187500.02, -187500.02, 0.00, 0.00, 0.00
13, 170300.19, 168735.80, -187500.02, -187500.02, 187500.00, -187500.02, -187500.02, -187500.02, 0.00, 0.00, 0.00
14, 171212.41, 169643.67, -187500.02, -187500.02, 187500.00, -187500.02, -187500.02, -187500.02, 0.00, 0.00, 0.00
15, 172892.03, 171324.19, -187500.02, -187500.02, 187500.00, -187500.02, -187500.02, -187500.02, 0.00, 0.00, 0.00
16, 171990.31, 170431.23, -187500.02, -187500.02, 187500.00, -187500.02, -187500.02, -187500.02, 0.00, 0.00, 0.00
17, 170118.47, 168558.36, -187500.02, -187500.02, 187500.00, -187500.02, -187500.02, -187500.02, 0.00, 0.00, 0.00
18, 170580.84, 169014.81, -187500.02, -187500.02, 187500.00, -187500.02, -187500.02, -187500.02, 0.00, 0.00, 0.00
19, 172415.66, 170851.39, -187500.02, -187500.02, 187500.00, -187500.02, -187500.02, -187500.02, 0.00, 0.00, 0.00
20, 172088.56, 170529.23, -187500.02, -187500.02, 187500.00, -187500.02, -187500.02, -187500.02, 0.00, 0.00, 0.00
21, 170131.06, 168569.30, -187500.02, -187500.02, 187500.00, -187500.02, -187500.02, -187500.02, 0.00, 0.00, 0.00
22, 170104.34, 168538.00, -187500.02, -187500.02, 187500.00, -187500.02, -187500.02, -187500.02, 0.00, 0.00, 0.00
23, 171958.77, 170392.75, -187500.02, -187500.02, 187500.00, -187500.02, -187500.02, -187500.02, 0.00, 0.00, 0.00
24, 172163.55, 170602.39, -187500.02, -187500.02, 187500.00, -187500.02, -187500.02, -187500.02, 0.00, 0.00, 0.00
25, 170237.34, 168676.81, -187500.02, -187500.02, 187500.00, -187500.02, -187500.02, -187500.02, 0.00, 0.00, 0.00
26, 169822.05, 168257.80, -187500.02, -187500.02, 187500.00, -187500.02, -187500.02, -187500.02, 0.00, 0.00, 0.00
27, 171563.84, 169998.56, -187500.02, -187500.02, 187500.00, -187500.02, -187500.02, -187500.02, 0.00, 0.00, 0.00
28, 172430.88, 170867.14, -187500.02, -187500.02, 187500.00, -187500.02, -187500.02, -187500.02, 0.00, 0.00, 0.00
29, 170759.81, 169196.80, -187500.02, -187500.02, 187500.00, -187500.02, -187500.02, -187500.02, 0.00, 0.00, 0.00
30, 169929.59, 168364.48, -187500.02, -187500.02, 187500.00, -187500.02, -187500.02, -187500.02, 0.00, 0.00, 0.00
31, 171632.78, 170065.88, -187500.02, -187500.02, 187500.00, -187500.02, -187500.02, -187500.02, 0.00, 0.00, 0.00
32, 172923.23, 171358.09, -187500.02, -187500.02, 187500.00, -187500.02, -187500.02, -187500.02, 0.00, 0.00, 0.00
33, 171422.36, 169858.70, -187500.02, -187500.02, 187500.00, -187500.02, -187500.02, -187500.02, 0.00, 0.00, 0.00
34, 170090.52, 168523.16, -187500.02, -187500.02, 187500.00, -187500.02, -187500.02, -187500.02, 0.00, 0.00, 0.00
35, 171240.48, 169670.39, -187500.02, -187500.02, 187500.00, -187500.02, -187500.02, -187500.02, 0.00, 0.00, 0.00
36, 172613.58, 171044.33, -187500.02, -187500.02, 187500.00, -187500.02, -187500.02, -187500.02, 0.00, 0.00, 0.00
37, 171517.30, 169949.67, -187500.02, -187500.02, 187500.00, -187500.02, -187500.02, -187500.02, 0.00, 0.00, 0.00
38, 169928.48, 168358.31, -187500.02, -187500.02, 187500.00, -187500.02, -187500.02, -187500.02, 0.00, 0.00, 0.00
39, 170650.33, 169078.78, -187500.02, -187500.02, 187500.00, -187500.02, -187500.02, -187500.02, 0.00, 0.00, 0.00
40, 172334.16, 170765.38, -187500.02, -187500.02, 187500.00, -187500.02, -187500.02, -187500.02, 0.00, 0.00, 0.00
41, 171711.17, 170145.70, -187500.02, -187500.02, 187500.00, -187500.02, -187500.02, -187500.02, 0.00, 0.00, 0.00
42, 169817.58, 168252.91, -187500.02, -187500.02, 187500.00, -187500.02, -187500.02, -187500.02, 0.00, 0.00, 0.00
43, 170203.92, 168635.84, -187500.02, -187500.02, 187500.00, -187500.02, -187500.02, -187500.02, 0.00, 0.00, 0.00
44, 172077.17, 170508.58, -187500.02, -187500.02, 187500.00, -187500.02, -187500.02, -187500.02, 0.00, 0.00, 0.00
45, 171926.58, 170360.55, -187500.02, -187500.02, 187500.00, -187500.02, -187500.02, -187500.02, 0.00, 0.00, 0.00
46, 169959.73, 168394.42, -187500.02, -187500.02, 187500.00, -187500.02, -187500.02, -187500.02, 0.00, 0.00, 0.00
47, 169760.69, 168194.70, -187500.02, -187500.02, 187500.00, -187500.02, -187500.02, -187500.02, 0.00, 0.00, 0.00
48, 171595.41, 170028.28, -187500.02, -187500.02, 187500.00, -187500.02, -187500.02, -187500.02, 0.00, 0.00, 0.00
49, 171985.56, 170419.48, -187500.02, -187500.02, 187500.00, -187500.02, -187500.02, -187500.02, 0.00, 0.00, 0.00
50, 170069.97, 168503.47, -187500.02, -187500.02, 187500.00, -187500.02, -187500.02, -187500.02, 0.00, 0.00, 0.00
51, 169416.92, 167847.98, -187500.02, -187500.02, 187500.00, -187500.02, -187500.02, -187500.02, 0.00, 0.00, 0.00
52, 171189.64, 169618.64, -187500.02, -187500.02, 187500.00, -187500.02, -187500.02, -187500.02, 0.00, 0.00, 0.00
53, 172311.58, 170743.81, -187500.02, -187500.02, 187500.00, -187500.02, -187500.02, -187500.02, 0.00, 0.00, 0.00
54, 170790.91, 169227.13, -187500.02, -187500.02, 187500.00, -187500.02, -187500.02, -187500.02, 0.00, 0.00, 0.00
55, 169830.31, 168264.13, -187500.02, -187500.02, 187500.00, -187500.02, -187500.02, -187500.02, 0.00, 0.00, 0.00
56, 171345.88, 169775.23, -187500.02, -187500.02, 187500.00, -187500.02, -187500.02, -187500.02, 0.00, 0.00, 0.00
57, 172683.72, 171116.03, -187500.02, -187500.02, 187500.00, -187500.02, -187500.02, -187500.02, 0.00, 0.00, 0.00
58, 171355.50, 169790.02, -187500.02, -187500.02, 187500.00, -187500.02, -187500.02, -187500.02, 0.00, 0.00, 0.00
59, 169878.95, 168309.28, -187500.02, -187500.02, 187500.00, -187500.02, -187500.02, -187500.02, 0.00, 0.00, 0.00
60, 170826.28, 169255.19, -187500.02, -187500.02, 187500.00, -187500.02, -187500.02, -187500.02, 0.00, 0.00, 0.00
61, 172344.78, 170778.86, -187500.02, -187500.02, 187500.00, -187500.02, -187500.02, -187500.02, 0.00, 0.00, 0.00
62, 171361.81, 169795.95, -187500.02, -187500.02, 187500.00, -187500.02, -187500.02, -187500.02, 0.00, 0.00, 0.00
63, 169649.42, 168079.14, -187500.02, -187500.02, 187500.00, -187500.02, -187500.02, -187500.02, 0.00, 0.00, 0.00
64, 170170.89, 168598.86, -187500.02, -187500.02, 187500.00, -187500.02, -187500.02, -187500.02, 0.00, 0.00, 0.00
65, 171842.95, 170273.59, -187500.02, -187500.02, 187500.00, -187500.02, -187500.02, -187500.02, 0.00, 0.00, 0.00
66, 171249.69, 169683.91, -187500.02, -187500.02, 187500.00, -187500.02, -187500.02, -187500.02, 0.00, 0.00, 0.00
67, 169336.03, 167768.61, -187500.02, -187500.02, 187500.00, -187500.02, -187500.02, -187500.02, 0.00, 0.00, 0.00
68, 169432.05, 167861.66, -187500.02, -187500.02, 187500.00, -187500.02, -187500.02, -187500.02, 0.00, 0.00, 0.00
69, 171091.63, 169520.16, -187500.02, -187500.02, 187500.00, -187500.02, -187500.02, -187500.02, 0.00, 0.00, 0.00
70, 171084.61, 169516.47, -187500.02, -187500.02, 187500.00, -187500.02, -187500.02, -187500.02, 0.00, 0.00, 0.00
71, 169272.17, 167706.16, -187500.02, -187500.02, 187500.00, -187500.02, -187500.02, -187500.02, 0.00, 0.00, 0.00
72, 168946.73, 167376.25, -187500.02, -187500.02, 187500.00, -187500.02, -187500.02, -187500.02, 0.00, 0.00, 0.00
73, 170688.05, 169117.45, -187500.02, -187500.02, 187500.00, -187500.02, -187500.02, -187500.02, 0.00, 0.00, 0.00
74, 171319.39, 169752.17, -187500.02, -187500.02, 187500.00, -187500.02, -187500.02, -187500.02, 0.00, 0.00, 0.00
75, 169583.08, 168015.52, -187500.02, -187500.02, 187500.00, -187500.02, -187500.02, -187500.02, 0.00, 0.00, 0.00
76, 168927.02, 167356.38, -187500.02, -187500.02, 187500.00, -187500.02, -187500.02, -187500.02, 0.00, 0.00, 0.00
77, 170625.45, 169055.38, -187500.02, -187500.02, 187500.00, -187500.02, -187500.02, -187500.02, 0.00, 0.00, 0.00
78, 171660.36, 170095.03, -187500.02, -187500.02, 187500.00, -187500.02, -187500.02, -187500.02, 0.00, 0.00, 0.00
79, 169935.45, 168373.03, -187500.02, -187500.02, 187500.00, -187500.02, -187500.02, -187500.02, 0.00, 0.00, 0.00
80, 168698.36, 167132.75, -187500.02, -187500.02, 187500.00, -187500.02, -187500.02, -187500.02, 0.00, 0.00, 0.00
81, 169922.94, 168355.03, -187500.02, -187500.02, 187500.00, -187500.02, -187500.02, -187500.02, 0.00, 0.00, 0.00
82, 171226.61, 169662.00, -187500.02, -187500.02, 187500.00, -187500.02, -187500.02, -187500.02, 0.00, 0.00, 0.00
83, 169914.69, 168352.50, -187500.02, -187500.02, 187500.00, -187500.02, -187500.02, -187500.02, 0.00, 0.00, 0.00
84, 168304.52, 166742.00, -187500.02, -187500.02, 187500.00, -187500.02, -187500.02, -187500.02, 0.00, 0.00, 0.00
85, 169140.09, 167571.48, -187500.02, -187500.02, 187500.00, -187500.02, -187500.02, -187500.02, 0.00, 0.00, 0.00
86, 170763.81, 169194.36, -187500.02, -187500.02, 187500.00, -187500.02, -187500.02, -187500.02, 0.00, 0.00, 0.00
87, 170011.63, 168444.63, -187500.02, -187500.02, 187500.00, -187500.02, -187500.02, -187500.02, 0.00, 0.00, 0.00
88, 168189.36, 166622.75, -187500.02, -187500.02, 187500.00, -187500.02, -187500.02, -187500.02, 0.00, 0.00, 0.00
89, 168594.98, 167027.61, -187500.02, -187500.02, 187500.00, -187500.02, -187500.02, -187500.02, 0.00, 0.00, 0.00
90, 170499.56, 168932.53, -187500.02, -187500.02, 187500.00, -187500.02, -187500.02, -187500.02, 0.00, 0.00, 0.00
91, 170314.45, 168748.56, -187500.02, -187500.02, 187500.00, -187500.02, -187500.02, -187500.02, 0.00, 0.00, 0.00
92, 168469.97, 166900.45, -187500.02, -187500.02, 187500.00, -187500.02, -187500.02, -187500.02, 0.00, 0.00, 0.00
93, 168468.33, 166898.13, -187500.02, -187500.02, 187500.00, -187500.02, -187500.02, -187500.02, 0.00, 0.00, 0.00
94, 170434.64, 168870.22, -187500.02, -187500.02, 187500.00, -187500.02, -187500.02, -187500.02, 0.00, 0.00, 0.00
95, 170644.09, 169085.69, -187500.02, -187500.02, 187500.00, -187500.02, -187500.02, -187500.02, 0.00, 0.00, 0.00
96, 168667.94, 167106.13, -187500.02, -187500.02, 187500.00, -187500.02, -187500.02, -187500.02, 0.00, 0.00, 0.00
97, 168042.72, 166475.09, -187500.02, -187500.02, 187500.00, -187500.02, -187500.02, -187500.02, 0.00, 0.00, 0.00
98, 169748.03, 168177.58, -187500.02, -187500.02, 187500.00, -187500.02, -187500.02, -187500.02, 0.00, 0.00, 0.00
99, 170427.73, 168860.86, -187500.02, -187500.02, 187500.00, -187500.02, -187500.02, -187500.02, 0.00, 0.00, 0.00
100, 168656.88, 167091.80, -187500.02, -187500.02, 187500.00, -187500.02, -187500.02, -187500.02, 0.00, 0.00, 0.00
101, 167692.64, 166127.08, -187500.02, -187500.02, 187500.00, -187500.02, -187500.02, -187500.02, 0.00, 0.00, 0.00
102, 169268.48, 167701.84, -187500.02, -187500.02, 187500.00, -187500.02, -187500.02, -187500.02, 0.00, 0.00, 0.00
103, 170543.78, 168978.73, -187500.02, -187500.02, 187500.00, -187500.02, -187500.02, -187500.02, 0.00, 0.00, 0.00
104, 169141.77, 167574.55, -187500.02, -187500.02, 187500.00, -187500.02, -187500.02, -187500.02, 0.00, 0.00, 0.00
105, 167906.64, 166336.53, -187500.02, -187500.02, 187500.00, -187500.02, -187500.02, -187500.02, 0.00, 0.00, 0.00
106, 169164.66, 167593.69, -187500.02, -187500.02, 187500.00, -187500.02, -187500.02, -187500.02, 0.00, 0.00, 0.00
107, 170733.38, 169166.84, -187500.02, -187500.02, 187500.00, -187500.02, -187500.02, -187500.02, 0.00, 0.00, 0.00
108, 169746.58, 168182.86, -187500.02, -187500.02, 187500.00, -187500.02, -187500.02, -187500.02, 0.00, 0.00, 0.00
109, 168124.98, 166556.00, -187500.02, -187500.02, 187500.00, -187500.02, -187500.02, -187500.02, 0.00, 0.00, 0.00
110, 168766.75, 167193.02, -187500.02, -187500.02, 187500.00, -187500.02, -187500.02, -187500.02, 0.00, 0.00, 0.00
111, 170357.92, 168787.05, -187500.02, -187500.02, 187500.00, -187500.02, -187500.02, -187500.02, 0.00, 0.00, 0.00
112, 169663.66, 168094.75, -187500.02, -187500.02, 187500.00, -187500.02, -187500.02, -187500.02, 0.00, 0.00, 0.00
113, 167885.06, 166315.23, -187500.02, -187500.02, 187500.00, -187500.02, -187500.02, -187500.02, 0.00, 0.00, 0.00
114, 168223.97, 166652.91, -187500.02, -187500.02, 187500.00, -187500.02, -187500.02, -187500.02, 0.00, 0.00, 0.00
115, 170073.33, 168503.06, -187500.02, -187500.02, 187500.00, -187500.02, -187500.02, -187500.02, 0.00, 0.00, 0.00
116, 170185.59, 168617.58, -187500.02, -187500.02, 187500.00, -187500.02, -187500.02, -187500.02, 0.00, 0.00, 0.00
117, 168454.08, 166886.09, -187500.02, -187500.02, 187500.00, -187500.02, -187500.02, -187500.02, 0.00, 0.00, 0.00
118, 168402.31, 166832.55, -187500.02, -187500.02, 187500.00, -187500.02, -187500.02, -187500.02, 0.00, 0.00, 0.00
119, 170337.55, 168767.89, -187500.02, -187500.02, 187500.00, -187500.02, -187500.02, -187500.02, 0.00, 0.00, 0.00
120, 170837.89, 169271.86, -187500.02, -187500.02, 187500.00, -187500.02, -187500.02, -187500.02, 0.00, 0.00, 0.00
121, 169061.64, 167496.25, -187500.02, -187500.02, 187500.00, -187500.02, -187500.02, -187500.02, 0.00, 0.00, 0.00
122, 168392.61, 166827.64, -187500.02, -187500.02, 187500.00, -187500.02, -187500.02, -187500.02, 0.00, 0.00, 0.00
123, 170002.22, 168436.33, -187500.02, -187500.02, 187500.00, -187500.02, -187500.02, -187500.02, 0.00, 0.00, 0.00
124, 170925.44, 169362.17, -187500.02, -187500.02, 187500.00, -187500.02, -187500.02, -187500.02, 0.00, 0.00, 0.00
125, 169266.61, 167704.08, -187500.02, -187500.02, 187500.00, -187500.02, -187500.02, -187500.02, 0.00, 0.00, 0.00
126, 168247.67, 166682.63, -187500.02, -187500.02, 187500.00, -187500.02, -187500.02, -187500.02, 0.00, 0.00, 0.00
127, 169559.80, 167992.67, -187500.02, -187500.02, 187500.00, -187500.02, -187500.02, -187500.02, 0.00, 0.00, 0.00
128, 170931.08, 169363.77, -187500.02, -187500.02, 187500.00, -187500.02, -187500.02, -187500.02, 0.00, 0.00, 0.00
129, 169575.22, 168010.38, -187500.02, -187500.02, 187500.00, -187500.02, -187500.02, -187500.02, 0.00, 0.00, 0.00
130, 168163.02, 166596.89, -187500.02, -187500.02, 187500.00, -187500.02, -187500.02, -187500.02, 0.00, 0.00, 0.00
131, 169338.38, 167767.52, -187500.02, -187500.02, 187500.00, -187500.02, -187500.02, -187500.02, 0.00, 0.00, 0.00
132, 171073.70, 169500.83, -187500.02, -187500.02, 187500.00, -187500.02, -187500.02, -187500.02, 0.00, 0.00, 0.00
133, 170366.98, 168800.66, -187500.02, -187500.02, 187500.00, -187500.02, -187500.02, -187500.02, 0.00, 0.00, 0.00
134, 168855.69, 167291.67, -187500.02, -187500.02, 187500.00, -187500.02, -187500.02, -187500.02, 0.00, 0.00, 0.00
135, 169564.69, 167997.47, -187500.02, -187500.02, 187500.00, -187500.02, -187500.02, -187500.02, 0.00, 0.00, 0.00
136, 171524.23, 169954.14, -187500.02, -187500.02, 187500.00, -187500.02, -187500.02, -187500.02, 0.00, 0.00, 0.00
137, 171264.61, 169696.81, -187500.02, -187500.02, 187500.00, -187500.02, -187500.02, -187500.02, 0.00, 0.00, 0.00
138, 169395.02, 167826.70, -187500.02, -187500.02, 187500.00, -187500.02, -187500.02, -187500.02, 0.00, 0.00, 0.00
139, 169549.39, 167977.44, -187500.02, -187500.02, 187500.00, -187500.02, -187500.02, -187500.02, 0.00, 0.00, 0.00
140, 171391.67, 169819.81, -187500.02, -187500.02, 187500.00, -187500.02, -187500.02, -187500.02, 0.00, 0.00, 0.00
141, 171514.63, 169946.55, -187500.02, -187500.02, 187500.00, -187500.02, -187500.02, -187500.02, 0.00, 0.00, 0.00
142, 169642.97, 168076.78, -187500.02, -187500.02, 187500.00, -187500.02, -187500.02, -187500.02, 0.00, 0.00, 0.00
143, 169242.59, 167673.03, -187500.02, -187500.02, 187500.00, -187500.02, -187500.02, -187500.02, 0.00, 0.00, 0.00
144, 170920.88, 169350.64, -187500.02, -187500.02, 187500.00, -187500.02, -187500.02, -187500.02, 0.00, 0.00, 0.00
145, 171508.73, 169942.52, -187500.02, -187500.02, 187500.00, -187500.02, -187500.02, -187500.02, 0.00, 0.00, 0.00
146, 169641.27, 168076.75, -187500.02, -187500.02, 187500.00, -187500.02, -187500.02, -187500.02, 0.00, 0.00, 0.00
147, 168965.34, 167397.44, -187500.02, -187500.02, 187500.00, -187500.02, -187500.02, -187500.02, 0.00, 0.00, 0.00
148, 170691.75, 169124.89, -187500.02, -187500.02, 187500.00, -187500.02, -187500.02, -187500.02, 0.00, 0.00, 0.00
149, 172062.16, 170498.34, -187500.02, -187500.02, 187500.00, -187500.02, -187500.02, -187500.02, 0.00, 0.00, 0.00
150, 170754.30, 169192.33, -187500.02, -187500.02, 187500.00, -187500.02, -187500.02, -187500.02, 0.00, 0.00, 0.00
151, 169680.52, 168117.56, -187500.02, -187500.02, 187500.00, -187500.02, -187500.02, -187500.02, 0.00, 0.00, 0.00
152, 171092.67, 169529.34, -187500.02, -187500.02, 187500.00, -187500.02, -187500.02, -187500.02, 0.00, 0.00, 0.00
153, 172661.66, 171098.98, -187500.02, -187500.02, 187500.00, -187500.02, -187500.02, -187500.02, 0.00, 0.00, 0.00
154, 171523.55, 169961.72, -187500.02, -187500.02, 187500.00, -187500.02, -187500.02, -187500.02, 0.00, 0.00, 0.00
155, 170042.75, 168476.00, -187500.02, -187500.02, 187500.00, -187500.02, -187500.02, -187500.02, 0.00, 0.00, 0.00
156, 170887.08, 169316.38, -187500.02, -187500.02, 187500.00, -187500.02, -187500.02, -187500.02, 0.00, 0.00, 0.00
157, 172584.58, 171018.33, -187500.02, -187500.02, 187500.00, -187500.02, -187500.02, -187500.02, 0.00, 0.00, 0.00
158, 171808.27, 170245.25, -187500.02, -187500.02, 187500.00, -187500.02, -187500.02, -187500.02, 0.00, 0.00, 0.00
159, 169900.14, 168332.59, -187500.02, -187500.02, 187500.00, -187500.02, -187500.02, -187500.02, 0.00, 0.00, 0.00
160, 170408.47, 168837.81, -187500.02, -187500.02, 187500.00, -187500.02, -187500.02, -187500.02, 0.00, 0.00, 0.00
161, 172159.80, 170591.92, -187500.02, -187500.02, 187500.00, -187500.02, -187500.02, -187500.02, 0.00, 0.00, 0.00
162, 171942.13, 170377.16, -187500.02, -187500.02, 187500.00, -187500.02, -187500.02, -187500.02, 0.00, 0.00, 0.00
163, 170102.20, 168535.30, -187500.02, -187500.02, 187500.00, -187500.02, -187500.02, -187500.02, 0.00, 0.00, 0.00
164, 170043.66, 168471.75, -187500.02, -187500.02, 187500.00, -187500.02, -187500.02, -187500.02, 0.00, 0.00, 0.00
165, 171961.59, 170391.44, -187500.02, -187500.02, 187500.00, -187500.02, -187500.02, -187500.02, 0.00, 0.00, 0.00
166, 172472.05, 170903.89, -187500.02, -187500.02, 187500.00, -187500.02, -187500.02, -187500.02, 0.00, 0.00, 0.00
167, 170775.66, 169203.69, -187500.02, -187500.02, 187500.00, -187500.02, -187500.02, -187500.02, 0.00, 0.00, 0.00
168, 170352.20, 168777.61, -187500.02, -187500.02, 187500.00, -187500.02, -187500.02, -187500.02, 0.00, 0.00, 0.00
169, 172171.66, 170599.03, -187500.02, -187500.02, 187500.00, -187500.02, -187500.02, -187500.02, 0.00, 0.00, 0.00
170, 173183.44, 171616.55, -187500.02, -187500.02, 187500.00, -187500.02, -187500.02, -187500.02, 0.00, 0.00, 0.00
171, 171318.42, 169752.86, -187500.02, -187500.02, 187500.00, -187500.02, -187500.02, -187500.02, 0.00, 0.00, 0.00
172, 170278.13, 168709.64, -187500.02, -187500.02, 187500.00, -187500.02, -187500.02, -187500.02, 0.00, 0.00, 0.00
173, 171646.14, 170074.00, -187500.02, -187500.02, 187500.00, -187500.02, -187500.02, -187500.02, 0.00, 0.00, 0.00
174, 172839.19, 171269.03, -187500.02, -187500.02, 187500.00, -187500.02, -187500.02, -187500.02, 0.00, 0.00, 0.00
175, 171417.25, 169849.52, -187500.02, -187500.02, 187500.00, -187500.02, -187500.02, -187500.02, 0.00, 0.00, 0.00
176, 170069.19, 168495.53, -187500.02, -187500.02, 187500.00, -187500.02, -187500.02, -187500.02, 0.00, 0.00, 0.00
177, 171210.48, 169633.63, -187500.02, -187500.02, 187500.00, -187500.02, -187500.02, -187500.02, 0.00, 0.00, 0.00
178, 172835.33, 171266.86, -187500.02, -187500.02, 187500.00, -187500.02, -187500.02, -187500.02, 0.00, 0.00, 0.00
179, 171700.19, 170135.86, -187500.02, -187500.02, 187500.00, -187500.02, -187500.02, -187500.02, 0.00, 0.00, 0.00
180, 170044.80, 168477.11, -187500.02, -187500.02, 187500.00, -187500.02, -187500.02, -187500.02, 0.00, 0.00, 0.00
181, 170785.34, 169211.59, -187500.02, -187500.02, 187500.00, -187500.02, -187500.02, -187500.02, 0.00, 0.00, 0.00
182, 172539.91, 170967.75, -187500.02, -187500.02, 187500.00, -187500.02, -187500.02, -187500.02, 0.00, 0.00, 0.00
183, 171877.58, 170310.09, -187500.02, -187500.02, 187500.00, -187500.02, -187500.02, -187500.02, 0.00, 0.00, 0.00
184, 170050.08, 168479.63, -187500.02, -187500.02, 187500.00, -187500.02, -187500.02, -187500.02, 0.00, 0.00, 0.00
185, 170355.30, 168780.94, -187500.02, -187500.02, 187500.00, -187500.02, -187500.02, -187500.02, 0.00, 0.00, 0.00
186, 172276.20, 170701.30, -187500.02, -187500.02, 187500.00, -187500.02, -187500.02, -187500.02, 0.00, 0.00, 0.00
187, 172464.69, 170891.80, -187500.02, -187500.02, 187500.00, -187500.02, -187500.02, -187500.02, 0.00, 0.00, 0.00
188, 170691.45, 169118.08, -187500.02, -187500.02, 187500.00, -187500.02, -187500.02, -187500.02, 0.00, 0.00, 0.00
189, 170642.95, 169068.34, -187500.02, -187500.02, 187500.00, -187500.02, -187500.02, -187500.02, 0.00, 0.00, 0.00
190, 172620.34, 171044.33, -187500.02, -187500.02, 187500.00, -187500.02, -187500.02, -187500.02, 0.00, 0.00, 0.00
191, 173326.11, 171750.86, -187500.02, -187500.02, 187500.00, -187500.02, -187500.02, -187500.02, 0.00, 0.00, 0.00
192, 171452.17, 169880.92, -187500.02, -187500.02, 187500.00, -187500.02, -187500.02, -187500.02, 0.00, 0.00, 0.00
193, 170715.06, 169143.11, -187500.02, -187500.02, 187500.00, -187500.02, -187500.02, -187500.02, 0.00, 0.00, 0.00
194, 172313.70, 170739.56, -187500.02, -187500.02, 187500.00, -187500.02, -187500.02, -187500.02, 0.00, 0.00, 0.00
195, 173408.14, 171837.36, -187500.02, -187500.02, 187500.00, -187500.02, -187500.02, -187500.02, 0.00, 0.00, 0.00
196, 171619.23, 170049.19, -187500.02, -187500.02, 187500.00, -187500.02, -187500.02, -187500.02, 0.00, 0.00, 0.00
197, 170314.09, 168741.72, -187500.02, -187500.02, 187500.00, -187500.02, -187500.02, -187500.02, 0.00, 0.00, 0.00
198, 171548.27, 169976.42, -187500.02, -187500.02, 187500.00, -187500.02, -187500.02, -187500.02, 0.00, 0.00, 0.00
199, 172910.88, 171340.00, -187500.02, -187500.02, 187500.00, -187500.02, -187500.02, -187500.02, 0.00, 0.00, 0.00
200, 171772.09, 170202.67, -187500.02, -187500.02, 187500.00, -187500.02, -187500.02, -187500.02, 0.00, 0.00, 0.00
201, 170324.28, 168753.61, -187500.02, -187500.02, 187500.00, -187500.02, -187500.02, -187500.02, 0.00, 0.00, 0.00
202, 171181.14, 169609.09, -187500.02, -187500.02, 187500.00, -187500.02, -187500.02, -187500.02, 0.00, 0.00, 0.00
203, 172776.77, 171206.59, -187500.02, -187500.02, 187500.00, -187500.02, -187500.02, -187500.02, 0.00, 0.00, 0.00
204, 171937.08, 170369.70, -187500.02, -187500.02, 187500.00, -187500.02, -187500.02, -187500.02, 0.00, 0.00, 0.00
205, 170120.11, 168551.09, -187500.02, -187500.02, 187500.00, -187500.02, -187500.02, -187500.02, 0.00, 0.00, 0.00
206, 170683.77, 169112.72, -187500.02, -187500.02, 187500.00, -187500.02, -187500.02, -187500.02, 0.00, 0.00, 0.00
207, 172643.03, 171070.50, -187500.02, -187500.02, 187500.00, -187500.02, -187500.02, -187500.02, 0.00, 0.00, 0.00
208, 172432.30, 170863.41, -187500.02, -187500.02, 187500.00, -187500.02, -187500.02, -187500.02, 0.00, 0.00, 0.00
209, 170754.17, 169181.38, -187500.02, -187500.02, 187500.00, -187500.02, -187500.02, -187500.02, 0.00, 0.00, 0.00
210, 170988.25, 169413.45, -187500.02, -187500.02, 187500.00, -187500.02, -187500.02, -187500.02, 0.00, 0.00, 0.00
211, 173051.63, 171475.81, -187500.02, -187500.02, 187500.00, -187500.02, -187500.02, -187500.02, 0.00, 0.00, 0.00
212, 173399.55, 171827.38, -187500.02, -187500.02, 187500.00, -187500.02, -187500.02, -187500.02, 0.00, 0.00, 0.00
213, 171243.03, 169672.72, -187500.02, -187500.02, 187500.00, -187500.02, -187500.02, -187500.02, 0.00, 0.00, 0.00
214, 170784.95, 169210.33, -187500.02, -187500.02, 187500.00, -187500.02, -187500.02, -187500.02, 0.00, 0.00, 0.00
215, 172548.05, 170972.72, -187500.02, -187500.02, 187500.00, -187500.02, -187500.02, -187500.02, 0.00, 0.00, 0.00
216, 173188.34, 171616.22, -187500.02, -187500.02, 187500.00, -187500.02, -187500.02, -187500.02, 0.00, 0.00, 0.00
217, 171290.08, 169717.80, -187500.02, -187500.02, 187500.00, -187500.02, -187500.02, -187500.02, 0.00, 0.00, 0.00
218, 170289.36, 168714.92, -187500.02, -187500.02, 187500.00, -187500.02, -187500.02, -187500.02, 0.00, 0.00, 0.00
219, 171797.94, 170224.38, -187500.02, -187500.02, 187500.00, -187500.02, -187500.02, -187500.02, 0.00, 0.00, 0.00
220, 172947.58, 171375.17, -187500.02, -187500.02, 187500.00, -187500.02, -187500.02, -187500.02, 0.00, 0.00, 0.00
221, 171358.28, 169789.30, -187500.02, -187500.02, 187500.00, -187500.02, -187500.02, -187500.02, 0.00, 0.00, 0.00
222, 170037.78, 168464.63, -187500.02, -187500.02, 187500.00, -187500.02, -187500.02, -187500.02, 0.00, 0.00, 0.00
223, 171149.53, 169574.50, -187500.02, -187500.02, 187500.00, -187500.02, -187500.02, -187500.02, 0.00, 0.00, 0.00
224, 172662.75, 171090.28, -187500.02, -187500.02, 187500.00, -187500.02, -187500.02, -187500.02, 0.00, 0.00, 0.00
225, 171550.39, 169980.30, -187500.02, -187500.02, 187500.00, -187500.02, -187500.02, -187500.02, 0.00, 0.00, 0.00
226, 170027.56, 168453.61, -187500.02, -187500.02, 187500.00, -187500.02, -187500.02, -187500.02, 0.00, 0.00, 0.00
227, 170914.83, 169339.56, -187500.02, -187500.02, 187500.00, -187500.02, -187500.02, -187500.02, 0.00, 0.00, 0.00
228, 172696.41, 171122.95, -187500.02, -187500.02, 187500.00, -187500.02, -187500.02, -187500.02, 0.00, 0.00, 0.00
229, 172177.73, 170604.83, -187500.02, -187500.02, 187500.00, -187500.02, -187500.02, -187500.02, 0.00, 0.00, 0.00
230, 170513.25, 168938.45, -187500.02, -187500.02, 187500.00, -187500.02, -187500.02, -187500.02, 0.00, 0.00, 0.00
231, 170979.58, 169401.36, -187500.02, -187500.02, 187500.00, -187500.02, -187500.02, -187500.02, 0.00, 0.00, 0.00
232, 172949.44, 171374.70, -187500.02, -187500.02, 187500.00, -187500.02, -187500.02, -187500.02, 0.00, 0.00, 0.00
233, 172899.77, 171327.33, -187500.02, -187500.02, 187500.00, -187500.02, -187500.02, -187500.02, 0.00, 0.00, 0.00
234, 170999.64, 169427.27, -187500.02, -187500.02, 187500.00, -187500.02, -187500.02, -187500.02, 0.00, 0.00, 0.00
235, 170903.84, 169330.34, -187500.02, -187500.02, 187500.00, -187500.02, -187500.02, -187500.02, 0.00, 0.00, 0.00
236, 172649.52, 171076.25, -187500.02, -187500.02, 187500.00, -187500.02, -187500.02, -187500.02, 0.00, 0.00, 0.00
237, 173016.02, 171445.41, -187500.02, -187500.02, 187500.00, -187500.02, -187500.02, -187500.02, 0.00, 0.00, 0.00
238, 171067.14, 169496.77, -187500.02, -187500.02, 187500.00, -187500.02, -187500.02, -187500.02, 0.00, 0.00, 0.00
239, 170390.63, 168817.48, -187500.02, -187500.02, 187500.00, -187500.02, -187500.02, -187500.02, 0.00, 0.00, 0.00
240, 172112.47, 170537.61, -187500.02, -187500.02, 187500.00, -187500.02, -187500.02, -187500.02, 0.00, 0.00, 0.00
241, 172992.06, 171421.80, -187500.02, -187500.02, 187500.00, -187500.02, -187500.02, -187500.02, 0.00, 0.00, 0.00
242, 171191.89, 169623.25, -187500.02, -187500.02, 187500.00, -187500.02, -187500.02, -187500.02, 0.00, 0.00, 0.00
243, 170066.77, 168495.36, -187500.02, -187500.02, 187500.00, -187500.02, -187500.02, -187500.02, 0.00, 0.00, 0.00
244, 171439.63, 169867.48, -187500.02, -187500.02, 187500.00, -187500.02, -187500.02, -187500.02, 0.00, 0.00, 0.00
245, 172653.20, 171082.75, -187500.02, -187500.02, 187500.00, -187500.02, -187500.02, -187500.02, 0.00, 0.00, 0.00
246, 171291.05, 169722.58, -187500.02, -187500.02, 187500.00, -187500.02, -187500.02, -187500.02, 0.00, 0.00, 0.00
247, 169923.75, 168352.63, -187500.02, -187500.02, 187500.00, -187500.02, -187500.02, -187500.02, 0.00, 0.00, 0.00
248, 171041.20, 169469.83, -187500.02, -187500.02, 187500.00, -187500.02, -187500.02, -187500.02, 0.00, 0.00, 0.00
249, 172747.33, 171177.50, -187500.02, -187500.02, 187500.00, -187500.02, -187500.02, -187500.02, 0.00, 0.00, 0.00
250, 171849.81, 170282.47, -187500.02, -187500.02, 187500.00, -187500.02, -187500.02, -187500.02, 0.00, 0.00, 0.00
251, 170347.69, 168776.20, -187500.02, -187500.02, 187500.00, -187500.02, -187500.02, -187500.02, 0.00, 0.00, 0.00
252, 171189.64, 169614.80, -187500.02, -187500.02, 187500.00, -187500.02, -187500.02, -187500.02, 0.00, 0.00, 0.00
253, 173117.98, 171544.14, -187500.02, -187500.02, 187500.00, -187500.02, -187500.02, -187500.02, 0.00, 0.00, 0.00
254, 172562.13, 170993.05, -187500.02, -187500.02, 187500.00, -187500.02, -187500.02, -187500.02, 0.00, 0.00, 0.00
255, 170664.64, 169095.28, -187500.02, -187500.02, 187500.00, -187500.02, -187500.02, -187500.02, 0.00, 0.00, 0.00
0, 170850.45, 169275.19, -187500.02, -187500.02, 187500.00, -187500.02, -187500.02, -187500.02, 0.00, 0.00, 0.00
1, 172551.61, 170975.78, -187500.02, -187500.02, 187500.00, -187500.02, -187500.02, -187500.02, 0.00, 0.00, 0.00
2, 172569.41, 170998.02, -187500.02, -187500.02, 187500.00, -187500.02, -187500.02, -187500.02, 0.00, 0.00, 0.00
3, 170663.31, 169090.47, -187500.02, -187500.02, 187500.00, -187500.02, -187500.02, -187500.02, 0.00, 0.00, 0.00
4, 170299.67, 168722.61, -187500.02, -187500.02, 187500.00, -187500.02, -187500.02, -187500.02, 0.00, 0.00, 0.00
5, 172067.72, 170487.03, -187500.02, -187500.02, 187500.00, -187500.02, -187500.02, -187500.02, 0.00, 0.00, 0.00
6, 172507.66, 170927.88, -187500.02, -187500.02, 187500.00, -187500.02, -187500.02, -187500.02, 0.00, 0.00, 0.00
7, 170705.05, 169124.30, -187500.02, -187500.02, 187500.00, -187500.02, -187500.02, -187500.02, 0.00, 0.00, 0.00
8, 170010.84, 168431.72, -187500.02, -187500.02, 187500.00, -187500.02, -187500.02, -187500.02, 0.00, 0.00, 0.00
9, 171470.23, 169895.22, -187500.02, -187500.02, 187500.00, -187500.02, -187500.02, -187500.02, 0.00, 0.00, 0.00
10, 172507.34, 170932.56, -187500.02, -187500.02, 187500.00, -187500.02, -187500.02, -187500.02, 0.00, 0.00, 0.00
11, 171038.03, 169462.36, -187500.02, -187500.02, 187500.00, -187500.02, -187500.02, -187500.02, 0.00, 0.00, 0.00
12, 169919.45, 168339.44, -187500.02, -187500.02, 187500.00, -187500.02, -187500.02, -187500.02, 0.00, 0.00, 0.00
13, 171339.22, 169756.98, -187500.02, -187500.02, 187500.00, -187500.02, -187500.02, -187500.02, 0.00, 0.00, 0.00
14, 172868.13, 171287.30, -187500.02, -187500.02, 187500.00, -187500.02, -187500.02, -187500.02, 0.00, 0.00, 0.00
15, 171751.02, 170174.59, -187500.02, -187500.02, 187500.00, -187500.02, -187500.02, -187500.02, 0.00, 0.00, 0.00
16, 170337.03, 168760.88, -187500.02, -187500.02, 187500.00, -187500.02, -187500.02, -187500.02, 0.00, 0.00, 0.00
17, 171410.84, 169830.63, -187500.02, -187500.02, 187500.00, -187500.02, -187500.02, -187500.02, 0.00, 0.00, 0.00
18, 173287.89, 171706.28, -187500.02, -187500.02, 187500.00, -187500.02, -187500.02, -187500.02, 0.00, 0.00, 0.00
19, 172451.89, 170873.53, -187500.02, -187500.02, 187500.00, -187500.02, -187500.02, -187500.02, 0.00, 0.00, 0.00
20, 170701.39, 169125.31, -187500.02, -187500.02, 187500.00, -187500.02, -187500.02, -187500.02, 0.00, 0.00, 0.00
21, 171155.89, 169576.89, -187500.02, -187500.02, 187500.00, -187500.02, -187500.02, -187500.02, 0.00, 0.00, 0.00
22, 172928.42, 171348.06, -187500.02, -187500.02, 187500.00, -187500.02, -187500.02, -187500.02, 0.00, 0.00, 0.00
23, 172551.95, 170974.80, -187500.02, -187500.02, 187500.00, -187500.02, -187500.02, -187500.02, 0.00, 0.00, 0.00
24, 170628.11, 169049.77, -187500.02, -187500.02, 187500.00, -187500.02, -187500.02, -187500.02, 0.00, 0.00, 0.00
25, 170626.64, 169046.55, -187500.02, -187500.02, 187500.00, -187500.02, -187500.02, -187500.02, 0.00, 0.00, 0.00
26, 172418.31, 170838.56, -187500.02, -187500.02, 187500.00, -187500.02, -187500.02, -187500.02, 0.00, 0.00, 0.00
27, 172678.38, 171101.45, -187500.02, -187500.02, 187500.00, -187500.02, -187500.02, -187500.02, 0.00, 0.00, 0.00
28, 170689.45, 169113.25, -187500.02, -187500.02, 187500.00, -187500.02, -187500.02, -187500.02, 0.00, 0.00, 0.00
29, 170221.38, 168644.08, -187500.02, -187500.02, 187500.00, -187500.02, -187500.02, -187500.02, 0.00, 0.00, 0.00
30, 171925.80, 170348.36, -187500.02, -187500.02, 187500.00, -187500.02, -187500.02, -187500.02, 0.00, 0.00, 0.00
31, 172617.75, 171041.20, -187500.02, -187500.02, 187500.00, -187500.02, -187500.02, -187500.02, 0.00, 0.00, 0.00
32, 170751.58, 169176.13, -187500.02, -187500.02, 187500.00, -187500.02, -187500.02, -187500.02, 0.00, 0.00, 0.00
33, 169776.00, 168198.28, -187500.02, -187500.02, 187500.00, -187500.02, -187500.02, -187500.02, 0.00, 0.00, 0.00
34, 171460.77, 169879.48, -187500.02, -187500.02, 187500.00, -187500.02, -187500.02, -187500.02, 0.00, 0.00, 0.00
35, 172775.36, 171194.63, -187500.02, -187500.02, 187500.00, -187500.02, -187500.02, -187500.02, 0.00, 0.00, 0.00
36, 171437.52, 169862.17, -187500.02, -187500.02, 187500.00, -187500.02, -187500.02, -187500.02, 0.00, 0.00, 0.00
37, 170269.73, 168693.34, -187500.02, -187500.02, 187500.00, -187500.02, -187500.02, -187500.02, 0.00, 0.00, 0.00
38, 171544.36, 169967.59, -187500.02, -187500.02, 187500.00, -187500.02, -187500.02, -187500.02, 0.00, 0.00, 0.00
39, 173187.19, 171611.61, -187500.02, -187500.02, 187500.00, -187500.02, -187500.02, -187500.02, 0.00, 0.00, 0.00
40, 172111.02, 170537.36, -187500.02, -187500.02, 187500.00, -187500.02, -187500.02, -187500.02, 0.00, 0.00, 0.00
41, 170427.80, 168851.47, -187500.02, -187500.02, 187500.00, -187500.02, -187500.02, -187500.02, 0.00, 0.00, 0.00
42, 171290.83, 169713.97, -187500.02, -187500.02, 187500.00, -187500.02, -187500.02, -187500.02, 0.00, 0.00, 0.00
43, 173023.23, 171447.55, -187500.02, -187500.02, 187500.00, -187500.02, -187500.02, -187500.02, 0.00, 0.00, 0.00
44, 172317.89, 170743.38, -187500.02, -187500.02, 187500.00, -187500.02, -187500.02, -187500.02, 0.00, 0.00, 0.00
45, 170342.70, 168768.16, -187500.02, -187500.02, 187500.00, -187500.02, -187500.02, -187500.02, 0.00, 0.00, 0.00
46, 170663.91, 169087.83, -187500.02, -187500.02, 187500.00, -187500.02, -187500.02, -187500.02, 0.00, 0.00, 0.00
47, 172525.69, 170948.91, -187500.02, -187500.02, 187500.00, -187500.02, -187500.02, -187500.02, 0.00, 0.00, 0.00
48, 172414.83, 170841.03, -187500.02, -187500.02, 187500.00, -187500.02, -187500.02, -187500.02, 0.00, 0.00, 0.00
49, 170390.11, 168817.88, -187500.02, -187500.02, 187500.00, -187500.02, -187500.02, -187500.02, 0.00, 0.00, 0.00
50, 170142.66, 168566.75, -187500.02, -187500.02, 187500.00, -187500.02, -187500.02, -187500.02, 0.00, 0.00, 0.00
51, 171911.42, 170335.89, -187500.02, -187500.02, 187500.00, -187500.02, -187500.02, -187500.02, 0.00, 0.00, 0.00
52, 172329.94, 170756.77, -187500.02, -187500.02, 187500.00, -187500.02, -187500.02, -187500.02, 0.00, 0.00, 0.00
53, 170370.48, 168798.98, -187500.02, -187500.02, 187500.00, -187500.02, -187500.02, -187500.02, 0.00, 0.00, 0.00
54, 169791.00, 168213.92, -187500.02, -187500.02, 187500.00, -187500.02, -187500.02, -187500.02, 0.00, 0.00, 0.00
55, 171561.33, 169978.84, -187500.02, -187500.02, 187500.00, -187500.02, -187500.02, -187500.02, 0.00, 0.00, 0.00
56, 172640.17, 171062.44, -187500.02, -187500.02, 187500.00, -187500.02, -187500.02, -187500.02, 0.00, 0.00, 0.00
57, 171158.56, 169581.77, -187500.02, -187500.02, 187500.00, -187500.02, -187500.02, -187500.02, 0.00, 0.00, 0.00
58, 170240.42, 168659.19, -187500.02, -187500.02, 187500.00, -187500.02, -187500.02, -187500.02, 0.00, 0.00, 0.00
59, 171805.05, 170224.05, -187500.02, -187500.02, 187500.00, -187500.02, -187500.02, -187500.02, 0.00, 0.00, 0.00
60, 173247.73, 171670.22, -187500.02, -187500.02, 187500.00, -187500.02, -187500.02, -187500.02, 0.00, 0.00, 0.00
61, 171818.92, 170243.83, -187500.02, -187500.02, 187500.00, -187500.02, -187500.02, -187500.02, 0.00, 0.00, 0.00
62, 170491.14, 168914.25, -187500.02, -187500.02, 187500.00, -187500.02, -187500.02, -187500.02, 0.00, 0.00, 0.00
63, 171458.91, 169879.95, -187500.02, -187500.02, 187500.00, -187500.02, -187500.02, -187500.02, 0.00, 0.00, 0.00
64, 172944.63, 171368.22, -187500.02, -187500.02, 187500.00, -187500.02, -187500.02, -187500.02, 0.00, 0.00, 0.00
65, 171984.22, 170411.02, -187500.02, -187500.02, 187500.00, -187500.02, -187500.02, -187500.02, 0.00, 0.00, 0.00
66, 170265.72, 168690.28, -187500.02, -187500.02, 187500.00, -187500.02, -187500.02, -187500.02, 0.00, 0.00, 0.00
67, 170779.92, 169201.11, -187500.02, -187500.02, 187500.00, -187500.02, -187500.02, -187500.02, 0.00, 0.00, 0.00
68, 172475.95, 170895.47, -187500.02, -187500.02, 187500.00, -187500.02, -187500.02, -187500.02, 0.00, 0.00, 0.00
69, 172010.22, 170432.33, -187500.02, -187500.02, 187500.00, -187500.02, -187500.02, -187500.02, 0.00, 0.00, 0.00
70, 170157.20, 168579.47, -187500.02, -187500.02, 187500.00, -187500.02, -187500.02, -187500.02, 0.00, 0.00, 0.00
71, 170306.08, 168724.80, -187500.02, -187500.02, 187500.00, -187500.02, -187500.02, -187500.02, 0.00, 0.00, 0.00
72, 172166.34, 170585.48, -187500.02, -187500.02, 187500.00, -187500.02, -187500.02, -187500.02, 0.00, 0.00, 0.00
73, 172419.77, 170842.84, -187500.02, -187500.02, 187500.00, -187500.02, -187500.02, -187500.02, 0.00, 0.00, 0.00
74, 170674.73, 169098.05, -187500.02, -187500.02, 187500.00, -187500.02, -187500.02, -187500.02, 0.00, 0.00, 0.00
75, 170460.95, 168882.28, -187500.02, -187500.02, 187500.00, -187500.02, -187500.02, -187500.02, 0.00, 0.00, 0.00
76, 172406.23, 170826.17, -187500.02, -187500.02, 187500.00, -187500.02, -187500.02, -187500.02, 0.00, 0.00, 0.00
77, 173064.97, 171487.22, -187500.02, -187500.02, 187500.00, -187500.02, -187500.02, -187500.02, 0.00, 0.00, 0.00
78, 171204.70, 169628.34, -187500.02, -187500.02, 187500.00, -187500.02, -187500.02, -187500.02, 0.00, 0.00, 0.00
79, 170340.94, 168760.27, -187500.02, -187500.02, 187500.00, -187500.02, -187500.02, -187500.02, 0.00, 0.00, 0.00
80, 171698.16, 170115.45, -187500.02, -187500.02, 187500.00, -187500.02, -187500.02, -187500.02, 0.00, 0.00, 0.00
81, 172740.56, 171160.91, -187500.02, -187500.02, 187500.00, -187500.02, -187500.02, -187500.02, 0.00, 0.00, 0.00
82, 171206.25, 169629.89, -187500.02, -187500.02, 187500.00, -187500.02, -187500.02, -187500.02, 0.00, 0.00, 0.00
83, 169925.36, 168347.55, -187500.02, -187500.02, 187500.00, -187500.02, -187500.02, -187500.02, 0.00, 0.00, 0.00
84, 171089.05, 169507.80, -187500.02, -187500.02, 187500.00, -187500.02, -187500.02, -187500.02, 0.00, 0.00, 0.00
85, 172462.80, 170883.64, -187500.02, -187500.02, 187500.00, -187500.02, -187500.02, -187500.02, 0.00, 0.00, 0.00
86, 171124.81, 169553.69, -187500.02, -187500.02, 187500.00, -187500.02, -187500.02, -187500.02, 0.00, 0.00, 0.00
87, 169566.09, 167992.95, -187500.02, -187500.02, 187500.00, -187500.02, -187500.02, -187500.02, 0.00, 0.00, 0.00
88, 170460.81, 168887.11, -187500.02, -187500.02, 187500.00, -187500.02, -187500.02, -187500.02, 0.00, 0.00, 0.00
89, 172337.11, 170764.69, -187500.02, -187500.02, 187500.00, -187500.02, -187500.02, -187500.02, 0.00, 0.00, 0.00
90, 171732.41, 170162.66, -187500.02, -187500.02, 187500.00, -187500.02, -187500.02, -187500.02, 0.00, 0.00, 0.00
91, 170031.70, 168461.78, -187500.02, -187500.02, 187500.00, -187500.02, -187500.02, -187500.02, 0.00, 0.00, 0.00
92, 170558.89, 168984.22, -187500.02, -187500.02, 187500.00, -187500.02, -187500.02, -187500.02, 0.00, 0.00, 0.00
93, 172436.42, 170862.52, -187500.02, -187500.02, 187500.00, -187500.02, -187500.02, -187500.02, 0.00, 0.00, 0.00
94, 172167.80, 170596.95, -187500.02, -187500.02, 187500.00, -187500.02, -187500.02, -187500.02, 0.00, 0.00, 0.00
95, 170255.16, 168682.75, -187500.02, -187500.02, 187500.00, -187500.02, -187500.02, -187500.02, 0.00, 0.00, 0.00
96, 170166.94, 168590.13, -187500.02, -187500.02, 187500.00, -187500.02, -187500.02, -187500.02, 0.00, 0.00, 0.00
97, 171885.80, 170310.52, -187500.02, -187500.02, 187500.00, -187500.02, -187500.02, -187500.02, 0.00, 0.00, 0.00
98, 172157.20, 170583.41, -187500.02, -187500.02, 187500.00, -187500.02, -187500.02, -187500.02, 0.00, 0.00, 0.00
99, 170241.23, 168667.33, -187500.02, -187500.02, 187500.00, -187500.02, -187500.02, -187500.02, 0.00, 0.00, 0.00
100, 169755.66, 168179.30, -187500.02, -187500.02, 187500.00, -187500.02, -187500.02, -187500.02, 0.00, 0.00, 0.00
101, 171321.27, 169741.80, -187500.02, -187500.02, 187500.00, -187500.02, -187500.02, -187500.02, 0.00, 0.00, 0.00
102, 172030.13, 170450.95, -187500.02, -187500.02, 187500.00, -187500.02, -187500.02, -187500.02, 0.00, 0.00, 0.00
103, 170281.97, 168705.80, -187500.02, -187500.02, 187500.00, -187500.02, -187500.02, -187500.02, 0.00, 0.00, 0.00
104, 169295.48, 167721.30, -187500.02, -187500.02, 187500.00, -187500.02, -187500.02, -187500.02, 0.00, 0.00, 0.00
105, 170850.53, 169272.73, -187500.02, -187500.02, 187500.00, -187500.02, -187500.02, -187500.02, 0.00, 0.00, 0.00
106, 172156.48, 170578.09, -187500.02, -187500.02, 187500.00, -187500.02, -187500.02, -187500.02, 0.00, 0.00, 0.00
107, 170855.75, 169278.56, -187500.02, -187500.02, 187500.00, -187500.02, -187500.02, -187500.02, 0.00, 0.00, 0.00
108, 169578.80, 168001.16, -187500.02, -187500.02, 187500.00, -187500.02, -187500.02, -187500.02, 0.00, 0.00, 0.00
109, 170852.28, 169273.94, -187500.02, -187500.02, 187500.00, -187500.02, -187500.02, -187500.02, 0.00, 0.00, 0.00
110, 172503.16, 170927.92, -187500.02, -187500.02, 187500.00, -187500.02, -187500.02, -187500.02, 0.00, 0.00, 0.00
111, 171511.81, 169937.64, -187500.02, -187500.02, 187500.00, -187500.02, -187500.02, -187500.02, 0.00, 0.00, 0.00
112, 169892.91, 168319.20, -187500.02, -187500.02, 187500.00, -187500.02, -187500.02, -187500.02, 0.00, 0.00, 0.00
113, 170557.38, 168981.11, -187500.02, -187500.02, 187500.00, -187500.02, -187500.02, -187500.02, 0.00, 0.00, 0.00
114, 172221.66, 170647.92, -187500.02, -187500.02, 187500.00, -187500.02, -187500.02, -187500.02, 0.00, 0.00, 0.00
115, 171706.11, 170135.73, -187500.02, -187500.02, 187500.00, -187500.02, -187500.02, -187500.02, 0.00, 0.00, 0.00
116, 169818.73, 168248.14, -187500.02, -187500.02, 187500.00, -187500.02, -187500.02, -187500.02, 0.00, 0.00, 0.00
117, 170047.22, 168476.00, -187500.02, -187500.02, 187500.00, -187500.02, -187500.02, -187500.02, 0.00, 0.00, 0.00
118, 171838.48, 170264.94, -187500.02, -187500.02, 187500.00, -187500.02, -187500.02, -187500.02, 0.00, 0.00, 0.00
119, 171857.14, 170284.50, -187500.02, -187500.02, 187500.00, -187500.02, -187500.02, -187500.02, 0.00, 0.00, 0.00
120, 169918.33, 168347.23, -187500.02, -187500.02, 187500.00, -187500.02, -187500.02, -187500.02, 0.00, 0.00, 0.00
121, 169689.28, 168118.50, -187500.02, -187500.02, 187500.00, -187500.02, -187500.02, -187500.02, 0.00, 0.00, 0.00
122, 171564.25, 169991.06, -187500.02, -187500.02, 187500.00, -187500.02, -187500.02, -187500.02, 0.00, 0.00, 0.00
123, 172319.05, 170746.06, -187500.02, -187500.02, 187500.00, -187500.02, -187500.02, -187500.02, 0.00, 0.00, 0.00
124, 170676.13, 169102.98, -187500.02, -187500.02, 187500.00, -187500.02, -187500.02, -187500.02, 0.00, 0.00, 0.00
125, 170036.33, 168460.08, -187500.02, -187500.02, 187500.00, -187500.02, -187500.02, -187500.02, 0.00, 0.00, 0.00
126, 171828.11, 170248.84, -187500.02, -187500.02, 187500.00, -187500.02, -187500.02, -187500.02, 0.00, 0.00, 0.00
127, 172967.89, 171391.94, -187500.02, -187500.02, 187500.00, -187500.02, -187500.02, -187500.02, 0.00, 0.00, 0.00
128, 171359.20, 169785.80, -187500.02, -187500.02, 187500.00, -187500.02, -187500.02, -187500.02, 0.00, 0.00, 0.00
129, 170236.72, 168659.58, -187500.02, -187500.02, 187500.00, -187500.02, -187500.02, -187500.02, 0.00, 0.00, 0.00
130, 171557.17, 169976.50, -187500.02, -187500.02, 187500.00, -187500.02, -187500.02, -187500.02, 0.00, 0.00, 0.00
131, 172923.06, 171345.77, -187500.02, -187500.02, 187500.00, -187500.02, -187500.02, -187500.02, 0.00, 0.00, 0.00
132, 171532.48, 169959.59, -187500.02, -187500.02, 187500.00, -187500.02, -187500.02, -187500.02, 0.00, 0.00, 0.00
133, 170039.61, 168466.17, -187500.02, -187500.02, 187500.00, -187500.02, -187500.02, -187500.02, 0.00, 0.00, 0.00
134, 170882.97, 169308.36, -187500.02, -187500.02, 187500.00, -187500.02, -187500.02, -187500.02, 0.00, 0.00, 0.00
135, 172444.00, 170869.27, -187500.02, -187500.02, 187500.00, -187500.02, -187500.02, -187500.02, 0.00, 0.00, 0.00
136, 171601.52, 170030.41, -187500.02, -187500.02, 187500.00, -187500.02, -187500.02, -187500.02, 0.00, 0.00, 0.00
137, 169824.81, 168253.06, -187500.02, -187500.02, 187500.00, -187500.02, -187500.02, -187500.02, 0.00, 0.00, 0.00
138, 170438.28, 168862.02, -187500.02, -187500.02, 187500.00, -187500.02, -187500.02, -187500.02, 0.00, 0.00, 0.00
139, 172419.27, 170842.11, -187500.02, -187500.02, 187500.00, -187500.02, -187500.02, -187500.02, 0.00, 0.00, 0.00
140, 172195.44, 170622.55, -187500.02, -187500.02, 187500.00, -187500.02, -187500.02, -187500.02, 0.00, 0.00, 0.00
141, 170405.36, 168830.67, -187500.02, -187500.02, 187500.00, -187500.02, -187500.02, -187500.02, 0.00, 0.00, 0.00
142, 170563.30, 168985.17, -187500.02, -187500.02, 187500.00, -187500.02, -187500.02, -187500.02, 0.00, 0.00, 0.00
143, 172472.25, 170896.42, -187500.02, -187500.02, 187500.00, -187500.02, -187500.02, -187500.02, 0.00, 0.00, 0.00
144, 172761.88, 171189.53, -187500.02, -187500.02, 187500.00, -187500.02, -187500.02, -187500.02, 0.00, 0.00, 0.00
145, 170838.44, 169264.75, -187500.02, -187500.02, 187500.00, -187500.02, -187500.02, -187500.02, 0.00, 0.00, 0.00
146, 170408.91, 168831.17, -187500.02, -187500.02, 187500.00, -187500.02, -187500.02, -187500.02, 0.00, 0.00, 0.00
147, 172035.88, 170457.50, -187500.02, -187500.02, 187500.00, -187500.02, -187500.02, -187500.02, 0.00, 0.00, 0.00
148, 172701.84, 171124.86, -187500.02, -187500.02, 187500.00, -187500.02, -187500.02, -187500.02, 0.00, 0.00, 0.00
149, 170912.11, 169337.77, -187500.02, -187500.02, 187500.00, -187500.02, -187500.02, -187500.02, 0.00, 0.00, 0.00
150, 170032.58, 168456.11, -187500.02, -187500.02, 187500.00, -187500.02, -187500.02, -187500.02, 0.00, 0.00, 0.00
151, 171480.98, 169902.73, -187500.02, -187500.02, 187500.00, -187500.02, -187500.02, -187500.02, 0.00, 0.00, 0.00
152, 172506.09, 170928.61, -187500.02, -187500.02, 187500.00, -187500.02, -187500.02, -187500.02, 0.00, 0.00, 0.00
153, 171046.45, 169469.06, -187500.02, -187500.02, 187500.00, -187500.02, -187500.02, -187500.02, 0.00, 0.00, 0.00
154, 169797.22, 168217.70, -187500.02, -187500.02, 187500.00, -187500.02, -187500.02, -187500.02, 0.00, 0.00, 0.00
155, 171038.34, 169458.38, -187500.02, -187500.02, 187500.00, -187500.02, -187500.02, -187500.02, 0.00, 0.00, 0.00
156, 172721.02, 171141.53, -187500.02, -187500.02, 187500.00, -187500.02, -187500.02, -187500.02, 0.00, 0.00, 0.00
157, 171707.19, 170128.59, -187500.02, -187500.02, 187500.00, -187500.02, -187500.02, -187500.02, 0.00, 0.00, 0.00
158, 170197.27, 168617.13, -187500.02, -187500.02, 187500.00, -187500.02, -187500.02, -187500.02, 0.00, 0.00, 0.00
159, 171174.55, 169591.27, -187500.02, -187500.02, 187500.00, -187500.02, -187500.02, -187500.02, 0.00, 0.00, 0.00
160, 173031.69, 171448.58, -187500.02, -187500.02, 187500.00, -187500.02, -187500.02, -187500.02, 0.00, 0.00, 0.00
161, 172383.78, 170803.86, -187500.02, -187500.02, 187500.00, -187500.02, -187500.02, -187500.02, 0.00, 0.00, 0.00
162, 170601.19, 169020.94, -187500.02, -187500.02, 187500.00, -187500.02, -187500.02, -187500.02, 0.00, 0.00, 0.00
163, 170929.47, 169345.48, -187500.02, -187500.02, 187500.00, -187500.02, -187500.02, -187500.02, 0.00, 0.00, 0.00
164, 172721.67, 171137.78, -187500.02, -187500.02, 187500.00, -187500.02, -187500.02, -187500.02, 0.00, 0.00, 0.00
165, 172566.17, 170987.02, -187500.02, -187500.02, 187500.00, -187500.02, -187500.02, -187500.02, 0.00, 0.00, 0.00
166, 170612.45, 169033.81, -187500.02, -187500.02, 187500.00, -187500.02, -187500.02, -187500.02, 0.00, 0.00, 0.00
167, 170479.97, 168897.22, -187500.02, -187500.02, 187500.00, -187500.02, -187500.02, -187500.02, 0.00, 0.00, 0.00
168, 172216.83, 170632.81, -187500.02, -187500.02, 187500.00, -187500.02, -187500.02, -187500.02, 0.00, 0.00, 0.00
169, 172628.94, 171049.02, -187500.02, -187500.02, 187500.00, -187500.02, -187500.02, -187500.02, 0.00, 0.00, 0.00
170, 170767.45, 169190.83, -187500.02, -187500.02, 187500.00, -187500.02, -187500.02, -187500.02, 0.00, 0.00, 0.00
171, 170141.98, 168560.48, -187500.02, -187500.02, 187500.00, -187500.02, -187500.02, -187500.02, 0.00, 0.00, 0.00
172, 171604.38, 170022.77, -187500.02, -187500.02, 187500.00, -187500.02, -187500.02, -187500.02, 0.00, 0.00, 0.00
173, 172384.69, 170807.36, -187500.02, -187500.02, 187500.00, -187500.02, -187500.02, -187500.02, 0.00, 0.00, 0.00
174, 170661.70, 169085.78, -187500.02, -187500.02, 187500.00, -187500.02, -187500.02, -187500.02, 0.00, 0.00, 0.00
175, 169750.83, 168171.86, -187500.02, -187500.02, 187500.00, -187500.02, -187500.02, -187500.02, 0.00, 0.00, 0.00
176, 171275.94, 169694.34, -187500.02, -187500.02, 187500.00, -187500.02, -187500.02, -187500.02, 0.00, 0.00, 0.00
177, 172698.44, 171118.80, -187500.02, -187500.02, 187500.00, -187500.02, -187500.02, -187500.02, 0.00, 0.00, 0.00
178, 171479.52, 169902.56, -187500.02, -187500.02, 187500.00, -187500.02, -187500.02, -187500.02, 0.00, 0.00, 0.00
179, 170208.27, 168630.45, -187500.02, -187500.02, 187500.00, -187500.02, -187500.02, -187500.02, 0.00, 0.00, 0.00
180, 171463.52, 169883.95, -187500.02, -187500.02, 187500.00, -187500.02, -187500.02, -187500.02, 0.00, 0.00, 0.00
181, 173267.77, 171687.86, -187500.02, -187500.02, 187500.00, -187500.02, -187500.02, -187500.02, 0.00, 0.00, 0.00
182, 172334.16, 170757.17, -187500.02, -187500.02, 187500.00, -187500.02, -187500.02, -187500.02, 0.00, 0.00, 0.00
183, 170593.38, 169017.19, -187500.02, -187500.02, 187500.00, -187500.02, -187500.02, -187500.02, 0.00, 0.00, 0.00
184, 171074.17, 169495.86, -187500.02, -187500.02, 187500.00, -187500.02, -187500.02, -187500.02, 0.00, 0.00, 0.00
185, 172869.59, 171290.67, -187500.02, -187500.02, 187500.00, -187500.02, -187500.02, -187500.02, 0.00, 0.00, 0.00
186, 172405.25, 170831.34, -187500.02, -187500.02, 187500.00, -187500.02, -187500.02, -187500.02, 0.00, 0.00, 0.00
187, 170497.77, 168923.64, -187500.02, -187500.02, 187500.00, -187500.02, -187500.02, -187500.02, 0.00, 0.00, 0.00
188, 170566.14, 168986.53, -187500.02, -187500.02, 187500.00, -187500.02, -187500.02, -187500.02, 0.00, 0.00, 0.00
189, 172306.11, 170723.98, -187500.02, -187500.02, 187500.00, -187500.02, -187500.02, -187500.02, 0.00, 0.00, 0.00
190, 172327.97, 170750.05, -187500.02, -187500.02, 187500.00, -187500.02, -187500.02, -187500.02, 0.00, 0.00, 0.00
191, 170478.33, 168901.80, -187500.02, -187500.02, 187500.00, -187500.02, -187500.02, -187500.02, 0.00, 0.00, 0.00
192, 170203.83, 168623.92, -187500.02, -187500.02, 187500.00, -187500.02, -187500.02, -187500.02, 0.00, 0.00, 0.00
193, 171868.03, 170289.06, -187500.02, -187500.02, 187500.00, -187500.02, -187500.02, -187500.02, 0.00, 0.00, 0.00
194, 172301.17, 170723.89, -187500.02, -187500.02, 187500.00, -187500.02, -187500.02, -187500.02, 0.00, 0.00, 0.00
195, 170504.67, 168928.64, -187500.02, -187500.02, 187500.00, -187500.02, -187500.02, -187500.02, 0.00, 0.00, 0.00
196, 169840.75, 168262.16, -187500.02, -187500.02, 187500.00, -187500.02, -187500.02, -187500.02, 0.00, 0.00, 0.00
197, 171484.02, 169905.55, -187500.02, -187500.02, 187500.00, -187500.02, -187500.02, -187500.02, 0.00, 0.00, 0.00
198, 172649.16, 171072.61, -187500.02, -187500.02, 187500.00, -187500.02, -187500.02, -187500.02, 0.00, 0.00, 0.00
199, 171263.03, 169689.39, -187500.02, -187500.02, 187500.00, -187500.02, -187500.02, -187500.02, 0.00, 0.00, 0.00
200, 170266.69, 168689.34, -187500.02, -187500.02, 187500.00, -187500.02, -187500.02, -187500.02, 0.00, 0.00, 0.00
201, 171647.53, 170067.58, -187500.02, -187500.02, 187500.00, -187500.02, -187500.02, -187500.02, 0.00, 0.00, 0.00
202, 173252.92, 171674.00, -187500.02, -187500.02, 187500.00, -187500.02, -187500.02, -187500.02, 0.00, 0.00, 0.00
203, 172071.48, 170494.55, -187500.02, -187500.02, 187500.00, -187500.02, -187500.02, -187500.02, 0.00, 0.00, 0.00
204, 170522.86, 168942.66, -187500.02, -187500.02, 187500.00, -187500.02, -187500.02, -187500.02, 0.00, 0.00, 0.00
205, 171358.48, 169775.95, -187500.02, -187500.02, 187500.00, -187500.02, -187500.02, -187500.02, 0.00, 0.00, 0.00
206, 173106.28, 171524.38, -187500.02, -187500.02, 187500.00, -187500.02, -187500.02, -187500.02, 0.00, 0.00, 0.00
207, 172478.59, 170900.72, -187500.02, -187500.02, 187500.00, -187500.02, -187500.02, -187500.02, 0.00, 0.00, 0.00
208, 170692.83, 169112.33, -187500.02, -187500.02, 187500.00, -187500.02, -187500.02, -187500.02, 0.00, 0.00, 0.00
209, 171051.80, 169466.52, -187500.02, -187500.02, 187500.00, -187500.02, -187500.02, -187500.02, 0.00, 0.00, 0.00
210, 172787.38, 171199.56, -187500.02, -187500.02, 187500.00, -187500.02, -187500.02, -187500.02, 0.00, 0.00, 0.00
211, 172451.19, 170868.53, -187500.02, -187500.02, 187500.00, -187500.02, -187500.02, -187500.02, 0.00, 0.00, 0.00
212, 170502.78, 168925.19, -187500.02, -187500.02, 187500.00, -187500.02, -187500.02, -187500.02, 0.00, 0.00, 0.00
213, 170478.97, 168900.55, -187500.02, -187500.02, 187500.00, -187500.02, -187500.02, -187500.02, 0.00, 0.00, 0.00
214, 172206.63, 170625.55, -187500.02, -187500.02, 187500.00, -187500.02, -187500.02, -187500.02, 0.00, 0.00, 0.00
215, 172419.72, 170843.05, -187500.02, -187500.02, 187500.00, -187500.02, -187500.02, -187500.02, 0.00, 0.00, 0.00
216, 170553.89, 168979.70, -187500.02, -187500.02, 187500.00, -187500.02, -187500.02, -187500.02, 0.00, 0.00, 0.00
217, 170091.00, 168514.33, -187500.02, -187500.02, 187500.00, -187500.02, -187500.02, -187500.02, 0.00, 0.00, 0.00
218, 171924.72, 170347.02, -187500.02, -187500.02, 187500.00, -187500.02, -187500.02, -187500.02, 0.00, 0.00, 0.00
219, 172857.83, 171279.02, -187500.02, -187500.02, 187500.00, -187500.02, -187500.02, -187500.02, 0.00, 0.00, 0.00
220, 171170.55, 169592.84, -187500.02, -187500.02, 187500.00, -187500.02, -187500.02, -187500.02, 0.00, 0.00, 0.00
221, 170475.88, 168895.05, -187500.02, -187500.02, 187500.00, -187500.02, -187500.02, -187500.02, 0.00, 0.00, 0.00
222, 172108.45, 170525.52, -187500.02, -187500.02, 187500.00, -187500.02, -187500.02, -187500.02, 0.00, 0.00, 0.00
223, 173408.66, 171827.08, -187500.02, -187500.02, 187500.00, -187500.02, -187500.02, -187500.02, 0.00, 0.00, 0.00
224, 171871.86, 170294.78, -187500.02, -187500.02, 187500.00, -187500.02, -187500.02, -187500.02, 0.00, 0.00, 0.00
225, 170604.48, 169025.66, -187500.02, -187500.02, 187500.00, -187500.02, -187500.02, -187500.02, 0.00, 0.00, 0.00
226, 171719.13, 170139.30, -187500.02, -187500.02, 187500.00, -187500.02, -187500.02, -187500.02, 0.00, 0.00, 0.00
227, 173201.72, 171621.25, -187500.02, -187500.02, 187500.00, -187500.02, -187500.02, -187500.02, 0.00, 0.00, 0.00
228, 172104.81, 170524.45, -187500.02, -187500.02, 187500.00, -187500.02, -187500.02, -187500.02, 0.00, 0.00, 0.00
229, 170454.86, 168875.66, -187500.02, -187500.02, 187500.00, -187500.02, -187500.02, -187500.02, 0.00, 0.00, 0.00
230, 171225.23, 169646.34, -187500.02, -187500.02, 187500.00, -187500.02, -187500.02, -187500.02, 0.00, 0.00, 0.00
231, 172875.05, 171295.36, -187500.02, -187500.02, 187500.00, -187500.02, -187500.02, -187500.02, 0.00, 0.00, 0.00
232, 172186.91, 170609.45, -187500.02, -187500.02, 187500.00, -187500.02, -187500.02, -187500.02, 0.00, 0.00, 0.00
233, 170401.95, 168821.69, -187500.02, -187500.02, 187500.00, -187500.02, -187500.02, -187500.02, 0.00, 0.00, 0.00
234, 170621.30, 169038.03, -187500.02, -187500.02, 187500.00, -187500.02, -187500.02, -187500.02, 0.00, 0.00, 0.00
235, 172349.25, 170764.55, -187500.02, -187500.02, 187500.00, -187500.02, -187500.02, -187500.02, 0.00, 0.00, 0.00
236, 172361.30, 170781.81, -187500.02, -187500.02, 187500.00, -187500.02, -187500.02, -187500.02, 0.00, 0.00, 0.00
237, 170449.97, 168871.63, -187500.02, -187500.02, 187500.00, -187500.02, -187500.02, -187500.02, 0.00, 0.00, 0.00
238, 170302.98, 168722.16, -187500.02, -187500.02, 187500.00, -187500.02, -187500.02, -187500.02, 0.00, 0.00, 0.00
239, 172213.45, 170631.27, -187500.02, -187500.02, 187500.00, -187500.02, -187500.02, -187500.02, 0.00, 0.00, 0.00
240, 172841.88, 171263.06, -187500.02, -187500.02, 187500.00, -187500.02, -187500.02, -187500.02, 0.00, 0.00, 0.00
241, 171101.17, 169522.94, -187500.02, -187500.02, 187500.00, -187500.02, -187500.02, -187500.02, 0.00, 0.00, 0.00
242, 170570.27, 168990.38, -187500.02, -187500.02, 187500.00, -187500.02, -187500.02, -187500.02, 0.00, 0.00, 0.00
243, 172252.45, 170672.53, -187500.02, -187500.02, 187500.00, -187500.02, -187500.02, -187500.02, 0.00, 0.00, 0.00
244, 173415.41, 171838.97, -187500.02, -187500.02, 187500.00, -187500.02, -187500.02, -187500.02, 0.00, 0.00, 0.00
245, 171705.06, 170132.27, -187500.02, -187500.02, 187500.00, -187500.02, -187500.02, -187500.02, 0.00, 0.00, 0.00
246, 170591.77, 169014.97, -187500.02, -187500.02, 187500.00, -187500.02, -187500.02, -187500.02, 0.00, 0.00, 0.00
247, 171903.66, 170325.83, -187500.02, -187500.02, 187500.00, -187500.02, -187500.02, -187500.02, 0.00, 0.00, 0.00
248, 173311.70, 171736.78, -187500.02, -187500.02, 187500.00, -187500.02, -187500.02, -187500.02, 0.00, 0.00, 0.00
249, 171837.56, 170262.23, -187500.02, -187500.02, 187500.00, -187500.02, -187500.02, -187500.02, 0.00, 0.00, 0.00
250, 170313.72, 168736.02, -187500.02, -187500.02, 187500.00, -187500.02, -187500.02, -187500.02, 0.00, 0.00, 0.00
251, 171296.00, 169714.53, -187500.02, -187500.02, 187500.00, -187500.02, -187500.02, -187500.02, 0.00, 0.00, 0.00
252, 172896.23, 171312.56, -187500.02, -187500.02, 187500.00, -187500.02, -187500.02, -187500.02, 0.00, 0.00, 0.00
253, 171977.59, 170397.75, -187500.02, -187500.02, 187500.00, -187500.02, -187500.02, -187500.02, 0.00, 0.00, 0.00
254, 170209.17, 168626.45, -187500.02, -187500.02, 187500.00, -187500.02, -187500.02, -187500.02, 0.00, 0.00, 0.00
255, 170689.56, 169102.92, -187500.02, -187500.02, 187500.00, -187500.02, -187500.02, -187500.02, 0.00, 0.00, 0.00
0, 172417.47, 170832.77, -187500.02, -187500.02, 187500.00, -187500.02, -187500.02, -187500.02, 0.00, 0.00, 0.00
1, 172038.53, 170458.38, -187500.02, -187500.02, 187500.00, -187500.02, -187500.02, -187500.02, 0.00, 0.00, 0.00
2, 170117.41, 168535.91, -187500.02, -187500.02, 187500.00, -187500.02, -187500.02, -187500.02, 0.00, 0.00, 0.00
3, 170212.63, 168628.78, -187500.02, -187500.02, 187500.00, -187500.02, -187500.02, -187500.02, 0.00, 0.00, 0.00
4, 172193.00, 170609.88, -187500.02, -187500.02, 187500.00, -187500.02, -187500.02, -187500.02, 0.00, 0.00, 0.00
5, 172530.97, 170947.98, -187500.02, -187500.02, 187500.00, -187500.02, -187500.02, -187500.02, 0.00, 0.00, 0.00
6, 170908.09, 169324.61, -187500.02, -187500.02, 187500.00, -187500.02, -187500.02, -187500.02, 0.00, 0.00, 0.00
7, 170760.73, 169175.61, -187500.02, -187500.02, 187500.00, -187500.02, -187500.02, -187500.02, 0.00, 0.00, 0.00
8, 172684.94, 171100.86, -187500.02, -187500.02, 187500.00, -187500.02, -187500.02, -187500.02, 0.00, 0.00, 0.00
9, 173448.03, 171865.70, -187500.02, -187500.02, 187500.00, -187500.02, -187500.02, -187500.02, 0.00, 0.00, 0.00
10, 171587.31, 170005.16, -187500.02, -187500.02, 187500.00, -187500.02, -187500.02, -187500.02, 0.00, 0.00, 0.00
11, 170746.00, 169163.20, -187500.02, -187500.02, 187500.00, -187500.02, -187500.02, -187500.02, 0.00, 0.00, 0.00
12, 172275.48, 170690.75, -187500.02, -187500.02, 187500.00, -187500.02, -187500.02, -187500.02, 0.00, 0.00, 0.00
13, 173285.05, 171701.83, -187500.02, -187500.02, 187500.00, -187500.02, -187500.02, -187500.02, 0.00, 0.00, 0.00
14, 171712.20, 170133.19, -187500.02, -187500.02, 187500.00, -187500.02, -187500.02, -187500.02, 0.00, 0.00, 0.00
15, 170498.03, 168915.14, -187500.02, -187500.02, 187500.00, -187500.02, -187500.02, -187500.02, 0.00, 0.00, 0.00
16, 171690.30, 170107.05, -187500.02, -187500.02, 187500.00, -187500.02, -187500.02, -187500.02, 0.00, 0.00, 0.00
17, 173137.36, 171555.91, -187500.02, -187500.02, 187500.00, -187500.02, -187500.02, -187500.02, 0.00, 0.00, 0.00
18, 171875.83, 170298.58, -187500.02, -187500.02, 187500.00, -187500.02, -187500.02, -187500.02, 0.00, 0.00, 0.00
19, 170211.03, 168630.34, -187500.02, -187500.02, 187500.00, -187500.02, -187500.02, -187500.02, 0.00, 0.00, 0.00
20, 171039.20, 169456.95, -187500.02, -187500.02, 187500.00, -187500.02, -187500.02, -187500.02, 0.00, 0.00, 0.00
21, 172730.03, 171149.61, -187500.02, -187500.02, 187500.00, -187500.02, -187500.02, -187500.02, 0.00, 0.00, 0.00
22, 171993.63, 170414.34, -187500.02, -187500.02, 187500.00, -187500.02, -187500.02, -187500.02, 0.00, 0.00, 0.00
23, 170242.64, 168662.28, -187500.02, -187500.02, 187500.00, -187500.02, -187500.02, -187500.02, 0.00, 0.00, 0.00
24, 170686.00, 169104.28, -187500.02, -187500.02, 187500.00, -187500.02, -187500.02, -187500.02, 0.00, 0.00, 0.00
25, 172582.08, 170997.83, -187500.02, -187500.02, 187500.00, -187500.02, -187500.02, -187500.02, 0.00, 0.00, 0.00
26, 172510.33, 170927.63, -187500.02, -187500.02, 187500.00, -187500.02, -187500.02, -187500.02, 0.00, 0.00, 0.00
27, 170827.66, 169244.41, -187500.02, -187500.02, 187500.00, -187500.02, -187500.02, -187500.02, 0.00, 0.00, 0.00
28, 170853.78, 169266.73, -187500.02, -187500.02, 187500.00, -187500.02, -187500.02, -187500.02, 0.00, 0.00, 0.00
29, 172923.69, 171337.22, -187500.02, -187500.02, 187500.00, -187500.02, -187500.02, -187500.02, 0.00, 0.00, 0.00
30, 173370.52, 171786.31, -187500.02, -187500.02, 187500.00, -187500.02, -187500.02, -187500.02, 0.00, 0.00, 0.00
31, 171409.27, 169825.53, -187500.02, -187500.02, 187500.00, -187500.02, -187500.02, -187500.02, 0.00, 0.00, 0.00
32, 170901.05, 169314.25, -187500.02, -187500.02, 187500.00, -187500.02, -187500.02, -187500.02, 0.00, 0.00, 0.00
33, 172595.67, 171007.06, -187500.02, -187500.02, 187500.00, -187500.02, -187500.02, -187500.02, 0.00, 0.00, 0.00
34, 173400.67, 171816.63, -187500.02, -187500.02, 187500.00, -187500.02, -187500.02, -187500.02, 0.00, 0.00, 0.00
35, 171559.31, 169978.48, -187500.02, -187500.02, 187500.00, -187500.02, -187500.02, -187500.02, 0.00, 0.00, 0.00
36, 170582.78, 168996.92, -187500.02, -187500.02, 187500.00, -187500.02, -187500.02, -187500.02, 0.00, 0.00, 0.00
37, 171926.34, 170340.27, -187500.02, -187500.02, 187500.00, -187500.02, -187500.02, -187500.02, 0.00, 0.00, 0.00
38, 173203.61, 171621.56, -187500.02, -187500.02, 187500.00, -187500.02, -187500.02, -187500.02, 0.00, 0.00, 0.00
39, 171660.81, 170081.55, -187500.02, -187500.02, 187500.00, -187500.02, -187500.02, -187500.02, 0.00, 0.00, 0.00
40, 170202.11, 168619.28, -187500.02, -187500.02, 187500.00, -187500.02, -187500.02, -187500.02, 0.00, 0.00, 0.00
41, 171342.16, 169757.67, -187500.02, -187500.02, 187500.00, -187500.02, -187500.02, -187500.02, 0.00, 0.00, 0.00
42, 172927.58, 171344.33, -187500.02, -187500.02, 187500.00, -187500.02, -187500.02, -187500.02, 0.00, 0.00, 0.00
43, 171782.78, 170200.73, -187500.02, -187500.02, 187500.00, -187500.02, -187500.02, -187500.02, 0.00, 0.00, 0.00
44, 170118.14, 168534.27, -187500.02, -187500.02, 187500.00, -187500.02, -187500.02, -187500.02, 0.00, 0.00, 0.00
45, 170819.45, 169236.86, -187500.02, -187500.02, 187500.00, -187500.02, -187500.02, -187500.02, 0.00, 0.00, 0.00
46, 172657.42, 171073.27, -187500.02, -187500.02, 187500.00, -187500.02, -187500.02, -187500.02, 0.00, 0.00, 0.00
47, 172333.91, 170750.36, -187500.02, -187500.02, 187500.00, -187500.02, -187500.02, -187500.02, 0.00, 0.00, 0.00
48, 170663.00, 169081.20, -187500.02, -187500.02, 187500.00, -187500.02, -187500.02, -187500.02, 0.00, 0.00, 0.00
49, 170968.05, 169384.08, -187500.02, -187500.02, 187500.00, -187500.02, -187500.02, -187500.02, 0.00, 0.00, 0.00
50, 173006.00, 171418.47, -187500.02, -187500.02, 187500.00, -187500.02, -187500.02, -187500.02, 0.00, 0.00, 0.00
51, 173128.81, 171544.72, -187500.02, -187500.02, 187500.00, -187500.02, -187500.02, -187500.02, 0.00, 0.00, 0.00
52, 171132.91, 169550.05, -187500.02, -187500.02, 187500.00, -187500.02, -187500.02, -187500.02, 0.00, 0.00, 0.00
53, 170847.25, 169260.33, -187500.02, -187500.02, 187500.00, -187500.02, -187500.02, -187500.02, 0.00, 0.00, 0.00
54, 172668.31, 171077.63, -187500.02, -187500.02, 187500.00, -187500.02, -187500.02, -187500.02, 0.00, 0.00, 0.00
55, 173202.16, 171618.50, -187500.02, -187500.02, 187500.00, -187500.02, -187500.02, -187500.02, 0.00, 0.00, 0.00
56, 171238.41, 169663.25, -187500.02, -187500.02, 187500.00, -187500.02, -187500.02, -187500.02, 0.00, 0.00, 0.00
57, 170537.17, 168952.89, -187500.02, -187500.02, 187500.00, -187500.02, -187500.02, -187500.02, 0.00, 0.00, 0.00
58, 172085.03, 170498.28, -187500.02, -187500.02, 187500.00, -187500.02, -187500.02, -187500.02, 0.00, 0.00, 0.00
59, 173044.23, 171460.09, -187500.02, -187500.02, 187500.00, -187500.02, -187500.02, -187500.02, 0.00, 0.00, 0.00
60, 171394.98, 169811.77, -187500.02, -187500.02, 187500.00, -187500.02, -187500.02, -187500.02, 0.00, 0.00, 0.00
61, 170245.14, 168663.53, -187500.02, -187500.02, 187500.00, -187500.02, -187500.02, -187500.02, 0.00, 0.00, 0.00
62, 171468.25, 169884.86, -187500.02, -187500.02, 187500.00, -187500.02, -187500.02, -187500.02, 0.00, 0.00, 0.00
63, 172818.47, 171234.56, -187500.02, -187500.02, 187500.00, -187500.02, -187500.02, -187500.02, 0.00, 0.00, 0.00
64, 171531.22, 169946.63, -187500.02, -187500.02, 187500.00, -187500.02, -187500.02, -187500.02, 0.00, 0.00, 0.00
65, 169986.83, 168399.52, -187500.02, -187500.02, 187500.00, -187500.02, -187500.02, -187500.02, 0.00, 0.00, 0.00
66, 170973.03, 169384.64, -187500.02, -187500.02, 187500.00, -187500.02, -187500.02, -187500.02, 0.00, 0.00, 0.00
67, 172749.78, 171159.84, -187500.02, -187500.02, 187500.00, -187500.02, -187500.02, -187500.02, 0.00, 0.00, 0.00
68, 172117.77, 170532.88, -187500.02, -187500.02, 187500.00, -187500.02, -187500.02, -187500.02, 0.00, 0.00, 0.00
69, 170578.34, 168993.80, -187500.02, -187500.02, 187500.00, -187500.02, -187500.02, -187500.02, 0.00, 0.00, 0.00
70, 171187.52, 169596.50, -187500.02, -187500.02, 187500.00, -187500.02, -187500.02, -187500.02, 0.00, 0.00, 0.00
71, 173214.23, 171621.58, -187500.02, -187500.02, 187500.00, -187500.02, -187500.02, -187500.02, 0.00, 0.00, 0.00
72, 172918.31, 171328.59, -187500.02, -187500.02, 187500.00, -187500.02, -187500.02, -187500.02, 0.00, 0.00, 0.00
73, 171004.34, 169413.09, -187500.02, -187500.02, 187500.00, -187500.02, -187500.02, -187500.02, 0.00, 0.00, 0.00
74, 171018.80, 169425.38, -187500.02, -187500.02, 187500.00, -187500.02, -187500.02, -187500.02, 0.00, 0.00, 0.00
75, 172869.08, 171276.86, -187500.02, -187500.02, 187500.00, -187500.02, -187500.02, -187500.02, 0.00, 0.00, 0.00
76, 173050.47, 171464.58, -187500.02, -187500.02, 187500.00, -187500.02, -187500.02, -187500.02, 0.00, 0.00, 0.00
77, 171009.56, 169423.61, -187500.02, -187500.02, 187500.00, -187500.02, -187500.02, -187500.02, 0.00, 0.00, 0.00
78, 170569.70, 168979.63, -187500.02, -187500.02, 187500.00, -187500.02, -187500.02, -187500.02, 0.00, 0.00, 0.00
79, 172220.08, 170629.92, -187500.02, -187500.02, 187500.00, -187500.02, -187500.02, -187500.02, 0.00, 0.00, 0.00
80, 172908.19, 171320.19, -187500.02, -187500.02, 187500.00, -187500.02, -187500.02, -187500.02, 0.00, 0.00, 0.00
81, 171119.66, 169529.58, -187500.02, -187500.02, 187500.00, -187500.02, -187500.02, -187500.02, 0.00, 0.00, 0.00
82, 170196.30, 168604.86, -187500.02, -187500.02, 187500.00, -187500.02, -187500.02, -187500.02, 0.00, 0.00, 0.00
83, 171579.66, 169990.64, -187500.02, -187500.02, 187500.00, -187500.02, -187500.02, -187500.02, 0.00, 0.00, 0.00
84, 172700.03, 171113.73, -187500.02, -187500.02, 187500.00, -187500.02, -187500.02, -187500.02, 0.00, 0.00, 0.00
85, 171236.94, 169649.72, -187500.02, -187500.02, 187500.00, -187500.02, -187500.02, -187500.02, 0.00, 0.00, 0.00
86, 169908.50, 168319.34, -187500.02, -187500.02, 187500.00, -187500.02, -187500.02, -187500.02, 0.00, 0.00, 0.00
87, 171248.38, 169657.22, -187500.02, -187500.02, 187500.00, -187500.02, -187500.02, -187500.02, 0.00, 0.00, 0.00
88, 172833.16, 171243.17, -187500.02, -187500.02, 187500.00, -187500.02, -187500.02, -187500.02, 0.00, 0.00, 0.00
89, 171823.42, 170235.66, -187500.02, -187500.02, 187500.00, -187500.02, -187500.02, -187500.02, 0.00, 0.00, 0.00
90, 170372.17, 168782.52, -187500.02, -187500.02, 187500.00, -187500.02, -187500.02, -187500.02, 0.00, 0.00, 0.00
91, 171337.98, 169746.58, -187500.02, -187500.02, 187500.00, -187500.02, -187500.02, -187500.02, 0.00, 0.00, 0.00
92, 173307.06, 171716.13, -187500.02, -187500.02, 187500.00, -187500.02, -187500.02, -187500.02, 0.00, 0.00, 0.00
93, 172659.48, 171073.73, -187500.02, -187500.02, 187500.00, -187500.02, -187500.02, -187500.02, 0.00, 0.00, 0.00
94, 170802.44, 169215.91, -187500.02, -187500.02, 187500.00, -187500.02, -187500.02, -187500.02, 0.00, 0.00, 0.00
95, 171090.53, 169501.23, -187500.02, -187500.02, 187500.00, -187500.02, -187500.02, -187500.02, 0.00, 0.00, 0.00
96, 172909.11, 171320.75, -187500.02, -187500.02, 187500.00, -187500.02, -187500.02, -187500.02, 0.00, 0.00, 0.00
97, 172692.66, 171108.77, -187500.02, -187500.02, 187500.00, -187500.02, -187500.02, -187500.02, 0.00, 0.00, 0.00
98, 170797.52, 169212.27, -187500.02, -187500.02, 187500.00, -187500.02, -187500.02, -187500.02, 0.00, 0.00, 0.00
99, 170687.59, 169096.31, -187500.02, -187500.02, 187500.00, -187500.02, -187500.02, -187500.02, 0.00, 0.00, 0.00
100, 172428.92, 170835.56, -187500.02, -187500.02, 187500.00, -187500.02, -187500.02, -187500.02, 0.00, 0.00, 0.00
101, 172661.94, 171073.08, -187500.02, -187500.02, 187500.00, -187500.02, -187500.02, -187500.02, 0.00, 0.00, 0.00
102, 170819.73, 169232.34, -187500.02, -187500.02, 187500.00, -187500.02, -187500.02, -187500.02, 0.00, 0.00, 0.00
103, 170144.63, 168552.88, -187500.02, -187500.02, 187500.00, -187500.02, -187500.02, -187500.02, 0.00, 0.00, 0.00
104, 171721.92, 170131.14, -187500.02, -187500.02, 187500.00, -187500.02, -187500.02, -187500.02, 0.00, 0.00, 0.00
105, 172568.38, 170981.81, -187500.02, -187500.02, 187500.00, -187500.02, -187500.02, -187500.02, 0.00, 0.00, 0.00
106, 170870.47, 169283.28, -187500.02, -187500.02, 187500.00, -187500.02, -187500.02, -187500.02, 0.00, 0.00, 0.00
107, 169746.67, 168156.22, -187500.02, -187500.02, 187500.00, -187500.02, -187500.02, -187500.02, 0.00, 0.00, 0.00
108, 171227.67, 169635.19, -187500.02, -187500.02, 187500.00, -187500.02, -187500.02, -187500.02, 0.00, 0.00, 0.00
109, 172689.53, 171100.23, -187500.02, -187500.02, 187500.00, -187500.02, -187500.02, -187500.02, 0.00, 0.00, 0.00
110, 171523.13, 169934.16, -187500.02, -187500.02, 187500.00, -187500.02, -187500.02, -187500.02, 0.00, 0.00, 0.00
111, 170321.09, 168729.38, -187500.02, -187500.02, 187500.00, -187500.02, -187500.02, -187500.02, 0.00, 0.00, 0.00
112, 171531.94, 169938.92, -187500.02, -187500.02, 187500.00, -187500.02, -187500.02, -187500.02, 0.00, 0.00, 0.00
113, 173339.20, 171746.95, -187500.02, -187500.02, 187500.00, -187500.02, -187500.02, -187500.02, 0.00, 0.00, 0.00
114, 172290.34, 170701.86, -187500.02, -187500.02, 187500.00, -187500.02, -187500.02, -187500.02, 0.00, 0.00, 0.00
115, 170556.28, 168966.44, -187500.02, -187500.02, 187500.00, -187500.02, -187500.02, -187500.02, 0.00, 0.00, 0.00
116, 171131.63, 169539.52, -187500.02, -187500.02, 187500.00, -187500.02, -187500.02, -187500.02, 0.00, 0.00, 0.00
117, 172987.39, 171394.95, -187500.02, -187500.02, 187500.00, -187500.02, -187500.02, -187500.02, 0.00, 0.00, 0.00
118, 172406.11, 170819.22, -187500.02, -187500.02, 187500.00, -187500.02, -187500.02, -187500.02, 0.00, 0.00, 0.00
119, 170466.42, 168876.83, -187500.02, -187500.02, 187500.00, -187500.02, -187500.02, -187500.02, 0.00, 0.00, 0.00
120, 170593.52, 169003.67, -187500.02, -187500.02, 187500.00, -187500.02, -187500.02, -187500.02, 0.00, 0.00, 0.00
121, 172355.17, 170763.72, -187500.02, -187500.02, 187500.00, -187500.02, -187500.02, -187500.02, 0.00, 0.00, 0.00
122, 172454.36, 170863.28, -187500.02, -187500.02, 187500.00, -187500.02, -187500.02, -187500.02, 0.00, 0.00, 0.00
123, 170506.13, 168914.67, -187500.02, -187500.02, 187500.00, -187500.02, -187500.02, -187500.02, 0.00, 0.00, 0.00
124, 170111.19, 168517.33, -187500.02, -187500.02, 187500.00, -187500.02, -187500.02, -187500.02, 0.00, 0.00, 0.00
125, 171870.81, 170278.41, -187500.02, -187500.02, 187500.00, -187500.02, -187500.02, -187500.02, 0.00, 0.00, 0.00
126, 172391.11, 170803.00, -187500.02, -187500.02, 187500.00, -187500.02, -187500.02, -187500.02, 0.00, 0.00, 0.00
127, 170538.38, 168954.14, -187500.02, -187500.02, 187500.00, -187500.02, -187500.02, -187500.02, 0.00, 0.00, 0.00
128, 169806.95, 168219.53, -187500.02, -187500.02, 187500.00, -187500.02, -187500.02, -187500.02, 0.00, 0.00, 0.00
129, 171472.55, 169882.78, -187500.02, -187500.02, 187500.00, -187500.02, -187500.02, -187500.02, 0.00, 0.00, 0.00
130, 172634.39, 171046.36, -187500.02, -187500.02, 187500.00, -187500.02, -187500.02, -187500.02, 0.00, 0.00, 0.00
131, 171216.55, 169627.41, -187500.02, -187500.02, 187500.00, -187500.02, -187500.02, -187500.02, 0.00, 0.00, 0.00
132, 170263.84, 168671.42, -187500.02, -187500.02, 187500.00, -187500.02, -187500.02, -187500.02, 0.00, 0.00, 0.00
133, 171674.09, 170079.27, -187500.02, -187500.02, 187500.00, -187500.02, -187500.02, -187500.02, 0.00, 0.00, 0.00
134, 173302.88, 171711.73, -187500.02, -187500.02, 187500.00, -187500.02, -187500.02, -187500.02, 0.00, 0.00, 0.00
135, 172027.25, 170433.67, -187500.02, -187500.02, 187500.00, -187500.02, -187500.02, -187500.02, 0.00, 0.00, 0.00
136, 170475.59, 168878.84, -187500.02, -187500.02, 187500.00, -187500.02, -187500.02, -187500.02, 0.00, 0.00, 0.00
137, 171349.98, 169756.83, -187500.02, -187500.02, 187500.00, -187500.02, -187500.02, -187500.02, 0.00, 0.00, 0.00
138, 173052.09, 171461.41, -187500.02, -187500.02, 187500.00, -187500.02, -187500.02, -187500.02, 0.00, 0.00, 0.00
139, 172254.94, 170666.94, -187500.02, -187500.02, 187500.00, -187500.02, -187500.02, -187500.02, 0.00, 0.00, 0.00
140, 170441.81, 168852.52, -187500.02, -187500.02, 187500.00, -187500.02, -187500.02, -187500.02, 0.00, 0.00, 0.00
141, 170858.27, 169267.92, -187500.02, -187500.02, 187500.00, -187500.02, -187500.02, -187500.02, 0.00, 0.00, 0.00
142, 172567.98, 170979.55, -187500.02, -187500.02, 187500.00, -187500.02, -187500.02, -187500.02, 0.00, 0.00, 0.00
143, 172285.25, 170700.67, -187500.02, -187500.02, 187500.00, -187500.02, -187500.02, -187500.02, 0.00, 0.00, 0.00
144, 170412.52, 168826.30, -187500.02, -187500.02, 187500.00, -187500.02, -187500.02, -187500.02, 0.00, 0.00, 0.00
145, 170359.09, 168768.55, -187500.02, -187500.02, 187500.00, -187500.02, -187500.02, -187500.02, 0.00, 0.00, 0.00
146, 172137.95, 170547.20, -187500.02, -187500.02, 187500.00, -187500.02, -187500.02, -187500.02, 0.00, 0.00, 0.00
147, 172421.27, 170833.34, -187500.02, -187500.02, 187500.00, -187500.02, -187500.02, -187500.02, 0.00, 0.00, 0.00
148, 170479.41, 168892.03, -187500.02, -187500.02, 187500.00, -187500.02, -187500.02, -187500.02, 0.00, 0.00, 0.00
149, 170144.31, 168552.17, -187500.02, -187500.02, 187500.00, -187500.02, -187500.02, -187500.02, 0.00, 0.00, 0.00
150, 172038.63, 170445.23, -187500.02, -187500.02, 187500.00, -187500.02, -187500.02, -187500.02, 0.00, 0.00, 0.00
151, 173023.03, 171432.75, -187500.02, -187500.02, 187500.00, -187500.02, -187500.02, -187500.02, 0.00, 0.00, 0.00
152, 171376.19, 169785.70, -187500.02, -187500.02, 187500.00, -187500.02, -187500.02, -187500.02, 0.00, 0.00, 0.00
153, 170504.75, 168914.31, -187500.02, -187500.02, 187500.00, -187500.02, -187500.02, -187500.02, 0.00, 0.00, 0.00
154, 172021.33, 170431.73, -187500.02, -187500.02, 187500.00, -187500.02, -187500.02, -187500.02, 0.00, 0.00, 0.00
155, 173358.69, 171768.09, -187500.02, -187500.02, 187500.00, -187500.02, -187500.02, -187500.02, 0.00, 0.00, 0.00
156, 171866.77, 170277.38, -187500.02, -187500.02, 187500.00, -187500.02, -187500.02, -187500.02, 0.00, 0.00, 0.00
157, 170619.64, 169027.86, -187500.02, -187500.02, 187500.00, -187500.02, -187500.02, -187500.02, 0.00, 0.00, 0.00
158, 171755.33, 170160.41, -187500.02, -187500.02, 187500.00, -187500.02, -187500.02, -187500.02, 0.00, 0.00, 0.00
159, 173323.95, 171732.30, -187500.02, -187500.02, 187500.00, -187500.02, -187500.02, -187500.02, 0.00, 0.00, 0.00
160, 172188.17, 170599.50, -187500.02, -187500.02, 187500.00, -187500.02, -187500.02, -187500.02, 0.00, 0.00, 0.00
161, 170438.80, 168847.83, -187500.02, -187500.02, 187500.00, -187500.02, -187500.02, -187500.02, 0.00, 0.00, 0.00
162, 171129.63, 169535.55, -187500.02, -187500.02, 187500.00, -187500.02, -187500.02, -187500.02, 0.00, 0.00, 0.00
163, 172876.16, 171283.11, -187500.02, -187500.02, 187500.00, -187500.02, -187500.02, -187500.02, 0.00, 0.00, 0.00
164, 172354.83, 170766.52, -187500.02, -187500.02, 187500.00, -187500.02, -187500.02, -187500.02, 0.00, 0.00, 0.00
165, 170512.02, 168923.73, -187500.02, -187500.02, 187500.00, -187500.02, -187500.02, -187500.02, 0.00, 0.00, 0.00
166, 170731.20, 169139.00, -187500.02, -187500.02, 187500.00, -187500.02, -187500.02, -187500.02, 0.00, 0.00, 0.00
167, 172529.31, 170937.11, -187500.02, -187500.02, 187500.00, -187500.02, -187500.02, -187500.02, 0.00, 0.00, 0.00
168, 172554.19, 170966.55, -187500.02, -187500.02, 187500.00, -187500.02, -187500.02, -187500.02, 0.00, 0.00, 0.00
169, 170638.00, 169050.91, -187500.02, -187500.02, 187500.00, -187500.02, -187500.02, -187500.02, 0.00, 0.00, 0.00
170, 170458.98, 168869.39, -187500.02, -187500.02, 187500.00, -187500.02, -187500.02, -187500.02, 0.00, 0.00, 0.00
171, 172303.06, 170710.08, -187500.02, -187500.02, 187500.00, -187500.02, -187500.02, -187500.02, 0.00, 0.00, 0.00
172, 172921.20, 171331.91, -187500.02, -187500.02, 187500.00, -187500.02, -187500.02, -187500.02, 0.00, 0.00, 0.00
173, 171293.58, 169703.06, -187500.02, -187500.02, 187500.00, -187500.02, -187500.02, -187500.02, 0.00, 0.00, 0.00
174, 170716.77, 169120.63, -187500.02, -187500.02, 187500.00, -187500.02, -187500.02, -187500.02, 0.00, 0.00, 0.00
175, 172460.56, 170861.17, -187500.02, -187500.02, 187500.00, -187500.02, -187500.02, -187500.02, 0.00, 0.00, 0.00
176, 173652.95, 172059.09, -187500.02, -187500.02, 187500.00, -187500.02, -187500.02, -187500.02, 0.00, 0.00, 0.00
177, 171878.78, 170289.67, -187500.02, -187500.02, 187500.00, -187500.02, -187500.02, -187500.02, 0.00, 0.00, 0.00
178, 170747.36, 169154.42, -187500.02, -187500.02, 187500.00, -187500.02, -187500.02, -187500.02, 0.00, 0.00, 0.00
179, 172093.34, 170496.03, -187500.02, -187500.02, 187500.00, -187500.02, -187500.02, -187500.02, 0.00, 0.00, 0.00
180, 173544.61, 171948.44, -187500.02, -187500.02, 187500.00, -187500.02, -187500.02, -187500.02, 0.00, 0.00, 0.00
181, 172076.63, 170483.25, -187500.02, -187500.02, 187500.00, -187500.02, -187500.02, -187500.02, 0.00, 0.00, 0.00
182, 170548.47, 168953.20, -187500.02, -187500.02, 187500.00, -187500.02, -187500.02, -187500.02, 0.00, 0.00, 0.00
183, 171522.00, 169919.31, -187500.02, -187500.02, 187500.00, -187500.02, -187500.02, -187500.02, 0.00, 0.00, 0.00
184, 173226.19, 171624.09, -187500.02, -187500.02, 187500.00, -187500.02, -187500.02, -187500.02, 0.00, 0.00, 0.00
185, 172291.67, 170695.23, -187500.02, -187500.02, 187500.00, -187500.02, -187500.02, -187500.02, 0.00, 0.00, 0.00
186, 170487.61, 168890.80, -187500.02, -187500.02, 187500.00, -187500.02, -187500.02, -187500.02, 0.00, 0.00, 0.00
187, 171035.05, 169436.70, -187500.02, -187500.02, 187500.00, -187500.02, -187500.02, -187500.02, 0.00, 0.00, 0.00
188, 172869.91, 171273.34, -187500.02, -187500.02, 187500.00, -187500.02, -187500.02, -187500.02, 0.00, 0.00, 0.00
189, 172372.83, 170781.09, -187500.02, -187500.02, 187500.00, -187500.02, -187500.02, -187500.02, 0.00, 0.00, 0.00
190, 170486.70, 168891.27, -187500.02, -187500.02, 187500.00, -187500.02, -187500.02, -187500.02, 0.00, 0.00, 0.00
191, 170634.73, 169038.89, -187500.02, -187500.02, 187500.00, -187500.02, -187500.02, -187500.02, 0.00, 0.00, 0.00
192, 172475.64, 170882.39, -187500.02, -187500.02, 187500.00, -187500.02, -187500.02, -187500.02, 0.00, 0.00, 0.00
193, 172550.39, 170960.50, -187500.02, -187500.02, 187500.00, -187500.02, -187500.02, -187500.02, 0.00, 0.00, 0.00
194, 170663.45, 169073.27, -187500.02, -187500.02, 187500.00, -187500.02, -187500.02, -187500.02, 0.00, 0.00, 0.00
195, 170335.83, 168743.89, -187500.02, -187500.02, 187500.00, -187500.02, -187500.02, -187500.02, 0.00, 0.00, 0.00
196, 173714.48, 172121.38, -187500.02, -187500.02, 187500.00, -187500.02, -187500.02, -187500.02, 0.00, 0.00, 0.00
197, 171814.64, 170221.36, -187500.02, -187500.02, 187500.00, -187500.02, -187500.02, -187500.02, 0.00, 0.00, 0.00
198, 170878.92, 169284.89, -187500.02, -187500.02, 187500.00, -187500.02, -187500.02, -187500.02, 0.00, 0.00, 0.00
199, 172360.20, 170766.19, -187500.02, -187500.02, 187500.00, -187500.02, -187500.02, -187500.02, 0.00, 0.00, 0.00
200, 173682.13, 172090.92, -187500.02, -187500.02, 187500.00, -187500.02, -187500.02, -187500.02, 0.00, 0.00, 0.00
201, 172015.08, 170425.03, -187500.02, -187500.02, 187500.00, -187500.02, -187500.02, -187500.02, 0.00, 0.00, 0.00
202, 170553.70, 168959.06, -187500.02, -187500.02, 187500.00, -187500.02, -187500.02, -187500.02, 0.00, 0.00, 0.00
203, 171676.69, 170080.77, -187500.02, -187500.02, 187500.00, -187500.02, -187500.02, -187500.02, 0.00, 0.00, 0.00
204, 173224.11, 171631.63, -187500.02, -187500.02, 187500.00, -187500.02, -187500.02, -187500.02, 0.00, 0.00, 0.00
205, 171988.44, 170397.36, -187500.02, -187500.02, 187500.00, -187500.02, -187500.02, -187500.02, 0.00, 0.00, 0.00
206, 170313.97, 168719.19, -187500.02, -187500.02, 187500.00, -187500.02, -187500.02, -187500.02, 0.00, 0.00, 0.00
207, 171119.98, 169522.17, -187500.02, -187500.02, 187500.00, -187500.02, -187500.02, -187500.02, 0.00, 0.00, 0.00
208, 172716.95, 171120.59, -187500.02, -187500.02, 187500.00, -187500.02, -187500.02, -187500.02, 0.00, 0.00, 0.00
209, 171993.84, 170401.16, -187500.02, -187500.02, 187500.00, -187500.02, -187500.02, -187500.02, 0.00, 0.00, 0.00
210, 170228.72, 168635.50, -187500.02, -187500.02, 187500.00, -187500.02, -187500.02, -187500.02, 0.00, 0.00, 0.00
211, 170619.33, 169025.27, -187500.02, -187500.02, 187500.00, -187500.02, -187500.02, -187500.02, 0.00, 0.00, 0.00
212, 172604.34, 171009.77, -187500.02, -187500.02, 187500.00, -187500.02, -187500.02, -187500.02, 0.00, 0.00, 0.00
213, 172686.05, 171093.91, -187500.02, -187500.02, 187500.00, -187500.02, -187500.02, -187500.02, 0.00, 0.00, 0.00
214, 170835.34, 169245.39, -187500.02, -187500.02, 187500.00, -187500.02, -187500.02, -187500.02, 0.00, 0.00, 0.00
215, 170863.75, 169269.42, -187500.02, -187500.02, 187500.00, -187500.02, -187500.02, -187500.02, 0.00, 0.00, 0.00
216, 172895.63, 171299.77, -187500.02, -187500.02, 187500.00, -187500.02, -187500.02, -187500.02, 0.00, 0.00, 0.00
217, 173423.14, 171828.05, -187500.02, -187500.02, 187500.00, -187500.02, -187500.02, -187500.02, 0.00, 0.00, 0.00
218, 171465.61, 169871.91, -187500.02, -187500.02, 187500.00, -187500.02, -187500.02, -187500.02, 0.00, 0.00, 0.00
219, 170819.69, 169222.13, -187500.02, -187500.02, 187500.00, -187500.02, -187500.02, -187500.02, 0.00, 0.00, 0.00
220, 172399.02, 170801.14, -187500.02, -187500.02, 187500.00, -187500.02, -187500.02, -187500.02, 0.00, 0.00, 0.00
221, 173264.45, 171668.86, -187500.02, -187500.02, 187500.00, -187500.02, -187500.02, -187500.02, 0.00, 0.00, 0.00
222, 171581.63, 169985.48, -187500.02, -187500.02, 187500.00, -187500.02, -187500.02, -187500.02, 0.00, 0.00, 0.00
223, 170451.67, 168854.75, -187500.02, -187500.02, 187500.00, -187500.02, -187500.02, -187500.02, 0.00, 0.00, 0.00
224, 171729.50, 170131.77, -187500.02, -187500.02, 187500.00, -187500.02, -187500.02, -187500.02, 0.00, 0.00, 0.00
225, 172999.55, 171404.19, -187500.02, -187500.02, 187500.00, -187500.02, -187500.02, -187500.02, 0.00, 0.00, 0.00
226, 171556.89, 169964.20, -187500.02, -187500.02, 187500.00, -187500.02, -187500.02, -187500.02, 0.00, 0.00, 0.00
227, 170048.69, 168453.45, -187500.02, -187500.02, 187500.00, -187500.02, -187500.02, -187500.02, 0.00, 0.00, 0.00
228, 171061.00, 169461.48, -187500.02, -187500.02, 187500.00, -187500.02, -187500.02, -187500.02, 0.00, 0.00, 0.00
229, 172729.52, 171129.58, -187500.02, -187500.02, 187500.00, -187500.02, -187500.02, -187500.02, 0.00, 0.00, 0.00
230, 171693.09, 170098.63, -187500.02, -187500.02, 187500.00, -187500.02, -187500.02, -187500.02, 0.00, 0.00, 0.00
231, 170096.56, 168501.75, -187500.02, -187500.02, 187500.00, -187500.02, -187500.02, -187500.02, 0.00, 0.00, 0.00
232, 170802.70, 169204.28, -187500.02, -187500.02, 187500.00, -187500.02, -187500.02, -187500.02, 0.00, 0.00, 0.00
233, 172708.91, 171110.08, -187500.02, -187500.02, 187500.00, -187500.02, -187500.02, -187500.02, 0.00, 0.00, 0.00
234, 172391.00, 170795.06, -187500.02, -187500.02, 187500.00, -187500.02, -187500.02, -187500.02, 0.00, 0.00, 0.00
235, 170699.22, 169101.25, -187500.02, -187500.02, 187500.00, -187500.02, -187500.02, -187500.02, 0.00, 0.00, 0.00
236, 170998.50, 169399.64, -187500.02, -187500.02, 187500.00, -187500.02, -187500.02, -187500.02, 0.00, 0.00, 0.00
237, 172890.88, 171296.52, -187500.02, -187500.02, 187500.00, -187500.02, -187500.02, -187500.02, 0.00, 0.00, 0.00
238, 173102.08, 171512.31, -187500.02, -187500.02, 187500.00, -187500.02, -187500.02, -187500.02, 0.00, 0.00, 0.00
239, 171210.09, 169618.69, -187500.02, -187500.02, 187500.00, -187500.02, -187500.02, -187500.02, 0.00, 0.00, 0.00
240, 170788.41, 169192.27, -187500.02, -187500.02, 187500.00, -187500.02, -187500.02, -187500.02, 0.00, 0.00, 0.00
241, 172481.09, 170881.88, -187500.02, -187500.02, 187500.00, -187500.02, -187500.02, -187500.02, 0.00, 0.00, 0.00
242, 173041.28, 171447.13, -187500.02, -187500.02, 187500.00, -187500.02, -187500.02, -187500.02, 0.00, 0.00, 0.00
243, 171126.00, 169534.09, -187500.02, -187500.02, 187500.00, -187500.02, -187500.02, -187500.02, 0.00, 0.00, 0.00
244, 170391.05, 168796.30, -187500.02, -187500.02, 187500.00, -187500.02, -187500.02, -187500.02, 0.00, 0.00, 0.00
245, 171849.02, 170252.67, -187500.02, -187500.02, 187500.00, -187500.02, -187500.02, -187500.02, 0.00, 0.00, 0.00
246, 172798.78, 171202.42, -187500.02, -187500.02, 187500.00, -187500.02, -187500.02, -187500.02, 0.00, 0.00, 0.00
247, 171383.69, 169788.73, -187500.02, -187500.02, 187500.00, -187500.02, -187500.02, -187500.02, 0.00, 0.00, 0.00
248, 170187.61, 168588.27, -187500.02, -187500.02, 187500.00, -187500.02, -187500.02, -187500.02, 0.00, 0.00, 0.00
249, 171287.61, 169687.11, -187500.02, -187500.02, 187500.00, -187500.02, -187500.02, -187500.02, 0.00, 0.00, 0.00
250, 172669.25, 171071.58, -187500.02, -187500.02, 187500.00, -187500.02, -187500.02, -187500.02, 0.00, 0.00, 0.00
251, 171388.61, 169791.25, -187500.02, -187500.02, 187500.00, -187500.02, -187500.02, -187500.02, 0.00, 0.00, 0.00
252, 169930.61, 168329.48, -187500.02, -187500.02, 187500.00, -187500.02, -187500.02, -187500.02, 0.00, 0.00, 0.00
253, 170940.86, 169338.06, -187500.02, -187500.02, 187500.00, -187500.02, -187500.02, -187500.02, 0.00, 0.00, 0.00
254, 172726.92, 171124.95, -187500.02, -187500.02, 187500.00, -187500.02, -187500.02, -187500.02, 0.00, 0.00, 0.00
255, 172147.23, 170545.84, -187500.02, -187500.02, 187500.00, -187500.02, -187500.02, -187500.02, 0.00, 0.00, 0.00
0, 170605.97, 169004.97, -187500.02, -187500.02, 187500.00, -187500.02, -187500.02, -187500.02, 0.00, 0.00, 0.00
1, 171257.89, 169655.05, -187500.02, -187500.02, 187500.00, -187500.02, -187500.02, -187500.02, 0.00, 0.00, 0.00
2, 173287.89, 171686.30, -187500.02, -187500.02, 187500.00, -187500.02, -187500.02, -187500.02, 0.00, 0.00, 0.00
3, 172970.25, 171374.70, -187500.02, -187500.02, 187500.00, -187500.02, -187500.02, -187500.02, 0.00, 0.00, 0.00
4, 171008.70, 169411.83, -187500.02, -187500.02, 187500.00, -187500.02, -187500.02, -187500.02, 0.00, 0.00, 0.00
5, 171030.11, 169433.09, -187500.02, -187500.02, 187500.00, -187500.02, -187500.02, -187500.02, 0.00, 0.00, 0.00
6, 172871.83, 171272.84, -187500.02, -187500.02, 187500.00, -187500.02, -187500.02, -187500.02, 0.00, 0.00, 0.00
7, 173065.50, 171466.63, -187500.02, -187500.02, 187500.00, -187500.02, -187500.02, -187500.02, 0.00, 0.00, 0.00
8, 171149.30, 169551.36, -187500.02, -187500.02, 187500.00, -187500.02, -187500.02, -187500.02, 0.00, 0.00, 0.00
9, 170665.59, 169063.50, -187500.02, -187500.02, 187500.00, -187500.02, -187500.02, -187500.02, 0.00, 0.00, 0.00
10, 172288.05, 170689.52, -187500.02, -187500.02, 187500.00, -187500.02, -187500.02, -187500.02, 0.00, 0.00, 0.00
11, 173077.55, 171482.78, -187500.02, -187500.02, 187500.00, -187500.02, -187500.02, -187500.02, 0.00, 0.00, 0.00
12, 171279.11, 169686.38, -187500.02, -187500.02, 187500.00, -187500.02, -187500.02, -187500.02, 0.00, 0.00, 0.00
13, 170242.34, 168647.69, -187500.02, -187500.02, 187500.00, -187500.02, -187500.02, -187500.02, 0.00, 0.00, 0.00
14, 171633.77, 170035.70, -187500.02, -187500.02, 187500.00, -187500.02, -187500.02, -187500.02, 0.00, 0.00, 0.00
15, 172825.53, 171230.81, -187500.02, -187500.02, 187500.00, -187500.02, -187500.02, -187500.02, 0.00, 0.00, 0.00
16, 171386.02, 169793.92, -187500.02, -187500.02, 187500.00, -187500.02, -187500.02, -187500.02, 0.00, 0.00, 0.00
17, 169988.94, 168392.36, -187500.02, -187500.02, 187500.00, -187500.02, -187500.02, -187500.02, 0.00, 0.00, 0.00
18, 171144.89, 169546.88, -187500.02, -187500.02, 187500.00, -187500.02, -187500.02, -187500.02, 0.00, 0.00, 0.00
19, 172965.38, 171367.94, -187500.02, -187500.02, 187500.00, -187500.02, -187500.02, -187500.02, 0.00, 0.00, 0.00
20, 172077.22, 170480.59, -187500.02, -187500.02, 187500.00, -187500.02, -187500.02, -187500.02, 0.00, 0.00, 0.00
21, 170594.08, 168993.28, -187500.02, -187500.02, 187500.00, -187500.02, -187500.02, -187500.02, 0.00, 0.00, 0.00
