%OpenBCI Raw EEG Data
%
%Sample Rate = 250.0 Hz
%First Column = SampleIndex
%Other Columns = EEG data in microvolts followed by Accel Data (in G) interleaved with Aux Data
0, -187500.02, -45190.62, -187500.02, -187500.02, -48225.88, 0.00, 0.00, 0.00, 0.00, 0.00, 0.00
1, -187500.02, -43960.89, -187500.02, -187500.02, -47130.20, 0.00, 0.00, 0.00, 0.00, 0.00, 0.00
2, -187500.02, -42933.70, -187500.02, -187500.02, -46168.11, 0.00, 0.00, 0.00, 0.00, 0.00, 0.00
3, -187500.02, -44045.68, -187500.02, -187500.02, -47154.78, 0.00, 0.00, 0.00, 0.00, 0.00, 0.00
4, -187500.02, -45195.76, -187500.02, -187500.02, -48238.37, 0.00, 0.00, 0.00, 0.00, 0.00, 0.00
5, -187500.02, -44242.55, -187500.02, -187500.02, -47412.23, 0.00, 0.00, 0.00, 0.00, 0.00, 0.00
6, -187500.02, -42957.13, -187500.02, -187500.02, -46214.42, 0.00, 0.00, 0.00, 0.00, 0.00, 0.00
7, -187500.02, -43714.36, -187500.02, -187500.02, -46850.44, 0.00, 0.00, 0.00, 0.00, 0.00, 0.00
8, -187500.02, -45125.20, -187500.02, -187500.02, -48152.81, 0.00, 0.00, 0.00, 0.00, 0.00, 0.00
9, -187500.02, -44600.76, -187500.02, -187500.02, -47724.97, 0.00, 0.00, 0.00, 0.00, 0.00, 0.00
10, -187500.02, -43077.09, -187500.02, -187500.02, -46330.83, 0.00, 0.00, 0.00, 0.00, 0.00, 0.00
11, -187500.02, -43367.08, -187500.02, -187500.02, -46550.84, 0.00, 0.00, 0.00, 0.00, 0.00, 0.00
12, -187500.02, -44988.05, -187500.02, -187500.02, -48026.57, 0.00, 0.00, 0.00, 0.00, 0.00, 0.00
13, -187500.02, -44889.03, -187500.02, -187500.02, -47982.11, 0.00, 0.00, 0.00, 0.00, 0.00, 0.00
14, -187500.02, -43242.67, -187500.02, -187500.02, -46482.51, 0.00, 0.00, 0.00, 0.00, 0.00, 0.00
15, -187500.02, -43074.34, -187500.02, -187500.02, -46277.30, 0.00, 0.00, 0.00, 0.00, 0.00, 0.00
16, -187500.02, -44736.50, -187500.02, -187500.02, -47779.09, 0.00, 0.00, 0.00, 0.00, 0.00, 0.00
17, -187500.02, -45083.38, -187500.02, -187500.02, -48130.25, 0.00, 0.00, 0.00, 0.00, 0.00, 0.00
18, -187500.02, -43485.72, -187500.02, -187500.02, -46678.09, 0.00, 0.00, 0.00, 0.00, 0.00, 0.00
19, -187500.02, -42926.23, -187500.02, -187500.02, -46142.36, 0.00, 0.00, 0.00, 0.00, 0.00, 0.00
20, -187500.02, -44473.13, -187500.02, -187500.02, -47530.11, 0.00, 0.00, 0.00, 0.00, 0.00, 0.00
21, -187500.02, -45208.32, -187500.02, -187500.02, -48225.50, 0.00, 0.00, 0.00, 0.00, 0.00, 0.00
22, -187500.02, -43823.77, -187500.02, -187500.02, -46995.68, 0.00, 0.00, 0.00, 0.00, 0.00, 0.00
23, -187500.02, -42889.09, -187500.02, -187500.02, -46116.16, 0.00, 0.00, 0.00, 0.00, 0.00, 0.00
24, -187500.02, -44224.51, -187500.02, -187500.02, -47307.29, 0.00, 0.00, 0.00, 0.00, 0.00, 0.00
25, -187500.02, -45333.32, -187500.02, -187500.02, -48344.14, 0.00, 0.00, 0.00, 0.00, 0.00, 0.00
26, -187500.02, -44179.94, -187500.02, -187500.02, -47328.03, 0.00, 0.00, 0.00, 0.00, 0.00, 0.00
27, -187500.02, -42901.13, -187500.02, -187500.02, -46144.19, 0.00, 0.00, 0.00, 0.00, 0.00, 0.00
28, -187500.02, -43906.69, -187500.02, -187500.02, -47027.04, 0.00, 0.00, 0.00, 0.00, 0.00, 0.00
29, -187500.02, -45294.82, -187500.02, -187500.02, -48306.19, 0.00, 0.00, 0.00, 0.00, 0.00, 0.00
30, -187500.02, -44495.93, -187500.02, -187500.02, -47622.22, 0.00, 0.00, 0.00, 0.00, 0.00, 0.00
31, -187500.02, -42971.05, -187500.02, -187500.02, -46229.31, 0.00, 0.00, 0.00, 0.00, 0.00, 0.00
32, -187500.02, -43596.45, -187500.02, -187500.02, -46756.59, 0.00, 0.00, 0.00, 0.00, 0.00, 0.00
33, -187500.02, -45186.60, -187500.02, -187500.02, -48203.77, 0.00, 0.00, 0.00, 0.00, 0.00, 0.00
34, -187500.02, -44776.24, -187500.02, -187500.02, -47871.31, 0.00, 0.00, 0.00, 0.00, 0.00, 0.00
35, -187500.02, -43100.53, -187500.02, -187500.02, -46344.26, 0.00, 0.00, 0.00, 0.00, 0.00, 0.00
36, -187500.02, -43271.21, -187500.02, -187500.02, -46448.78, 0.00, 0.00, 0.00, 0.00, 0.00, 0.00
37, -187500.02, -44982.32, -187500.02, -187500.02, -47997.38, 0.00, 0.00, 0.00, 0.00, 0.00, 0.00
38, -187500.02, -45042.43, -187500.02, -187500.02, -48090.92, 0.00, 0.00, 0.00, 0.00, 0.00, 0.00
39, -187500.02, -43374.32, -187500.02, -187500.02, -46582.60, 0.00, 0.00, 0.00, 0.00, 0.00, 0.00
40, -187500.02, -43085.60, -187500.02, -187500.02, -46277.63, 0.00, 0.00, 0.00, 0.00, 0.00, 0.00
41, -187500.02, -44750.40, -187500.02, -187500.02, -47770.75, 0.00, 0.00, 0.00, 0.00, 0.00, 0.00
42, -187500.02, -45216.68, -187500.02, -187500.02, -48235.31, 0.00, 0.00, 0.00, 0.00, 0.00, 0.00
43, -187500.02, -43661.81, -187500.02, -187500.02, -46850.13, 0.00, 0.00, 0.00, 0.00, 0.00, 0.00
44, -187500.02, -42953.75, -187500.02, -187500.02, -46171.80, 0.00, 0.00, 0.00, 0.00, 0.00, 0.00
45, -187500.02, -44399.97, -187500.02, -187500.02, -47467.04, 0.00, 0.00, 0.00, 0.00, 0.00, 0.00
46, -187500.02, -45266.53, -187500.02, -187500.02, -48284.77, 0.00, 0.00, 0.00, 0.00, 0.00, 0.00
47, -187500.02, -43968.99, -187500.02, -187500.02, -47126.28, 0.00, 0.00, 0.00, 0.00, 0.00, 0.00
48, -187500.02, -42922.95, -187500.02, -187500.02, -46143.79, 0.00, 0.00, 0.00, 0.00, 0.00, 0.00
49, -187500.02, -44087.25, -187500.02, -187500.02, -47153.60, 0.00, 0.00, 0.00, 0.00, 0.00, 0.00
50, -187500.02, -45299.77, -187500.02, -187500.02, -48271.92, 0.00, 0.00, 0.00, 0.00, 0.00, 0.00
51, -187500.02, -44316.82, -187500.02, -187500.02, -47412.07, 0.00, 0.00, 0.00, 0.00, 0.00, 0.00
52, -187500.02, -42984.59, -187500.02, -187500.02, -46203.34, 0.00, 0.00, 0.00, 0.00, 0.00, 0.00
53, -187500.02, -43783.49, -187500.02, -187500.02, -46900.95, 0.00, 0.00, 0.00, 0.00, 0.00, 0.00
54, -187500.02, -45240.22, -187500.02, -187500.02, -48230.46, 0.00, 0.00, 0.00, 0.00, 0.00, 0.00
55, -187500.02, -44646.58, -187500.02, -187500.02, -47725.71, 0.00, 0.00, 0.00, 0.00, 0.00, 0.00
56, -187500.02, -43106.66, -187500.02, -187500.02, -46323.23, 0.00, 0.00, 0.00, 0.00, 0.00, 0.00
57, -187500.02, -43493.18, -187500.02, -187500.02, -46630.50, 0.00, 0.00, 0.00, 0.00, 0.00, 0.00
58, -187500.02, -45100.36, -187500.02, -187500.02, -48085.71, 0.00, 0.00, 0.00, 0.00, 0.00, 0.00
59, -187500.02, -44929.48, -187500.02, -187500.02, -47965.03, 0.00, 0.00, 0.00, 0.00, 0.00, 0.00
60, -187500.02, -43288.51, -187500.02, -187500.02, -46467.26, 0.00, 0.00, 0.00, 0.00, 0.00, 0.00
61, -187500.02, -43235.98, -187500.02, -187500.02, -46370.66, 0.00, 0.00, 0.00, 0.00, 0.00, 0.00
62, -187500.02, -44911.47, -187500.02, -187500.02, -47881.21, 0.00, 0.00, 0.00, 0.00, 0.00, 0.00
63, -187500.02, -45182.91, -187500.02, -187500.02, -48164.03, 0.00, 0.00, 0.00, 0.00, 0.00, 0.00
64, -187500.02, -43563.84, -187500.02, -187500.02, -46705.45, 0.00, 0.00, 0.00, 0.00, 0.00, 0.00
65, -187500.02, -43039.89, -187500.02, -187500.02, -46194.15, 0.00, 0.00, 0.00, 0.00, 0.00, 0.00
66, -187500.02, -44615.76, -187500.02, -187500.02, -47611.16, 0.00, 0.00, 0.00, 0.00, 0.00, 0.00
67, -187500.02, -45312.80, -187500.02, -187500.02, -48286.63, 0.00, 0.00, 0.00, 0.00, 0.00, 0.00
68, -187500.02, -43844.78, -187500.02, -187500.02, -46975.41, 0.00, 0.00, 0.00, 0.00, 0.00, 0.00
69, -187500.02, -42929.18, -187500.02, -187500.02, -46110.15, 0.00, 0.00, 0.00, 0.00, 0.00, 0.00
70, -187500.02, -44298.90, -187500.02, -187500.02, -47329.57, 0.00, 0.00, 0.00, 0.00, 0.00, 0.00
71, -187500.02, -45387.83, -187500.02, -187500.02, -48348.07, 0.00, 0.00, 0.00, 0.00, 0.00, 0.00
72, -187500.02, -44177.42, -187500.02, -187500.02, -47268.44, 0.00, 0.00, 0.00, 0.00, 0.00, 0.00
73, -187500.02, -42921.32, -187500.02, -187500.02, -46104.02, 0.00, 0.00, 0.00, 0.00, 0.00, 0.00
74, -187500.02, -43961.72, -187500.02, -187500.02, -47018.17, 0.00, 0.00, 0.00, 0.00, 0.00, 0.00
75, -187500.02, -45354.55, -187500.02, -187500.02, -48286.63, 0.00, 0.00, 0.00, 0.00, 0.00, 0.00
76, -187500.02, -44506.97, -187500.02, -187500.02, -47546.11, 0.00, 0.00, 0.00, 0.00, 0.00, 0.00
77, -187500.02, -43009.36, -187500.02, -187500.02, -46183.64, 0.00, 0.00, 0.00, 0.00, 0.00, 0.00
78, -187500.02, -43635.54, -187500.02, -187500.02, -46724.06, 0.00, 0.00, 0.00, 0.00, 0.00, 0.00
79, -187500.02, -45212.93, -187500.02, -187500.02, -48168.90, 0.00, 0.00, 0.00, 0.00, 0.00, 0.00
80, -187500.02, -44834.04, -187500.02, -187500.02, -47854.46, 0.00, 0.00, 0.00, 0.00, 0.00, 0.00
81, -187500.02, -43186.09, -187500.02, -187500.02, -46359.68, 0.00, 0.00, 0.00, 0.00, 0.00, 0.00
82, -187500.02, -43367.28, -187500.02, -187500.02, -46498.00, 0.00, 0.00, 0.00, 0.00, 0.00, 0.00
83, -187500.02, -45075.62, -187500.02, -187500.02, -48035.75, 0.00, 0.00, 0.00, 0.00, 0.00, 0.00
84, -187500.02, -45092.39, -187500.02, -187500.02, -48085.29, 0.00, 0.00, 0.00, 0.00, 0.00, 0.00
85, -187500.02, -43375.88, -187500.02, -187500.02, -46540.06, 0.00, 0.00, 0.00, 0.00, 0.00, 0.00
86, -187500.02, -43109.11, -187500.02, -187500.02, -46258.07, 0.00, 0.00, 0.00, 0.00, 0.00, 0.00
87, -187500.02, -44802.33, -187500.02, -187500.02, -47787.22, 0.00, 0.00, 0.00, 0.00, 0.00, 0.00
88, -187500.02, -45231.17, -187500.02, -187500.02, -48210.95, 0.00, 0.00, 0.00, 0.00, 0.00, 0.00
89, -187500.02, -43626.51, -187500.02, -187500.02, -46781.33, 0.00, 0.00, 0.00, 0.00, 0.00, 0.00
90, -187500.02, -42938.68, -187500.02, -187500.02, -46117.57, 0.00, 0.00, 0.00, 0.00, 0.00, 0.00
91, -187500.02, -44490.61, -187500.02, -187500.02, -47490.23, 0.00, 0.00, 0.00, 0.00, 0.00, 0.00
92, -187500.02, -45337.92, -187500.02, -187500.02, -48303.44, 0.00, 0.00, 0.00, 0.00, 0.00, 0.00
93, -187500.02, -43920.71, -187500.02, -187500.02, -47039.47, 0.00, 0.00, 0.00, 0.00, 0.00, 0.00
94, -187500.02, -42868.79, -187500.02, -187500.02, -46051.88, 0.00, 0.00, 0.00, 0.00, 0.00, 0.00
95, -187500.02, -44126.28, -187500.02, -187500.02, -47158.80, 0.00, 0.00, 0.00, 0.00, 0.00, 0.00
96, -187500.02, -45317.47, -187500.02, -187500.02, -48262.69, 0.00, 0.00, 0.00, 0.00, 0.00, 0.00
97, -187500.02, -44244.88, -187500.02, -187500.02, -47321.82, 0.00, 0.00, 0.00, 0.00, 0.00, 0.00
98, -187500.02, -42894.88, -187500.02, -187500.02, -46084.38, 0.00, 0.00, 0.00, 0.00, 0.00, 0.00
99, -187500.02, -43810.80, -187500.02, -187500.02, -46879.07, 0.00, 0.00, 0.00, 0.00, 0.00, 0.00
100, -187500.02, -45271.29, -187500.02, -187500.02, -48214.88, 0.00, 0.00, 0.00, 0.00, 0.00, 0.00
101, -187500.02, -44578.23, -187500.02, -187500.02, -47630.25, 0.00, 0.00, 0.00, 0.00, 0.00, 0.00
102, -187500.02, -43040.88, -187500.02, -187500.02, -46240.24, 0.00, 0.00, 0.00, 0.00, 0.00, 0.00
103, -187500.02, -43516.63, -187500.02, -187500.02, -46633.00, 0.00, 0.00, 0.00, 0.00, 0.00, 0.00
104, -187500.02, -45138.65, -187500.02, -187500.02, -48087.63, 0.00, 0.00, 0.00, 0.00, 0.00, 0.00
105, -187500.02, -44906.78, -187500.02, -187500.02, -47921.89, 0.00, 0.00, 0.00, 0.00, 0.00, 0.00
106, -187500.02, -43242.93, -187500.02, -187500.02, -46422.54, 0.00, 0.00, 0.00, 0.00, 0.00, 0.00
107, -187500.02, -43246.85, -187500.02, -187500.02, -46389.70, 0.00, 0.00, 0.00, 0.00, 0.00, 0.00
108, -187500.02, -44905.68, -187500.02, -187500.02, -47878.30, 0.00, 0.00, 0.00, 0.00, 0.00, 0.00
109, -187500.02, -45088.88, -187500.02, -187500.02, -48069.73, 0.00, 0.00, 0.00, 0.00, 0.00, 0.00
110, -187500.02, -43472.75, -187500.02, -187500.02, -46615.61, 0.00, 0.00, 0.00, 0.00, 0.00, 0.00
111, -187500.02, -43072.35, -187500.02, -187500.02, -46216.14, 0.00, 0.00, 0.00, 0.00, 0.00, 0.00
112, -187500.02, -44641.77, -187500.02, -187500.02, -47622.76, 0.00, 0.00, 0.00, 0.00, 0.00, 0.00
113, -187500.02, -45203.61, -187500.02, -187500.02, -48169.06, 0.00, 0.00, 0.00, 0.00, 0.00, 0.00
114, -187500.02, -43734.14, -187500.02, -187500.02, -46868.05, 0.00, 0.00, 0.00, 0.00, 0.00, 0.00
115, -187500.02, -42955.54, -187500.02, -187500.02, -46137.62, 0.00, 0.00, 0.00, 0.00, 0.00, 0.00
116, -187500.02, -44348.92, -187500.02, -187500.02, -47370.41, 0.00, 0.00, 0.00, 0.00, 0.00, 0.00
117, -187500.02, -45286.67, -187500.02, -187500.02, -48238.17, 0.00, 0.00, 0.00, 0.00, 0.00, 0.00
118, -187500.02, -44037.29, -187500.02, -187500.02, -47129.99, 0.00, 0.00, 0.00, 0.00, 0.00, 0.00
119, -187500.02, -42924.98, -187500.02, -187500.02, -46097.88, 0.00, 0.00, 0.00, 0.00, 0.00, 0.00
120, -187500.02, -44039.66, -187500.02, -187500.02, -47077.11, 0.00, 0.00, 0.00, 0.00, 0.00, 0.00
121, -187500.02, -45295.77, -187500.02, -187500.02, -48233.18, 0.00, 0.00, 0.00, 0.00, 0.00, 0.00
122, -187500.02, -44370.16, -187500.02, -187500.02, -47430.42, 0.00, 0.00, 0.00, 0.00, 0.00, 0.00
123, -187500.02, -42987.41, -187500.02, -187500.02, -46162.59, 0.00, 0.00, 0.00, 0.00, 0.00, 0.00
124, -187500.02, -43726.67, -187500.02, -187500.02, -46801.63, 0.00, 0.00, 0.00, 0.00, 0.00, 0.00
125, -187500.02, -45205.78, -187500.02, -187500.02, -48160.16, 0.00, 0.00, 0.00, 0.00, 0.00, 0.00
126, -187500.02, -44677.76, -187500.02, -187500.02, -47723.48, 0.00, 0.00, 0.00, 0.00, 0.00, 0.00
127, -187500.02, -43139.51, -187500.02, -187500.02, -46317.06, 0.00, 0.00, 0.00, 0.00, 0.00, 0.00
128, -187500.02, -43461.56, -187500.02, -187500.02, -46565.70, 0.00, 0.00, 0.00, 0.00, 0.00, 0.00
129, -187500.02, -45072.71, -187500.02, -187500.02, -48025.14, 0.00, 0.00, 0.00, 0.00, 0.00, 0.00
130, -187500.02, -44967.28, -187500.02, -187500.02, -47960.67, 0.00, 0.00, 0.00, 0.00, 0.00, 0.00
131, -187500.02, -43359.90, -187500.02, -187500.02, -46516.41, 0.00, 0.00, 0.00, 0.00, 0.00, 0.00
132, -187500.02, -43243.29, -187500.02, -187500.02, -46380.32, 0.00, 0.00, 0.00, 0.00, 0.00, 0.00
133, -187500.02, -44847.37, -187500.02, -187500.02, -47817.58, 0.00, 0.00, 0.00, 0.00, 0.00, 0.00
134, -187500.02, -45146.25, -187500.02, -187500.02, -48126.93, 0.00, 0.00, 0.00, 0.00, 0.00, 0.00
135, -187500.02, -43568.38, -187500.02, -187500.02, -46721.54, 0.00, 0.00, 0.00, 0.00, 0.00, 0.00
136, -187500.02, -43028.94, -187500.02, -187500.02, -46191.69, 0.00, 0.00, 0.00, 0.00, 0.00, 0.00
137, -187500.02, -44559.18, -187500.02, -187500.02, -47548.28, 0.00, 0.00, 0.00, 0.00, 0.00, 0.00
138, -187500.02, -45282.55, -187500.02, -187500.02, -48225.34, 0.00, 0.00, 0.00, 0.00, 0.00, 0.00
139, -187500.02, -43865.95, -187500.02, -187500.02, -46958.60, 0.00, 0.00, 0.00, 0.00, 0.00, 0.00
140, -187500.02, -42950.71, -187500.02, -187500.02, -46097.54, 0.00, 0.00, 0.00, 0.00, 0.00, 0.00
141, -187500.02, -44250.91, -187500.02, -187500.02, -47255.25, 0.00, 0.00, 0.00, 0.00, 0.00, 0.00
142, -187500.02, -45317.73, -187500.02, -187500.02, -48252.63, 0.00, 0.00, 0.00, 0.00, 0.00, 0.00
143, -187500.02, -44190.87, -187500.02, -187500.02, -47261.69, 0.00, 0.00, 0.00, 0.00, 0.00, 0.00
144, -187500.02, -42946.19, -187500.02, -187500.02, -46119.83, 0.00, 0.00, 0.00, 0.00, 0.00, 0.00
145, -187500.02, -43909.48, -187500.02, -187500.02, -46951.56, 0.00, 0.00, 0.00, 0.00, 0.00, 0.00
146, -187500.02, -45285.08, -187500.02, -187500.02, -48207.86, 0.00, 0.00, 0.00, 0.00, 0.00, 0.00
147, -187500.02, -44530.33, -187500.02, -187500.02, -47554.56, 0.00, 0.00, 0.00, 0.00, 0.00, 0.00
148, -187500.02, -43071.00, -187500.02, -187500.02, -46222.42, 0.00, 0.00, 0.00, 0.00, 0.00, 0.00
149, -187500.02, -43646.41, -187500.02, -187500.02, -46705.22, 0.00, 0.00, 0.00, 0.00, 0.00, 0.00
150, -187500.02, -45226.70, -187500.02, -187500.02, -48135.78, 0.00, 0.00, 0.00, 0.00, 0.00, 0.00
151, -187500.02, -44863.66, -187500.02, -187500.02, -47841.29, 0.00, 0.00, 0.00, 0.00, 0.00, 0.00
152, -187500.02, -43254.25, -187500.02, -187500.02, -46398.35, 0.00, 0.00, 0.00, 0.00, 0.00, 0.00
153, -187500.02, -43370.96, -187500.02, -187500.02, -46481.64, 0.00, 0.00, 0.00, 0.00, 0.00, 0.00
154, -187500.02, -45024.73, -187500.02, -187500.02, -47991.18, 0.00, 0.00, 0.00, 0.00, 0.00, 0.00
155, -187500.02, -45079.09, -187500.02, -187500.02, -48084.95, 0.00, 0.00, 0.00, 0.00, 0.00, 0.00
156, -187500.02, -43458.52, -187500.02, -187500.02, -46620.98, 0.00, 0.00, 0.00, 0.00, 0.00, 0.00
157, -187500.02, -43164.17, -187500.02, -187500.02, -46321.39, 0.00, 0.00, 0.00, 0.00, 0.00, 0.00
158, -187500.02, -44766.86, -187500.02, -187500.02, -47758.55, 0.00, 0.00, 0.00, 0.00, 0.00, 0.00
159, -187500.02, -45233.13, -187500.02, -187500.02, -48204.64, 0.00, 0.00, 0.00, 0.00, 0.00, 0.00
160, -187500.02, -43694.71, -187500.02, -187500.02, -46833.96, 0.00, 0.00, 0.00, 0.00, 0.00, 0.00
161, -187500.02, -42983.77, -187500.02, -187500.02, -46155.08, 0.00, 0.00, 0.00, 0.00, 0.00, 0.00
162, -187500.02, -44474.34, -187500.02, -187500.02, -47470.95, 0.00, 0.00, 0.00, 0.00, 0.00, 0.00
163, -187500.02, -45342.01, -187500.02, -187500.02, -48295.68, 0.00, 0.00, 0.00, 0.00, 0.00, 0.00
164, -187500.02, -44000.95, -187500.02, -187500.02, -47130.91, 0.00, 0.00, 0.00, 0.00, 0.00, 0.00
165, -187500.02, -42923.48, -187500.02, -187500.02, -46143.54, 0.00, 0.00, 0.00, 0.00, 0.00, 0.00
166, -187500.02, -44110.43, -187500.02, -187500.02, -47184.00, 0.00, 0.00, 0.00, 0.00, 0.00, 0.00
167, -187500.02, -45326.59, -187500.02, -187500.02, -48302.25, 0.00, 0.00, 0.00, 0.00, 0.00, 0.00
168, -187500.02, -44290.00, -187500.02, -187500.02, -47389.21, 0.00, 0.00, 0.00, 0.00, 0.00, 0.00
169, -187500.02, -42942.77, -187500.02, -187500.02, -46149.85, 0.00, 0.00, 0.00, 0.00, 0.00, 0.00
170, -187500.02, -43780.11, -187500.02, -187500.02, -46865.82, 0.00, 0.00, 0.00, 0.00, 0.00, 0.00
171, -187500.02, -45244.33, -187500.02, -187500.02, -48194.41, 0.00, 0.00, 0.00, 0.00, 0.00, 0.00
172, -187500.02, -44613.77, -187500.02, -187500.02, -47660.00, 0.00, 0.00, 0.00, 0.00, 0.00, 0.00
173, -187500.02, -43055.45, -187500.02, -187500.02, -46243.72, 0.00, 0.00, 0.00, 0.00, 0.00, 0.00
174, -187500.02, -43481.32, -187500.02, -187500.02, -46593.51, 0.00, 0.00, 0.00, 0.00, 0.00, 0.00
175, -187500.02, -45121.73, -187500.02, -187500.02, -48091.61, 0.00, 0.00, 0.00, 0.00, 0.00, 0.00
176, -187500.02, -44903.11, -187500.02, -187500.02, -47944.13, 0.00, 0.00, 0.00, 0.00, 0.00, 0.00
177, -187500.02, -43262.45, -187500.02, -187500.02, -46469.88, 0.00, 0.00, 0.00, 0.00, 0.00, 0.00
178, -187500.02, -43254.29, -187500.02, -187500.02, -46408.32, 0.00, 0.00, 0.00, 0.00, 0.00, 0.00
179, -187500.02, -44925.15, -187500.02, -187500.02, -47923.14, 0.00, 0.00, 0.00, 0.00, 0.00, 0.00
180, -187500.02, -45160.34, -187500.02, -187500.02, -48182.00, 0.00, 0.00, 0.00, 0.00, 0.00, 0.00
181, -187500.02, -43540.10, -187500.02, -187500.02, -46714.83, 0.00, 0.00, 0.00, 0.00, 0.00, 0.00
182, -187500.02, -43085.24, -187500.02, -187500.02, -46250.99, 0.00, 0.00, 0.00, 0.00, 0.00, 0.00
183, -187500.02, -44657.49, -187500.02, -187500.02, -47658.77, 0.00, 0.00, 0.00, 0.00, 0.00, 0.00
184, -187500.02, -45268.96, -187500.02, -187500.02, -48247.47, 0.00, 0.00, 0.00, 0.00, 0.00, 0.00
185, -187500.02, -43795.52, -187500.02, -187500.02, -46932.94, 0.00, 0.00, 0.00, 0.00, 0.00, 0.00
186, -187500.02, -42930.73, -187500.02, -187500.02, -46112.43, 0.00, 0.00, 0.00, 0.00, 0.00, 0.00
187, -187500.02, -44323.53, -187500.02, -187500.02, -47345.64, 0.00, 0.00, 0.00, 0.00, 0.00, 0.00
188, -187500.02, -45317.76, -187500.02, -187500.02, -48283.01, 0.00, 0.00, 0.00, 0.00, 0.00, 0.00
189, -187500.02, -44076.72, -187500.02, -187500.02, -47192.33, 0.00, 0.00, 0.00, 0.00, 0.00, 0.00
190, -187500.02, -42904.60, -187500.02, -187500.02, -46103.54, 0.00, 0.00, 0.00, 0.00, 0.00, 0.00
191, -187500.02, -43990.09, -187500.02, -187500.02, -47047.13, 0.00, 0.00, 0.00, 0.00, 0.00, 0.00
192, -187500.02, -45280.86, -187500.02, -187500.02, -48237.28, 0.00, 0.00, 0.00, 0.00, 0.00, 0.00
193, -187500.02, -44402.68, -187500.02, -187500.02, -47485.12, 0.00, 0.00, 0.00, 0.00, 0.00, 0.00
194, -187500.02, -42974.16, -187500.02, -187500.02, -46177.32, 0.00, 0.00, 0.00, 0.00, 0.00, 0.00
195, -187500.02, -43680.71, -187500.02, -187500.02, -46776.70, 0.00, 0.00, 0.00, 0.00, 0.00, 0.00
196, -187500.02, -45205.44, -187500.02, -187500.02, -48162.98, 0.00, 0.00, 0.00, 0.00, 0.00, 0.00
197, -187500.02, -44724.32, -187500.02, -187500.02, -47762.73, 0.00, 0.00, 0.00, 0.00, 0.00, 0.00
198, -187500.02, -43132.11, -187500.02, -187500.02, -46320.77, 0.00, 0.00, 0.00, 0.00, 0.00, 0.00
199, -187500.02, -43426.24, -187500.02, -187500.02, -46546.01, 0.00, 0.00, 0.00, 0.00, 0.00, 0.00
200, -187500.02, -45101.57, -187500.02, -187500.02, -48066.44, 0.00, 0.00, 0.00, 0.00, 0.00, 0.00
201, -187500.02, -45033.33, -187500.02, -187500.02, -48052.72, 0.00, 0.00, 0.00, 0.00, 0.00, 0.00
202, -187500.02, -43376.71, -187500.02, -187500.02, -46561.92, 0.00, 0.00, 0.00, 0.00, 0.00, 0.00
203, -187500.02, -43211.55, -187500.02, -187500.02, -46381.45, 0.00, 0.00, 0.00, 0.00, 0.00, 0.00
204, -187500.02, -44850.23, -187500.02, -187500.02, -47867.42, 0.00, 0.00, 0.00, 0.00, 0.00, 0.00
205, -187500.02, -45230.68, -187500.02, -187500.02, -48251.80, 0.00, 0.00, 0.00, 0.00, 0.00, 0.00
206, -187500.02, -43668.42, -187500.02, -187500.02, -46839.64, 0.00, 0.00, 0.00, 0.00, 0.00, 0.00
207, -187500.02, -43076.14, -187500.02, -187500.02, -46263.95, 0.00, 0.00, 0.00, 0.00, 0.00, 0.00
208, -187500.02, -44587.23, -187500.02, -187500.02, -47605.26, 0.00, 0.00, 0.00, 0.00, 0.00, 0.00
209, -187500.02, -45343.64, -187500.02, -187500.02, -48311.02, 0.00, 0.00, 0.00, 0.00, 0.00, 0.00
210, -187500.02, -43946.93, -187500.02, -187500.02, -47067.83, 0.00, 0.00, 0.00, 0.00, 0.00, 0.00
211, -187500.02, -42979.99, -187500.02, -187500.02, -46167.50, 0.00, 0.00, 0.00, 0.00, 0.00, 0.00
212, -187500.02, -44267.45, -187500.02, -187500.02, -47301.48, 0.00, 0.00, 0.00, 0.00, 0.00, 0.00
213, -187500.02, -45362.84, -187500.02, -187500.02, -48321.45, 0.00, 0.00, 0.00, 0.00, 0.00, 0.00
214, -187500.02, -44264.28, -187500.02, -187500.02, -47361.98, 0.00, 0.00, 0.00, 0.00, 0.00, 0.00
215, -187500.02, -43013.07, -187500.02, -187500.02, -46209.26, 0.00, 0.00, 0.00, 0.00, 0.00, 0.00
216, -187500.02, -43954.91, -187500.02, -187500.02, -47023.62, 0.00, 0.00, 0.00, 0.00, 0.00, 0.00
217, -187500.02, -45332.29, -187500.02, -187500.02, -48281.04, 0.00, 0.00, 0.00, 0.00, 0.00, 0.00
218, -187500.02, -44571.93, -187500.02, -187500.02, -47625.96, 0.00, 0.00, 0.00, 0.00, 0.00, 0.00
219, -187500.02, -43075.59, -187500.02, -187500.02, -46256.87, 0.00, 0.00, 0.00, 0.00, 0.00, 0.00
220, -187500.02, -43632.97, -187500.02, -187500.02, -46726.77, 0.00, 0.00, 0.00, 0.00, 0.00, 0.00
221, -187500.02, -45193.73, -187500.02, -187500.02, -48148.88, 0.00, 0.00, 0.00, 0.00, 0.00, 0.00
222, -187500.02, -44842.61, -187500.02, -187500.02, -47877.88, 0.00, 0.00, 0.00, 0.00, 0.00, 0.00
223, -187500.02, -43258.25, -187500.02, -187500.02, -46447.19, 0.00, 0.00, 0.00, 0.00, 0.00, 0.00
224, -187500.02, -43391.35, -187500.02, -187500.02, -46516.41, 0.00, 0.00, 0.00, 0.00, 0.00, 0.00
225, -187500.02, -45040.64, -187500.02, -187500.02, -48010.45, 0.00, 0.00, 0.00, 0.00, 0.00, 0.00
226, -187500.02, -45111.81, -187500.02, -187500.02, -48115.84, 0.00, 0.00, 0.00, 0.00, 0.00, 0.00
227, -187500.02, -43520.54, -187500.02, -187500.02, -46681.46, 0.00, 0.00, 0.00, 0.00, 0.00, 0.00
228, -187500.02, -43215.18, -187500.02, -187500.02, -46351.35, 0.00, 0.00, 0.00, 0.00, 0.00, 0.00
229, -187500.02, -44836.79, -187500.02, -187500.02, -47802.71, 0.00, 0.00, 0.00, 0.00, 0.00, 0.00
230, -187500.02, -45330.48, -187500.02, -187500.02, -48297.40, 0.00, 0.00, 0.00, 0.00, 0.00, 0.00
231, -187500.02, -43829.51, -187500.02, -187500.02, -46969.11, 0.00, 0.00, 0.00, 0.00, 0.00, 0.00
232, -187500.02, -43105.52, -187500.02, -187500.02, -46286.01, 0.00, 0.00, 0.00, 0.00, 0.00, 0.00
233, -187500.02, -44536.54, -187500.02, -187500.02, -47556.00, 0.00, 0.00, 0.00, 0.00, 0.00, 0.00
234, -187500.02, -45407.72, -187500.02, -187500.02, -48358.91, 0.00, 0.00, 0.00, 0.00, 0.00, 0.00
235, -187500.02, -44113.67, -187500.02, -187500.02, -47203.06, 0.00, 0.00, 0.00, 0.00, 0.00, 0.00
236, -187500.02, -43048.27, -187500.02, -187500.02, -46236.23, 0.00, 0.00, 0.00, 0.00, 0.00, 0.00
237, -187500.02, -44201.49, -187500.02, -187500.02, -47257.53, 0.00, 0.00, 0.00, 0.00, 0.00, 0.00
238, -187500.02, -45407.66, -187500.02, -187500.02, -48357.50, 0.00, 0.00, 0.00, 0.00, 0.00, 0.00
239, -187500.02, -44438.84, -187500.02, -187500.02, -47509.21, 0.00, 0.00, 0.00, 0.00, 0.00, 0.00
240, -187500.02, -43095.37, -187500.02, -187500.02, -46282.62, 0.00, 0.00, 0.00, 0.00, 0.00, 0.00
241, -187500.02, -43880.07, -187500.02, -187500.02, -46950.24, 0.00, 0.00, 0.00, 0.00, 0.00, 0.00
242, -187500.02, -45335.86, -187500.02, -187500.02, -48279.54, 0.00, 0.00, 0.00, 0.00, 0.00, 0.00
243, -187500.02, -44746.49, -187500.02, -187500.02, -47792.83, 0.00, 0.00, 0.00, 0.00, 0.00, 0.00
244, -187500.02, -43221.72, -187500.02, -187500.02, -46414.67, 0.00, 0.00, 0.00, 0.00, 0.00, 0.00
245, -187500.02, -43592.29, -187500.02, -187500.02, -46710.34, 0.00, 0.00, 0.00, 0.00, 0.00, 0.00
246, -187500.02, -45196.86, -187500.02, -187500.02, -48159.76, 0.00, 0.00, 0.00, 0.00, 0.00, 0.00
247, -187500.02, -45060.04, -187500.02, -187500.02, -48070.20, 0.00, 0.00, 0.00, 0.00, 0.00, 0.00
248, -187500.02, -43461.49, -187500.02, -187500.02, -46626.86, 0.00, 0.00, 0.00, 0.00, 0.00, 0.00
249, -187500.02, -43390.28, -187500.02, -187500.02, -46521.78, 0.00, 0.00, 0.00, 0.00, 0.00, 0.00
250, -187500.02, -45011.70, -187500.02, -187500.02, -47982.18, 0.00, 0.00, 0.00, 0.00, 0.00, 0.00
251, -187500.02, -45293.37, -187500.02, -187500.02, -48276.48, 0.00, 0.00, 0.00, 0.00, 0.00, 0.00
252, -187500.02, -43730.80, -187500.02, -187500.02, -46878.78, 0.00, 0.00, 0.00, 0.00, 0.00, 0.00
253, -187500.02, -43225.81, -187500.02, -187500.02, -46396.63, 0.00, 0.00, 0.00, 0.00, 0.00, 0.00
254, -187500.02, -44776.98, -187500.02, -187500.02, -47784.18, 0.00, 0.00, 0.00, 0.00, 0.00, 0.00
255, -187500.02, -45493.22, -187500.02, -187500.02, -48461.40, 0.00, 0.00, 0.00, 0.00, 0.00, 0.00
0, -187500.02, -44080.90, -187500.02, -187500.02, -47213.16, 0.00, 0.00, 0.00, 0.00, 0.00, 0.00
1, -187500.02, -43166.85, -187500.02, -187500.02, -46355.88, 0.00, 0.00, 0.00, 0.00, 0.00, 0.00
2, -187500.02, -44498.25, -187500.02, -187500.02, -47519.23, 0.00, 0.00, 0.00, 0.00, 0.00, 0.00
3, -187500.02, -45549.88, -187500.02, -187500.02, -48508.96, 0.00, 0.00, 0.00, 0.00, 0.00, 0.00
4, -187500.02, -44394.86, -187500.02, -187500.02, -47503.45, 0.00, 0.00, 0.00, 0.00, 0.00, 0.00
5, -187500.02, -43163.21, -187500.02, -187500.02, -46367.24, 0.00, 0.00, 0.00, 0.00, 0.00, 0.00
6, -187500.02, -44182.63, -187500.02, -187500.02, -47249.93, 0.00, 0.00, 0.00, 0.00, 0.00, 0.00
7, -187500.02, -45525.79, -187500.02, -187500.02, -48481.71, 0.00, 0.00, 0.00, 0.00, 0.00, 0.00
8, -187500.02, -44723.56, -187500.02, -187500.02, -47792.92, 0.00, 0.00, 0.00, 0.00, 0.00, 0.00
9, -187500.02, -43284.00, -187500.02, -187500.02, -46473.88, 0.00, 0.00, 0.00, 0.00, 0.00, 0.00
10, -187500.02, -43893.04, -187500.02, -187500.02, -46983.75, 0.00, 0.00, 0.00, 0.00, 0.00, 0.00
11, -187500.02, -45442.73, -187500.02, -187500.02, -48387.97, 0.00, 0.00, 0.00, 0.00, 0.00, 0.00
12, -187500.02, -45048.62, -187500.02, -187500.02, -48064.72, 0.00, 0.00, 0.00, 0.00, 0.00, 0.00
13, -187500.02, -43437.89, -187500.02, -187500.02, -46602.76, 0.00, 0.00, 0.00, 0.00, 0.00, 0.00
14, -187500.02, -43596.45, -187500.02, -187500.02, -46717.96, 0.00, 0.00, 0.00, 0.00, 0.00, 0.00
15, -187500.02, -45257.79, -187500.02, -187500.02, -48229.05, 0.00, 0.00, 0.00, 0.00, 0.00, 0.00
16, -187500.02, -45306.00, -187500.02, -187500.02, -48306.14, 0.00, 0.00, 0.00, 0.00, 0.00, 0.00
17, -187500.02, -43694.15, -187500.02, -187500.02, -46859.07, 0.00, 0.00, 0.00, 0.00, 0.00, 0.00
18, -187500.02, -43440.10, -187500.02, -187500.02, -46598.31, 0.00, 0.00, 0.00, 0.00, 0.00, 0.00
19, -187500.02, -45058.93, -187500.02, -187500.02, -48046.95, 0.00, 0.00, 0.00, 0.00, 0.00, 0.00
20, -187500.02, -45533.27, -187500.02, -187500.02, -48512.27, 0.00, 0.00, 0.00, 0.00, 0.00, 0.00
21, -187500.02, -44006.79, -187500.02, -187500.02, -47146.62, 0.00, 0.00, 0.00, 0.00, 0.00, 0.00
22, -187500.02, -43336.93, -187500.02, -187500.02, -46512.66, 0.00, 0.00, 0.00, 0.00, 0.00, 0.00
23, -187500.02, -44797.61, -187500.02, -187500.02, -47810.31, 0.00, 0.00, 0.00, 0.00, 0.00, 0.00
24, -187500.02, -45643.49, -187500.02, -187500.02, -48593.07, 0.00, 0.00, 0.00, 0.00, 0.00, 0.00
25, -187500.02, -44339.87, -187500.02, -187500.02, -47442.49, 0.00, 0.00, 0.00, 0.00, 0.00, 0.00
26, -187500.02, -43293.02, -187500.02, -187500.02, -46473.39, 0.00, 0.00, 0.00, 0.00, 0.00, 0.00
27, -187500.02, -44473.49, -187500.02, -187500.02, -47515.07, 0.00, 0.00, 0.00, 0.00, 0.00, 0.00
28, -187500.02, -45618.95, -187500.02, -187500.02, -48579.77, 0.00, 0.00, 0.00, 0.00, 0.00, 0.00
29, -187500.02, -44586.50, -187500.02, -187500.02, -47681.37, 0.00, 0.00, 0.00, 0.00, 0.00, 0.00
30, -187500.02, -43278.68, -187500.02, -187500.02, -46487.49, 0.00, 0.00, 0.00, 0.00, 0.00, 0.00
31, -187500.02, -44113.22, -187500.02, -187500.02, -47206.12, 0.00, 0.00, 0.00, 0.00, 0.00, 0.00
32, -187500.02, -45526.99, -187500.02, -187500.02, -48496.31, 0.00, 0.00, 0.00, 0.00, 0.00, 0.00
33, -187500.02, -44877.18, -187500.02, -187500.02, -47939.66, 0.00, 0.00, 0.00, 0.00, 0.00, 0.00
34, -187500.02, -43382.77, -187500.02, -187500.02, -46569.39, 0.00, 0.00, 0.00, 0.00, 0.00, 0.00
35, -187500.02, -43796.86, -187500.02, -187500.02, -46903.95, 0.00, 0.00, 0.00, 0.00, 0.00, 0.00
36, -187500.02, -45377.62, -187500.02, -187500.02, -48325.05, 0.00, 0.00, 0.00, 0.00, 0.00, 0.00
37, -187500.02, -45164.47, -187500.02, -187500.02, -48168.21, 0.00, 0.00, 0.00, 0.00, 0.00, 0.00
38, -187500.02, -43588.67, -187500.02, -187500.02, -46749.05, 0.00, 0.00, 0.00, 0.00, 0.00, 0.00
39, -187500.02, -43582.41, -187500.02, -187500.02, -46709.38, 0.00, 0.00, 0.00, 0.00, 0.00, 0.00
40, -187500.02, -45156.63, -187500.02, -187500.02, -48153.08, 0.00, 0.00, 0.00, 0.00, 0.00, 0.00
41, -187500.02, -45358.24, -187500.02, -187500.02, -48376.13, 0.00, 0.00, 0.00, 0.00, 0.00, 0.00
42, -187500.02, -43823.97, -187500.02, -187500.02, -46990.65, 0.00, 0.00, 0.00, 0.00, 0.00, 0.00
43, -187500.02, -43422.57, -187500.02, -187500.02, -46583.47, 0.00, 0.00, 0.00, 0.00, 0.00, 0.00
44, -187500.02, -44970.05, -187500.02, -187500.02, -47961.19, 0.00, 0.00, 0.00, 0.00, 0.00, 0.00
45, -187500.02, -45579.32, -187500.02, -187500.02, -48545.11, 0.00, 0.00, 0.00, 0.00, 0.00, 0.00
46, -187500.02, -44152.98, -187500.02, -187500.02, -47277.25, 0.00, 0.00, 0.00, 0.00, 0.00, 0.00
47, -187500.02, -43340.95, -187500.02, -187500.02, -46506.36, 0.00, 0.00, 0.00, 0.00, 0.00, 0.00
48, -187500.02, -44705.79, -187500.02, -187500.02, -47712.66, 0.00, 0.00, 0.00, 0.00, 0.00, 0.00
49, -187500.02, -45663.70, -187500.02, -187500.02, -48604.36, 0.00, 0.00, 0.00, 0.00, 0.00, 0.00
50, -187500.02, -44460.97, -187500.02, -187500.02, -47557.00, 0.00, 0.00, 0.00, 0.00, 0.00, 0.00
51, -187500.02, -43315.20, -187500.02, -187500.02, -46512.10, 0.00, 0.00, 0.00, 0.00, 0.00, 0.00
52, -187500.02, -44362.49, -187500.02, -187500.02, -47430.42, 0.00, 0.00, 0.00, 0.00, 0.00, 0.00
53, -187500.02, -45617.09, -187500.02, -187500.02, -48575.05, 0.00, 0.00, 0.00, 0.00, 0.00, 0.00
54, -187500.02, -44736.43, -187500.02, -187500.02, -47799.07, 0.00, 0.00, 0.00, 0.00, 0.00, 0.00
55, -187500.02, -43351.36, -187500.02, -187500.02, -46538.23, 0.00, 0.00, 0.00, 0.00, 0.00, 0.00
56, -187500.02, -44034.88, -187500.02, -187500.02, -47118.46, 0.00, 0.00, 0.00, 0.00, 0.00, 0.00
57, -187500.02, -45500.08, -187500.02, -187500.02, -48440.34, 0.00, 0.00, 0.00, 0.00, 0.00, 0.00
58, -187500.02, -45013.44, -187500.02, -187500.02, -48034.03, 0.00, 0.00, 0.00, 0.00, 0.00, 0.00
59, -187500.02, -43487.24, -187500.02, -187500.02, -46659.64, 0.00, 0.00, 0.00, 0.00, 0.00, 0.00
60, -187500.02, -43765.23, -187500.02, -187500.02, -46877.46, 0.00, 0.00, 0.00, 0.00, 0.00, 0.00
61, -187500.02, -45353.07, -187500.02, -187500.02, -48315.46, 0.00, 0.00, 0.00, 0.00, 0.00, 0.00
62, -187500.02, -45285.66, -187500.02, -187500.02, -48296.13, 0.00, 0.00, 0.00, 0.00, 0.00, 0.00
63, -187500.02, -43698.17, -187500.02, -187500.02, -46865.82, 0.00, 0.00, 0.00, 0.00, 0.00, 0.00
64, -187500.02, -43520.92, -187500.02, -187500.02, -46659.67, 0.00, 0.00, 0.00, 0.00, 0.00, 0.00
65, -187500.02, -45147.37, -187500.02, -187500.02, -48121.40, 0.00, 0.00, 0.00, 0.00, 0.00, 0.00
66, -187500.02, -45502.47, -187500.02, -187500.02, -48476.84, 0.00, 0.00, 0.00, 0.00, 0.00, 0.00
67, -187500.02, -43973.01, -187500.02, -187500.02, -47113.14, 0.00, 0.00, 0.00, 0.00, 0.00, 0.00
68, -187500.02, -43411.87, -187500.02, -187500.02, -46567.20, 0.00, 0.00, 0.00, 0.00, 0.00, 0.00
69, -187500.02, -44918.87, -187500.02, -187500.02, -47907.18, 0.00, 0.00, 0.00, 0.00, 0.00, 0.00
70, -187500.02, -45670.25, -187500.02, -187500.02, -48624.96, 0.00, 0.00, 0.00, 0.00, 0.00, 0.00
71, -187500.02, -44301.85, -187500.02, -187500.02, -47429.82, 0.00, 0.00, 0.00, 0.00, 0.00, 0.00
72, -187500.02, -43371.10, -187500.02, -187500.02, -46568.56, 0.00, 0.00, 0.00, 0.00, 0.00, 0.00
73, -187500.02, -44659.68, -187500.02, -187500.02, -47690.82, 0.00, 0.00, 0.00, 0.00, 0.00, 0.00
74, -187500.02, -45732.85, -187500.02, -187500.02, -48674.30, 0.00, 0.00, 0.00, 0.00, 0.00, 0.00
75, -187500.02, -44647.70, -187500.02, -187500.02, -47731.59, 0.00, 0.00, 0.00, 0.00, 0.00, 0.00
76, -187500.02, -43426.02, -187500.02, -187500.02, -46609.73, 0.00, 0.00, 0.00, 0.00, 0.00, 0.00
77, -187500.02, -44343.67, -187500.02, -187500.02, -47396.78, 0.00, 0.00, 0.00, 0.00, 0.00, 0.00
78, -187500.02, -45692.38, -187500.02, -187500.02, -48634.64, 0.00, 0.00, 0.00, 0.00, 0.00, 0.00
79, -187500.02, -44939.61, -187500.02, -187500.02, -47986.89, 0.00, 0.00, 0.00, 0.00, 0.00, 0.00
80, -187500.02, -43506.15, -187500.02, -187500.02, -46682.40, 0.00, 0.00, 0.00, 0.00, 0.00, 0.00
81, -187500.02, -44045.03, -187500.02, -187500.02, -47130.86, 0.00, 0.00, 0.00, 0.00, 0.00, 0.00
82, -187500.02, -45572.68, -187500.02, -187500.02, -48515.15, 0.00, 0.00, 0.00, 0.00, 0.00, 0.00
83, -187500.02, -45225.00, -187500.02, -187500.02, -48239.02, 0.00, 0.00, 0.00, 0.00, 0.00, 0.00
84, -187500.02, -43658.39, -187500.02, -187500.02, -46828.00, 0.00, 0.00, 0.00, 0.00, 0.00, 0.00
85, -187500.02, -43768.60, -187500.02, -187500.02, -46889.38, 0.00, 0.00, 0.00, 0.00, 0.00, 0.00
86, -187500.02, -45372.86, -187500.02, -187500.02, -48336.18, 0.00, 0.00, 0.00, 0.00, 0.00, 0.00
87, -187500.02, -45447.62, -187500.02, -187500.02, -48440.92, 0.00, 0.00, 0.00, 0.00, 0.00, 0.00
88, -187500.02, -43869.79, -187500.02, -187500.02, -47027.31, 0.00, 0.00, 0.00, 0.00, 0.00, 0.00
89, -187500.02, -43568.82, -187500.02, -187500.02, -46716.93, 0.00, 0.00, 0.00, 0.00, 0.00, 0.00
90, -187500.02, -45108.52, -187500.02, -187500.02, -48081.53, 0.00, 0.00, 0.00, 0.00, 0.00, 0.00
91, -187500.02, -45610.39, -187500.02, -187500.02, -48572.66, 0.00, 0.00, 0.00, 0.00, 0.00, 0.00
92, -187500.02, -44148.72, -187500.02, -187500.02, -47281.74, 0.00, 0.00, 0.00, 0.00, 0.00, 0.00
93, -187500.02, -43457.98, -187500.02, -187500.02, -46631.82, 0.00, 0.00, 0.00, 0.00, 0.00, 0.00
94, -187500.02, -44903.87, -187500.02, -187500.02, -47904.70, 0.00, 0.00, 0.00, 0.00, 0.00, 0.00
95, -187500.02, -45772.64, -187500.02, -187500.02, -48710.62, 0.00, 0.00, 0.00, 0.00, 0.00, 0.00
96, -187500.02, -44511.87, -187500.02, -187500.02, -47598.95, 0.00, 0.00, 0.00, 0.00, 0.00, 0.00
97, -187500.02, -43461.22, -187500.02, -187500.02, -46627.77, 0.00, 0.00, 0.00, 0.00, 0.00, 0.00
98, -187500.02, -44617.28, -187500.02, -187500.02, -47646.27, 0.00, 0.00, 0.00, 0.00, 0.00, 0.00
99, -187500.02, -45799.53, -187500.02, -187500.02, -48739.52, 0.00, 0.00, 0.00, 0.00, 0.00, 0.00
100, -187500.02, -44841.80, -187500.02, -187500.02, -47911.34, 0.00, 0.00, 0.00, 0.00, 0.00, 0.00
101, -187500.02, -43516.05, -187500.02, -187500.02, -46697.02, 0.00, 0.00, 0.00, 0.00, 0.00, 0.00
102, -187500.02, -44326.68, -187500.02, -187500.02, -47380.98, 0.00, 0.00, 0.00, 0.00, 0.00, 0.00
103, -187500.02, -45739.65, -187500.02, -187500.02, -48663.66, 0.00, 0.00, 0.00, 0.00, 0.00, 0.00
104, -187500.02, -45107.70, -187500.02, -187500.02, -48137.43, 0.00, 0.00, 0.00, 0.00, 0.00, 0.00
105, -187500.02, -43607.71, -187500.02, -187500.02, -46776.77, 0.00, 0.00, 0.00, 0.00, 0.00, 0.00
106, -187500.02, -44003.59, -187500.02, -187500.02, -47100.55, 0.00, 0.00, 0.00, 0.00, 0.00, 0.00
107, -187500.02, -45579.54, -187500.02, -187500.02, -48528.90, 0.00, 0.00, 0.00, 0.00, 0.00, 0.00
108, -187500.02, -45389.69, -187500.02, -187500.02, -48391.32, 0.00, 0.00, 0.00, 0.00, 0.00, 0.00
109, -187500.02, -43790.35, -187500.02, -187500.02, -46952.72, 0.00, 0.00, 0.00, 0.00, 0.00, 0.00
110, -187500.02, -43755.24, -187500.02, -187500.02, -46886.02, 0.00, 0.00, 0.00, 0.00, 0.00, 0.00
111, -187500.02, -45390.56, -187500.02, -187500.02, -48355.09, 0.00, 0.00, 0.00, 0.00, 0.00, 0.00
112, -187500.02, -45618.39, -187500.02, -187500.02, -48590.19, 0.00, 0.00, 0.00, 0.00, 0.00, 0.00
113, -187500.02, -44052.67, -187500.02, -187500.02, -47182.83, 0.00, 0.00, 0.00, 0.00, 0.00, 0.00
114, -187500.02, -43590.95, -187500.02, -187500.02, -46735.73, 0.00, 0.00, 0.00, 0.00, 0.00, 0.00
115, -187500.02, -45118.25, -187500.02, -187500.02, -48093.33, 0.00, 0.00, 0.00, 0.00, 0.00, 0.00
116, -187500.02, -45742.15, -187500.02, -187500.02, -48691.20, 0.00, 0.00, 0.00, 0.00, 0.00, 0.00
117, -187500.02, -44309.67, -187500.02, -187500.02, -47433.15, 0.00, 0.00, 0.00, 0.00, 0.00, 0.00
118, -187500.02, -43492.31, -187500.02, -187500.02, -46674.82, 0.00, 0.00, 0.00, 0.00, 0.00, 0.00
119, -187500.02, -44852.44, -187500.02, -187500.02, -47876.14, 0.00, 0.00, 0.00, 0.00, 0.00, 0.00
120, -187500.02, -45873.58, -187500.02, -187500.02, -48817.06, 0.00, 0.00, 0.00, 0.00, 0.00, 0.00
121, -187500.02, -44708.02, -187500.02, -187500.02, -47794.06, 0.00, 0.00, 0.00, 0.00, 0.00, 0.00
122, -187500.02, -43548.91, -187500.02, -187500.02, -46730.50, 0.00, 0.00, 0.00, 0.00, 0.00, 0.00
123, -187500.02, -44577.82, -187500.02, -187500.02, -47621.30, 0.00, 0.00, 0.00, 0.00, 0.00, 0.00
124, -187500.02, -45867.21, -187500.02, -187500.02, -48801.34, 0.00, 0.00, 0.00, 0.00, 0.00, 0.00
125, -187500.02, -45043.26, -187500.02, -187500.02, -48098.45, 0.00, 0.00, 0.00, 0.00, 0.00, 0.00
126, -187500.02, -43626.74, -187500.02, -187500.02, -46809.11, 0.00, 0.00, 0.00, 0.00, 0.00, 0.00
127, -187500.02, -44260.27, -187500.02, -187500.02, -47347.23, 0.00, 0.00, 0.00, 0.00, 0.00, 0.00
128, -187500.02, -45729.68, -187500.02, -187500.02, -48678.21, 0.00, 0.00, 0.00, 0.00, 0.00, 0.00
129, -187500.02, -45286.87, -187500.02, -187500.02, -48309.18, 0.00, 0.00, 0.00, 0.00, 0.00, 0.00
130, -187500.02, -43714.85, -187500.02, -187500.02, -46885.60, 0.00, 0.00, 0.00, 0.00, 0.00, 0.00
131, -187500.02, -43922.94, -187500.02, -187500.02, -47035.36, 0.00, 0.00, 0.00, 0.00, 0.00, 0.00
132, -187500.02, -45517.83, -187500.02, -187500.02, -48473.27, 0.00, 0.00, 0.00, 0.00, 0.00, 0.00
133, -187500.02, -45506.16, -187500.02, -187500.02, -48500.69, 0.00, 0.00, 0.00, 0.00, 0.00, 0.00
134, -187500.02, -43927.90, -187500.02, -187500.02, -47080.84, 0.00, 0.00, 0.00, 0.00, 0.00, 0.00
135, -187500.02, -43721.91, -187500.02, -187500.02, -46850.20, 0.00, 0.00, 0.00, 0.00, 0.00, 0.00
136, -187500.02, -45309.60, -187500.02, -187500.02, -48263.94, 0.00, 0.00, 0.00, 0.00, 0.00, 0.00
137, -187500.02, -45690.29, -187500.02, -187500.02, -48654.52, 0.00, 0.00, 0.00, 0.00, 0.00, 0.00
138, -187500.02, -44183.81, -187500.02, -187500.02, -47315.98, 0.00, 0.00, 0.00, 0.00, 0.00, 0.00
139, -187500.02, -43583.55, -187500.02, -187500.02, -46732.31, 0.00, 0.00, 0.00, 0.00, 0.00, 0.00
140, -187500.02, -45033.82, -187500.02, -187500.02, -48015.21, 0.00, 0.00, 0.00, 0.00, 0.00, 0.00
141, -187500.02, -45808.38, -187500.02, -187500.02, -48742.18, 0.00, 0.00, 0.00, 0.00, 0.00, 0.00
142, -187500.02, -44506.23, -187500.02, -187500.02, -47594.66, 0.00, 0.00, 0.00, 0.00, 0.00, 0.00
143, -187500.02, -43548.28, -187500.02, -187500.02, -46712.95, 0.00, 0.00, 0.00, 0.00, 0.00, 0.00
144, -187500.02, -44747.99, -187500.02, -187500.02, -47772.85, 0.00, 0.00, 0.00, 0.00, 0.00, 0.00
145, -187500.02, -45853.20, -187500.02, -187500.02, -48797.05, 0.00, 0.00, 0.00, 0.00, 0.00, 0.00
146, -187500.02, -44819.29, -187500.02, -187500.02, -47887.29, 0.00, 0.00, 0.00, 0.00, 0.00, 0.00
147, -187500.02, -43585.14, -187500.02, -187500.02, -46756.90, 0.00, 0.00, 0.00, 0.00, 0.00, 0.00
148, -187500.02, -44473.18, -187500.02, -187500.02, -47530.02, 0.00, 0.00, 0.00, 0.00, 0.00, 0.00
149, -187500.02, -45828.36, -187500.02, -187500.02, -48766.81, 0.00, 0.00, 0.00, 0.00, 0.00, 0.00
150, -187500.02, -45143.95, -187500.02, -187500.02, -48187.36, 0.00, 0.00, 0.00, 0.00, 0.00, 0.00
151, -187500.02, -43691.73, -187500.02, -187500.02, -46870.85, 0.00, 0.00, 0.00, 0.00, 0.00, 0.00
152, -187500.02, -44170.09, -187500.02, -187500.02, -47266.27, 0.00, 0.00, 0.00, 0.00, 0.00, 0.00
153, -187500.02, -45695.12, -187500.02, -187500.02, -48638.07, 0.00, 0.00, 0.00, 0.00, 0.00, 0.00
154, -187500.02, -45439.73, -187500.02, -187500.02, -48447.36, 0.00, 0.00, 0.00, 0.00, 0.00, 0.00
155, -187500.02, -43889.77, -187500.02, -187500.02, -47061.53, 0.00, 0.00, 0.00, 0.00, 0.00, 0.00
156, -187500.02, -43928.75, -187500.02, -187500.02, -47062.60, 0.00, 0.00, 0.00, 0.00, 0.00, 0.00
157, -187500.02, -45529.14, -187500.02, -187500.02, -48491.32, 0.00, 0.00, 0.00, 0.00, 0.00, 0.00
158, -187500.02, -45659.94, -187500.02, -187500.02, -48632.36, 0.00, 0.00, 0.00, 0.00, 0.00, 0.00
159, -187500.02, -44088.52, -187500.02, -187500.02, -47230.55, 0.00, 0.00, 0.00, 0.00, 0.00, 0.00
160, -187500.02, -43730.38, -187500.02, -187500.02, -46878.58, 0.00, 0.00, 0.00, 0.00, 0.00, 0.00
161, -187500.02, -45286.22, -187500.02, -187500.02, -48268.50, 0.00, 0.00, 0.00, 0.00, 0.00, 0.00
162, -187500.02, -45801.85, -187500.02, -187500.02, -48761.36, 0.00, 0.00, 0.00, 0.00, 0.00, 0.00
163, -187500.02, -44358.20, -187500.02, -187500.02, -47486.79, 0.00, 0.00, 0.00, 0.00, 0.00, 0.00
164, -187500.02, -43638.92, -187500.02, -187500.02, -46807.28, 0.00, 0.00, 0.00, 0.00, 0.00, 0.00
165, -187500.02, -45012.43, -187500.02, -187500.02, -48019.64, 0.00, 0.00, 0.00, 0.00, 0.00, 0.00
166, -187500.02, -45887.66, -187500.02, -187500.02, -48839.43, 0.00, 0.00, 0.00, 0.00, 0.00, 0.00
167, -187500.02, -44674.00, -187500.02, -187500.02, -47776.07, 0.00, 0.00, 0.00, 0.00, 0.00, 0.00
168, -187500.02, -43618.15, -187500.02, -187500.02, -46800.77, 0.00, 0.00, 0.00, 0.00, 0.00, 0.00
169, -187500.02, -44723.49, -187500.02, -187500.02, -47757.05, 0.00, 0.00, 0.00, 0.00, 0.00, 0.00
170, -187500.02, -45910.73, -187500.02, -187500.02, -48848.20, 0.00, 0.00, 0.00, 0.00, 0.00, 0.00
171, -187500.02, -45004.81, -187500.02, -187500.02, -48067.56, 0.00, 0.00, 0.00, 0.00, 0.00, 0.00
172, -187500.02, -43694.06, -187500.02, -187500.02, -46874.27, 0.00, 0.00, 0.00, 0.00, 0.00, 0.00
173, -187500.02, -44443.18, -187500.02, -187500.02, -47526.63, 0.00, 0.00, 0.00, 0.00, 0.00, 0.00
174, -187500.02, -45853.44, -187500.02, -187500.02, -48811.83, 0.00, 0.00, 0.00, 0.00, 0.00, 0.00
175, -187500.02, -45308.15, -187500.02, -187500.02, -48347.27, 0.00, 0.00, 0.00, 0.00, 0.00, 0.00
176, -187500.02, -43838.21, -187500.02, -187500.02, -47018.73, 0.00, 0.00, 0.00, 0.00, 0.00, 0.00
177, -187500.02, -44197.31, -187500.02, -187500.02, -47311.20, 0.00, 0.00, 0.00, 0.00, 0.00, 0.00
178, -187500.02, -45728.47, -187500.02, -187500.02, -48697.16, 0.00, 0.00, 0.00, 0.00, 0.00, 0.00
179, -187500.02, -45594.99, -187500.02, -187500.02, -48610.04, 0.00, 0.00, 0.00, 0.00, 0.00, 0.00
180, -187500.02, -44071.83, -187500.02, -187500.02, -47231.85, 0.00, 0.00, 0.00, 0.00, 0.00, 0.00
181, -187500.02, -43995.45, -187500.02, -187500.02, -47133.41, 0.00, 0.00, 0.00, 0.00, 0.00, 0.00
182, -187500.02, -45562.78, -187500.02, -187500.02, -48542.89, 0.00, 0.00, 0.00, 0.00, 0.00, 0.00
183, -187500.02, -45798.19, -187500.02, -187500.02, -48795.27, 0.00, 0.00, 0.00, 0.00, 0.00, 0.00
184, -187500.02, -44297.42, -187500.02, -187500.02, -47451.88, 0.00, 0.00, 0.00, 0.00, 0.00, 0.00
185, -187500.02, -43828.71, -187500.02, -187500.02, -46987.70, 0.00, 0.00, 0.00, 0.00, 0.00, 0.00
186, -187500.02, -45307.54, -187500.02, -187500.02, -48299.95, 0.00, 0.00, 0.00, 0.00, 0.00, 0.00
187, -187500.02, -45947.56, -187500.02, -187500.02, -48911.27, 0.00, 0.00, 0.00, 0.00, 0.00, 0.00
188, -187500.02, -44563.48, -187500.02, -187500.02, -47692.39, 0.00, 0.00, 0.00, 0.00, 0.00, 0.00
189, -187500.02, -43693.66, -187500.02, -187500.02, -46879.81, 0.00, 0.00, 0.00, 0.00, 0.00, 0.00
190, -187500.02, -44947.25, -187500.02, -187500.02, -47966.71, 0.00, 0.00, 0.00, 0.00, 0.00, 0.00
191, -187500.02, -45917.68, -187500.02, -187500.02, -48862.88, 0.00, 0.00, 0.00, 0.00, 0.00, 0.00
192, -187500.02, -44786.28, -187500.02, -187500.02, -47881.17, 0.00, 0.00, 0.00, 0.00, 0.00, 0.00
193, -187500.02, -43609.55, -187500.02, -187500.02, -46804.57, 0.00, 0.00, 0.00, 0.00, 0.00, 0.00
194, -187500.02, -44580.53, -187500.02, -187500.02, -47636.53, 0.00, 0.00, 0.00, 0.00, 0.00, 0.00
195, -187500.02, -45844.81, -187500.02, -187500.02, -48783.26, 0.00, 0.00, 0.00, 0.00, 0.00, 0.00
196, -187500.02, -45050.74, -187500.02, -187500.02, -48099.41, 0.00, 0.00, 0.00, 0.00, 0.00, 0.00
197, -187500.02, -43678.50, -187500.02, -187500.02, -46851.73, 0.00, 0.00, 0.00, 0.00, 0.00, 0.00
198, -187500.02, -44262.87, -187500.02, -187500.02, -47343.88, 0.00, 0.00, 0.00, 0.00, 0.00, 0.00
199, -187500.02, -45717.72, -187500.02, -187500.02, -48664.17, 0.00, 0.00, 0.00, 0.00, 0.00, 0.00
200, -187500.02, -45308.59, -187500.02, -187500.02, -48320.04, 0.00, 0.00, 0.00, 0.00, 0.00, 0.00
201, -187500.02, -43823.84, -187500.02, -187500.02, -46978.20, 0.00, 0.00, 0.00, 0.00, 0.00, 0.00
202, -187500.02, -43981.44, -187500.02, -187500.02, -47083.97, 0.00, 0.00, 0.00, 0.00, 0.00, 0.00
203, -187500.02, -45542.44, -187500.02, -187500.02, -48480.86, 0.00, 0.00, 0.00, 0.00, 0.00, 0.00
204, -187500.02, -45535.87, -187500.02, -187500.02, -48496.82, 0.00, 0.00, 0.00, 0.00, 0.00, 0.00
205, -187500.02, -43993.53, -187500.02, -187500.02, -47123.29, 0.00, 0.00, 0.00, 0.00, 0.00, 0.00
206, -187500.02, -43770.28, -187500.02, -187500.02, -46900.51, 0.00, 0.00, 0.00, 0.00, 0.00, 0.00
207, -187500.02, -45286.69, -187500.02, -187500.02, -48252.18, 0.00, 0.00, 0.00, 0.00, 0.00, 0.00
208, -187500.02, -45686.50, -187500.02, -187500.02, -48646.11, 0.00, 0.00, 0.00, 0.00, 0.00, 0.00
209, -187500.02, -44256.48, -187500.02, -187500.02, -47375.10, 0.00, 0.00, 0.00, 0.00, 0.00, 0.00
210, -187500.02, -43646.68, -187500.02, -187500.02, -46781.57, 0.00, 0.00, 0.00, 0.00, 0.00, 0.00
211, -187500.02, -45067.33, -187500.02, -187500.02, -48032.76, 0.00, 0.00, 0.00, 0.00, 0.00, 0.00
212, -187500.02, -45853.98, -187500.02, -187500.02, -48774.84, 0.00, 0.00, 0.00, 0.00, 0.00, 0.00
213, -187500.02, -44584.71, -187500.02, -187500.02, -47669.68, 0.00, 0.00, 0.00, 0.00, 0.00, 0.00
214, -187500.02, -43624.61, -187500.02, -187500.02, -46783.68, 0.00, 0.00, 0.00, 0.00, 0.00, 0.00
215, -187500.02, -44806.66, -187500.02, -187500.02, -47820.97, 0.00, 0.00, 0.00, 0.00, 0.00, 0.00
216, -187500.02, -45888.91, -187500.02, -187500.02, -48811.78, 0.00, 0.00, 0.00, 0.00, 0.00, 0.00
217, -187500.02, -44896.81, -187500.02, -187500.02, -47949.12, 0.00, 0.00, 0.00, 0.00, 0.00, 0.00
218, -187500.02, -43672.58, -187500.02, -187500.02, -46829.54, 0.00, 0.00, 0.00, 0.00, 0.00, 0.00
219, -187500.02, -44503.89, -187500.02, -187500.02, -47538.18, 0.00, 0.00, 0.00, 0.00, 0.00, 0.00
220, -187500.02, -45834.06, -187500.02, -187500.02, -48739.45, 0.00, 0.00, 0.00, 0.00, 0.00, 0.00
221, -187500.02, -45192.75, -187500.02, -187500.02, -48198.09, 0.00, 0.00, 0.00, 0.00, 0.00, 0.00
222, -187500.02, -43759.73, -187500.02, -187500.02, -46892.21, 0.00, 0.00, 0.00, 0.00, 0.00, 0.00
223, -187500.02, -44188.84, -187500.02, -187500.02, -47234.09, 0.00, 0.00, 0.00, 0.00, 0.00, 0.00
224, -187500.02, -45691.37, -187500.02, -187500.02, -48598.91, 0.00, 0.00, 0.00, 0.00, 0.00, 0.00
225, -187500.02, -45441.03, -187500.02, -187500.02, -48428.43, 0.00, 0.00, 0.00, 0.00, 0.00, 0.00
226, -187500.02, -43936.40, -187500.02, -187500.02, -47076.32, 0.00, 0.00, 0.00, 0.00, 0.00, 0.00
227, -187500.02, -43956.07, -187500.02, -187500.02, -47053.17, 0.00, 0.00, 0.00, 0.00, 0.00, 0.00
228, -187500.02, -45511.10, -187500.02, -187500.02, -48454.64, 0.00, 0.00, 0.00, 0.00, 0.00, 0.00
229, -187500.02, -45669.55, -187500.02, -187500.02, -48626.62, 0.00, 0.00, 0.00, 0.00, 0.00, 0.00
230, -187500.02, -44149.50, -187500.02, -187500.02, -47258.56, 0.00, 0.00, 0.00, 0.00, 0.00, 0.00
231, -187500.02, -43764.85, -187500.02, -187500.02, -46871.16, 0.00, 0.00, 0.00, 0.00, 0.00, 0.00
232, -187500.02, -45259.31, -187500.02, -187500.02, -48193.46, 0.00, 0.00, 0.00, 0.00, 0.00, 0.00
233, -187500.02, -45796.04, -187500.02, -187500.02, -48707.82, 0.00, 0.00, 0.00, 0.00, 0.00, 0.00
234, -187500.02, -44425.92, -187500.02, -187500.02, -47497.63, 0.00, 0.00, 0.00, 0.00, 0.00, 0.00
235, -187500.02, -43688.88, -187500.02, -187500.02, -46806.68, 0.00, 0.00, 0.00, 0.00, 0.00, 0.00
236, -187500.02, -45011.92, -187500.02, -187500.02, -47987.29, 0.00, 0.00, 0.00, 0.00, 0.00, 0.00
237, -187500.02, -45930.84, -187500.02, -187500.02, -48847.52, 0.00, 0.00, 0.00, 0.00, 0.00, 0.00
238, -187500.02, -44768.40, -187500.02, -187500.02, -47830.25, 0.00, 0.00, 0.00, 0.00, 0.00, 0.00
239, -187500.02, -43701.59, -187500.02, -187500.02, -46848.43, 0.00, 0.00, 0.00, 0.00, 0.00, 0.00
240, -187500.02, -44740.23, -187500.02, -187500.02, -47755.44, 0.00, 0.00, 0.00, 0.00, 0.00, 0.00
241, -187500.02, -45941.24, -187500.02, -187500.02, -48856.89, 0.00, 0.00, 0.00, 0.00, 0.00, 0.00
242, -187500.02, -45078.68, -187500.02, -187500.02, -48107.55, 0.00, 0.00, 0.00, 0.00, 0.00, 0.00
243, -187500.02, -43757.63, -187500.02, -187500.02, -46906.65, 0.00, 0.00, 0.00, 0.00, 0.00, 0.00
244, -187500.02, -44419.87, -187500.02, -187500.02, -47462.30, 0.00, 0.00, 0.00, 0.00, 0.00, 0.00
245, -187500.02, -45816.85, -187500.02, -187500.02, -48724.50, 0.00, 0.00, 0.00, 0.00, 0.00, 0.00
246, -187500.02, -45321.60, -187500.02, -187500.02, -48316.49, 0.00, 0.00, 0.00, 0.00, 0.00, 0.00
247, -187500.02, -43869.90, -187500.02, -187500.02, -47005.18, 0.00, 0.00, 0.00, 0.00, 0.00, 0.00
248, -187500.02, -44144.67, -187500.02, -187500.02, -47208.65, 0.00, 0.00, 0.00, 0.00, 0.00, 0.00
249, -187500.02, -45677.82, -187500.02, -187500.02, -48598.21, 0.00, 0.00, 0.00, 0.00, 0.00, 0.00
250, -187500.02, -45593.51, -187500.02, -187500.02, -48560.97, 0.00, 0.00, 0.00, 0.00, 0.00, 0.00
251, -187500.02, -44053.25, -187500.02, -187500.02, -47176.53, 0.00, 0.00, 0.00, 0.00, 0.00, 0.00
252, -187500.02, -43912.86, -187500.02, -187500.02, -47011.11, 0.00, 0.00, 0.00, 0.00, 0.00, 0.00
253, -187500.02, -45453.16, -187500.02, -187500.02, -48390.77, 0.00, 0.00, 0.00, 0.00, 0.00, 0.00
254, -187500.02, -45764.21, -187500.02, -187500.02, -48706.50, 0.00, 0.00, 0.00, 0.00, 0.00, 0.00
255, -187500.02, -44281.89, -187500.02, -187500.02, -47385.50, 0.00, 0.00, 0.00, 0.00, 0.00, 0.00
0, -187500.02, -43776.20, -187500.02, -187500.02, -46897.42, 0.00, 0.00, 0.00, 0.00, 0.00, 0.00
1, -187500.02, -45189.41, -187500.02, -187500.02, -48143.51, 0.00, 0.00, 0.00, 0.00, 0.00, 0.00
2, -187500.02, -45878.99, -187500.02, -187500.02, -48793.41, 0.00, 0.00, 0.00, 0.00, 0.00, 0.00
3, -187500.02, -44583.28, -187500.02, -187500.02, -47656.96, 0.00, 0.00, 0.00, 0.00, 0.00, 0.00
4, -187500.02, -43716.19, -187500.02, -187500.02, -46865.04, 0.00, 0.00, 0.00, 0.00, 0.00, 0.00
5, -187500.02, -44941.02, -187500.02, -187500.02, -47952.65, 0.00, 0.00, 0.00, 0.00, 0.00, 0.00
6, -187500.02, -45948.52, -187500.02, -187500.02, -48884.63, 0.00, 0.00, 0.00, 0.00, 0.00, 0.00
7, -187500.02, -44891.46, -187500.02, -187500.02, -47966.08, 0.00, 0.00, 0.00, 0.00, 0.00, 0.00
8, -187500.02, -43739.61, -187500.02, -187500.02, -46912.62, 0.00, 0.00, 0.00, 0.00, 0.00, 0.00
9, -187500.02, -44643.83, -187500.02, -187500.02, -47677.21, 0.00, 0.00, 0.00, 0.00, 0.00, 0.00
10, -187500.02, -45910.39, -187500.02, -187500.02, -48830.02, 0.00, 0.00, 0.00, 0.00, 0.00, 0.00
11, -187500.02, -45205.06, -187500.02, -187500.02, -48224.04, 0.00, 0.00, 0.00, 0.00, 0.00, 0.00
12, -187500.02, -43863.13, -187500.02, -187500.02, -47008.45, 0.00, 0.00, 0.00, 0.00, 0.00, 0.00
13, -187500.02, -44429.05, -187500.02, -187500.02, -47478.19, 0.00, 0.00, 0.00, 0.00, 0.00, 0.00
14, -187500.02, -45858.60, -187500.02, -187500.02, -48772.69, 0.00, 0.00, 0.00, 0.00, 0.00, 0.00
15, -187500.02, -45498.14, -187500.02, -187500.02, -48502.52, 0.00, 0.00, 0.00, 0.00, 0.00, 0.00
16, -187500.02, -44022.79, -187500.02, -187500.02, -47182.50, 0.00, 0.00, 0.00, 0.00, 0.00, 0.00
17, -187500.02, -44165.64, -187500.02, -187500.02, -47264.93, 0.00, 0.00, 0.00, 0.00, 0.00, 0.00
18, -187500.02, -45706.70, -187500.02, -187500.02, -48636.07, 0.00, 0.00, 0.00, 0.00, 0.00, 0.00
19, -187500.02, -45759.76, -187500.02, -187500.02, -48720.86, 0.00, 0.00, 0.00, 0.00, 0.00, 0.00
20, -187500.02, -44279.45, -187500.02, -187500.02, -47401.59, 0.00, 0.00, 0.00, 0.00, 0.00, 0.00
21, -187500.02, -44044.74, -187500.02, -187500.02, -47156.46, 0.00, 0.00, 0.00, 0.00, 0.00, 0.00
22, -187500.02, -45544.76, -187500.02, -187500.02, -48483.77, 0.00, 0.00, 0.00, 0.00, 0.00, 0.00
23, -187500.02, -45954.45, -187500.02, -187500.02, -48880.87, 0.00, 0.00, 0.00, 0.00, 0.00, 0.00
24, -187500.02, -44549.37, -187500.02, -187500.02, -47644.82, 0.00, 0.00, 0.00, 0.00, 0.00, 0.00
25, -187500.02, -43969.77, -187500.02, -187500.02, -47099.80, 0.00, 0.00, 0.00, 0.00, 0.00, 0.00
26, -187500.02, -45338.19, -187500.02, -187500.02, -48307.91, 0.00, 0.00, 0.00, 0.00, 0.00, 0.00
27, -187500.02, -46100.79, -187500.02, -187500.02, -49025.78, 0.00, 0.00, 0.00, 0.00, 0.00, 0.00
28, -187500.02, -44851.10, -187500.02, -187500.02, -47920.24, 0.00, 0.00, 0.00, 0.00, 0.00, 0.00
29, -187500.02, -43953.00, -187500.02, -187500.02, -47082.36, 0.00, 0.00, 0.00, 0.00, 0.00, 0.00
30, -187500.02, -45133.78, -187500.02, -187500.02, -48125.02, 0.00, 0.00, 0.00, 0.00, 0.00, 0.00
31, -187500.02, -46216.68, -187500.02, -187500.02, -49118.07, 0.00, 0.00, 0.00, 0.00, 0.00, 0.00
32, -187500.02, -45276.39, -187500.02, -187500.02, -48304.93, 0.00, 0.00, 0.00, 0.00, 0.00, 0.00
33, -187500.02, -44097.96, -187500.02, -187500.02, -47233.93, 0.00, 0.00, 0.00, 0.00, 0.00, 0.00
34, -187500.02, -44948.26, -187500.02, -187500.02, -47971.96, 0.00, 0.00, 0.00, 0.00, 0.00, 0.00
35, -187500.02, -46287.91, -187500.02, -187500.02, -49197.80, 0.00, 0.00, 0.00, 0.00, 0.00, 0.00
36, -187500.02, -45654.80, -187500.02, -187500.02, -48672.17, 0.00, 0.00, 0.00, 0.00, 0.00, 0.00
37, -187500.02, -44263.80, -187500.02, -187500.02, -47421.19, 0.00, 0.00, 0.00, 0.00, 0.00, 0.00
38, -187500.02, -44748.44, -187500.02, -187500.02, -47823.77, 0.00, 0.00, 0.00, 0.00, 0.00, 0.00
39, -187500.02, -46235.39, -187500.02, -187500.02, -49166.32, 0.00, 0.00, 0.00, 0.00, 0.00, 0.00
40, -187500.02, -45998.68, -187500.02, -187500.02, -48980.61, 0.00, 0.00, 0.00, 0.00, 0.00, 0.00
41, -187500.02, -44504.36, -187500.02, -187500.02, -47629.29, 0.00, 0.00, 0.00, 0.00, 0.00, 0.00
42, -187500.02, -44559.18, -187500.02, -187500.02, -47643.73, 0.00, 0.00, 0.00, 0.00, 0.00, 0.00
43, -187500.02, -46101.12, -187500.02, -187500.02, -49023.72, 0.00, 0.00, 0.00, 0.00, 0.00, 0.00
44, -187500.02, -46213.19, -187500.02, -187500.02, -49155.64, 0.00, 0.00, 0.00, 0.00, 0.00, 0.00
45, -187500.02, -44709.95, -187500.02, -187500.02, -47816.46, 0.00, 0.00, 0.00, 0.00, 0.00, 0.00
46, -187500.02, -44365.39, -187500.02, -187500.02, -47480.60, 0.00, 0.00, 0.00, 0.00, 0.00, 0.00
47, -187500.02, -45808.78, -187500.02, -187500.02, -48757.98, 0.00, 0.00, 0.00, 0.00, 0.00, 0.00
48, -187500.02, -46283.62, -187500.02, -187500.02, -49205.00, 0.00, 0.00, 0.00, 0.00, 0.00, 0.00
49, -187500.02, -44842.96, -187500.02, -187500.02, -47921.63, 0.00, 0.00, 0.00, 0.00, 0.00, 0.00
50, -187500.02, -44108.91, -187500.02, -187500.02, -47237.53, 0.00, 0.00, 0.00, 0.00, 0.00, 0.00
51, -187500.02, -45407.88, -187500.02, -187500.02, -48383.01, 0.00, 0.00, 0.00, 0.00, 0.00, 0.00
52, -187500.02, -46255.91, -187500.02, -187500.02, -49156.45, 0.00, 0.00, 0.00, 0.00, 0.00, 0.00
53, -187500.02, -45080.07, -187500.02, -187500.02, -48121.80, 0.00, 0.00, 0.00, 0.00, 0.00, 0.00
54, -187500.02, -44051.02, -187500.02, -187500.02, -47189.80, 0.00, 0.00, 0.00, 0.00, 0.00, 0.00
55, -187500.02, -45122.98, -187500.02, -187500.02, -48134.84, 0.00, 0.00, 0.00, 0.00, 0.00, 0.00
56, -187500.02, -46279.64, -187500.02, -187500.02, -49184.03, 0.00, 0.00, 0.00, 0.00, 0.00, 0.00
57, -187500.02, -45391.74, -187500.02, -187500.02, -48410.57, 0.00, 0.00, 0.00, 0.00, 0.00, 0.00
58, -187500.02, -44130.23, -187500.02, -187500.02, -47265.02, 0.00, 0.00, 0.00, 0.00, 0.00, 0.00
59, -187500.02, -44885.65, -187500.02, -187500.02, -47918.61, 0.00, 0.00, 0.00, 0.00, 0.00, 0.00
60, -187500.02, -46277.36, -187500.02, -187500.02, -49181.84, 0.00, 0.00, 0.00, 0.00, 0.00, 0.00
61, -187500.02, -45702.45, -187500.02, -187500.02, -48690.61, 0.00, 0.00, 0.00, 0.00, 0.00, 0.00
62, -187500.02, -44260.59, -187500.02, -187500.02, -47394.17, 0.00, 0.00, 0.00, 0.00, 0.00, 0.00
63, -187500.02, -44640.93, -187500.02, -187500.02, -47712.64, 0.00, 0.00, 0.00, 0.00, 0.00, 0.00
64, -187500.02, -46167.55, -187500.02, -187500.02, -49092.12, 0.00, 0.00, 0.00, 0.00, 0.00, 0.00
65, -187500.02, -45985.89, -187500.02, -187500.02, -48954.63, 0.00, 0.00, 0.00, 0.00, 0.00, 0.00
66, -187500.02, -44467.59, -187500.02, -187500.02, -47588.18, 0.00, 0.00, 0.00, 0.00, 0.00, 0.00
67, -187500.02, -44448.79, -187500.02, -187500.02, -47547.72, 0.00, 0.00, 0.00, 0.00, 0.00, 0.00
68, -187500.02, -46000.98, -187500.02, -187500.02, -48932.59, 0.00, 0.00, 0.00, 0.00, 0.00, 0.00
69, -187500.02, -46218.15, -187500.02, -187500.02, -49147.89, 0.00, 0.00, 0.00, 0.00, 0.00, 0.00
70, -187500.02, -44738.45, -187500.02, -187500.02, -47835.26, 0.00, 0.00, 0.00, 0.00, 0.00, 0.00
71, -187500.02, -44320.80, -187500.02, -187500.02, -47439.50, 0.00, 0.00, 0.00, 0.00, 0.00, 0.00
72, -187500.02, -45777.24, -187500.02, -187500.02, -48737.06, 0.00, 0.00, 0.00, 0.00, 0.00, 0.00
73, -187500.02, -46343.77, -187500.02, -187500.02, -49265.34, 0.00, 0.00, 0.00, 0.00, 0.00, 0.00
74, -187500.02, -44971.60, -187500.02, -187500.02, -48031.08, 0.00, 0.00, 0.00, 0.00, 0.00, 0.00
75, -187500.02, -44176.23, -187500.02, -187500.02, -47295.80, 0.00, 0.00, 0.00, 0.00, 0.00, 0.00
76, -187500.02, -45443.80, -187500.02, -187500.02, -48424.02, 0.00, 0.00, 0.00, 0.00, 0.00, 0.00
77, -187500.02, -46374.19, -187500.02, -187500.02, -49285.91, 0.00, 0.00, 0.00, 0.00, 0.00, 0.00
78, -187500.02, -45270.20, -187500.02, -187500.02, -48316.82, 0.00, 0.00, 0.00, 0.00, 0.00, 0.00
79, -187500.02, -44189.78, -187500.02, -187500.02, -47324.32, 0.00, 0.00, 0.00, 0.00, 0.00, 0.00
80, -187500.02, -45149.94, -187500.02, -187500.02, -48162.78, 0.00, 0.00, 0.00, 0.00, 0.00, 0.00
81, -187500.02, -46337.38, -187500.02, -187500.02, -49248.67, 0.00, 0.00, 0.00, 0.00, 0.00, 0.00
82, -187500.02, -45535.84, -187500.02, -187500.02, -48547.47, 0.00, 0.00, 0.00, 0.00, 0.00, 0.00
83, -187500.02, -44254.80, -187500.02, -187500.02, -47376.13, 0.00, 0.00, 0.00, 0.00, 0.00, 0.00
84, -187500.02, -44882.68, -187500.02, -187500.02, -47908.64, 0.00, 0.00, 0.00, 0.00, 0.00, 0.00
85, -187500.02, -46299.04, -187500.02, -187500.02, -49193.55, 0.00, 0.00, 0.00, 0.00, 0.00, 0.00
86, -187500.02, -45853.95, -187500.02, -187500.02, -48822.11, 0.00, 0.00, 0.00, 0.00, 0.00, 0.00
87, -187500.02, -44387.66, -187500.02, -187500.02, -47509.57, 0.00, 0.00, 0.00, 0.00, 0.00, 0.00
88, -187500.02, -44596.85, -187500.02, -187500.02, -47674.37, 0.00, 0.00, 0.00, 0.00, 0.00, 0.00
89, -187500.02, -46103.64, -187500.02, -187500.02, -49018.52, 0.00, 0.00, 0.00, 0.00, 0.00, 0.00
90, -187500.02, -46045.04, -187500.02, -187500.02, -48985.23, 0.00, 0.00, 0.00, 0.00, 0.00, 0.00
91, -187500.02, -44533.30, -187500.02, -187500.02, -47632.26, 0.00, 0.00, 0.00, 0.00, 0.00, 0.00
92, -187500.02, -44329.63, -187500.02, -187500.02, -47429.21, 0.00, 0.00, 0.00, 0.00, 0.00, 0.00
93, -187500.02, -45832.38, -187500.02, -187500.02, -48775.95, 0.00, 0.00, 0.00, 0.00, 0.00, 0.00
94, -187500.02, -46181.34, -187500.02, -187500.02, -49110.80, 0.00, 0.00, 0.00, 0.00, 0.00, 0.00
95, -187500.02, -44721.57, -187500.02, -187500.02, -47806.56, 0.00, 0.00, 0.00, 0.00, 0.00, 0.00
96, -187500.02, -44110.72, -187500.02, -187500.02, -47231.45, 0.00, 0.00, 0.00, 0.00, 0.00, 0.00
97, -187500.02, -45450.86, -187500.02, -187500.02, -48412.98, 0.00, 0.00, 0.00, 0.00, 0.00, 0.00
98, -187500.02, -46151.39, -187500.02, -187500.02, -49059.64, 0.00, 0.00, 0.00, 0.00, 0.00, 0.00
99, -187500.02, -44846.02, -187500.02, -187500.02, -47897.86, 0.00, 0.00, 0.00, 0.00, 0.00, 0.00
100, -187500.02, -43951.55, -187500.02, -187500.02, -47076.06, 0.00, 0.00, 0.00, 0.00, 0.00, 0.00
101, -187500.02, -45119.66, -187500.02, -187500.02, -48108.04, 0.00, 0.00, 0.00, 0.00, 0.00, 0.00
102, -187500.02, -46221.66, -187500.02, -187500.02, -49113.98, 0.00, 0.00, 0.00, 0.00, 0.00, 0.00
103, -187500.02, -45312.55, -187500.02, -187500.02, -48331.78, 0.00, 0.00, 0.00, 0.00, 0.00, 0.00
104, -187500.02, -44133.03, -187500.02, -187500.02, -47264.62, 0.00, 0.00, 0.00, 0.00, 0.00, 0.00
105, -187500.02, -44956.64, -187500.02, -187500.02, -47977.55, 0.00, 0.00, 0.00, 0.00, 0.00, 0.00
106, -187500.02, -46284.47, -187500.02, -187500.02, -49186.22, 0.00, 0.00, 0.00, 0.00, 0.00, 0.00
107, -187500.02, -45679.10, -187500.02, -187500.02, -48677.98, 0.00, 0.00, 0.00, 0.00, 0.00, 0.00
108, -187500.02, -44307.46, -187500.02, -187500.02, -47433.44, 0.00, 0.00, 0.00, 0.00, 0.00, 0.00
109, -187500.02, -44725.35, -187500.02, -187500.02, -47774.46, 0.00, 0.00, 0.00, 0.00, 0.00, 0.00
110, -187500.02, -46226.45, -187500.02, -187500.02, -49140.75, 0.00, 0.00, 0.00, 0.00, 0.00, 0.00
111, -187500.02, -46023.83, -187500.02, -187500.02, -48995.67, 0.00, 0.00, 0.00, 0.00, 0.00, 0.00
112, -187500.02, -44545.19, -187500.02, -187500.02, -47664.80, 0.00, 0.00, 0.00, 0.00, 0.00, 0.00
113, -187500.02, -44552.77, -187500.02, -187500.02, -47633.60, 0.00, 0.00, 0.00, 0.00, 0.00, 0.00
114, -187500.02, -46058.41, -187500.02, -187500.02, -48970.91, 0.00, 0.00, 0.00, 0.00, 0.00, 0.00
115, -187500.02, -46204.27, -187500.02, -187500.02, -49135.77, 0.00, 0.00, 0.00, 0.00, 0.00, 0.00
116, -187500.02, -44742.94, -187500.02, -187500.02, -47842.01, 0.00, 0.00, 0.00, 0.00, 0.00, 0.00
117, -187500.02, -44328.80, -187500.02, -187500.02, -47430.87, 0.00, 0.00, 0.00, 0.00, 0.00, 0.00
118, -187500.02, -45774.74, -187500.02, -187500.02, -48712.99, 0.00, 0.00, 0.00, 0.00, 0.00, 0.00
119, -187500.02, -46339.55, -187500.02, -187500.02, -49250.97, 0.00, 0.00, 0.00, 0.00, 0.00, 0.00
120, -187500.02, -44995.38, -187500.02, -187500.02, -48064.05, 0.00, 0.00, 0.00, 0.00, 0.00, 0.00
121, -187500.02, -44259.89, -187500.02, -187500.02, -47380.02, 0.00, 0.00, 0.00, 0.00, 0.00, 0.00
122, -187500.02, -45547.49, -187500.02, -187500.02, -48504.71, 0.00, 0.00, 0.00, 0.00, 0.00, 0.00
123, -187500.02, -46436.06, -187500.02, -187500.02, -49324.26, 0.00, 0.00, 0.00, 0.00, 0.00, 0.00
124, -187500.02, -45287.43, -187500.02, -187500.02, -48313.81, 0.00, 0.00, 0.00, 0.00, 0.00, 0.00
125, -187500.02, -44222.01, -187500.02, -187500.02, -47342.65, 0.00, 0.00, 0.00, 0.00, 0.00, 0.00
126, -187500.02, -45182.38, -187500.02, -187500.02, -48174.64, 0.00, 0.00, 0.00, 0.00, 0.00, 0.00
127, -187500.02, -46360.89, -187500.02, -187500.02, -49244.40, 0.00, 0.00, 0.00, 0.00, 0.00, 0.00
128, -187500.02, -45564.79, -187500.02, -187500.02, -48560.82, 0.00, 0.00, 0.00, 0.00, 0.00, 0.00
129, -187500.02, -44272.79, -187500.02, -187500.02, -47396.22, 0.00, 0.00, 0.00, 0.00, 0.00, 0.00
130, -187500.02, -44898.46, -187500.02, -187500.02, -47925.98, 0.00, 0.00, 0.00, 0.00, 0.00, 0.00
131, -187500.02, -46261.74, -187500.02, -187500.02, -49165.39, 0.00, 0.00, 0.00, 0.00, 0.00, 0.00
132, -187500.02, -45833.59, -187500.02, -187500.02, -48813.79, 0.00, 0.00, 0.00, 0.00, 0.00, 0.00
133, -187500.02, -44418.14, -187500.02, -187500.02, -47529.46, 0.00, 0.00, 0.00, 0.00, 0.00, 0.00
134, -187500.02, -44637.91, -187500.02, -187500.02, -47687.54, 0.00, 0.00, 0.00, 0.00, 0.00, 0.00
135, -187500.02, -46120.57, -187500.02, -187500.02, -49016.23, 0.00, 0.00, 0.00, 0.00, 0.00, 0.00
136, -187500.02, -46074.79, -187500.02, -187500.02, -49013.29, 0.00, 0.00, 0.00, 0.00, 0.00, 0.00
137, -187500.02, -44594.77, -187500.02, -187500.02, -47692.68, 0.00, 0.00, 0.00, 0.00, 0.00, 0.00
138, -187500.02, -44424.63, -187500.02, -187500.02, -47508.96, 0.00, 0.00, 0.00, 0.00, 0.00, 0.00
139, -187500.02, -45912.18, -187500.02, -187500.02, -48845.24, 0.00, 0.00, 0.00, 0.00, 0.00, 0.00
140, -187500.02, -46267.06, -187500.02, -187500.02, -49186.82, 0.00, 0.00, 0.00, 0.00, 0.00, 0.00
141, -187500.02, -44851.43, -187500.02, -187500.02, -47919.99, 0.00, 0.00, 0.00, 0.00, 0.00, 0.00
142, -187500.02, -44325.21, -187500.02, -187500.02, -47425.86, 0.00, 0.00, 0.00, 0.00, 0.00, 0.00
143, -187500.02, -45701.54, -187500.02, -187500.02, -48659.97, 0.00, 0.00, 0.00, 0.00, 0.00, 0.00
144, -187500.02, -46383.98, -187500.02, -187500.02, -49300.73, 0.00, 0.00, 0.00, 0.00, 0.00, 0.00
145, -187500.02, -45115.70, -187500.02, -187500.02, -48177.75, 0.00, 0.00, 0.00, 0.00, 0.00, 0.00
146, -187500.02, -44237.48, -187500.02, -187500.02, -47364.39, 0.00, 0.00, 0.00, 0.00, 0.00, 0.00
147, -187500.02, -45372.50, -187500.02, -187500.02, -48359.70, 0.00, 0.00, 0.00, 0.00, 0.00, 0.00
148, -187500.02, -46387.22, -187500.02, -187500.02, -49284.79, 0.00, 0.00, 0.00, 0.00, 0.00, 0.00
149, -187500.02, -45407.41, -187500.02, -187500.02, -48423.20, 0.00, 0.00, 0.00, 0.00, 0.00, 0.00
150, -187500.02, -44280.21, -187500.02, -187500.02, -47397.63, 0.00, 0.00, 0.00, 0.00, 0.00, 0.00
151, -187500.02, -45139.44, -187500.02, -187500.02, -48136.85, 0.00, 0.00, 0.00, 0.00, 0.00, 0.00
152, -187500.02, -46380.11, -187500.02, -187500.02, -49260.88, 0.00, 0.00, 0.00, 0.00, 0.00, 0.00
153, -187500.02, -45681.98, -187500.02, -187500.02, -48669.11, 0.00, 0.00, 0.00, 0.00, 0.00, 0.00
154, -187500.02, -44336.74, -187500.02, -187500.02, -47453.02, 0.00, 0.00, 0.00, 0.00, 0.00, 0.00
155, -187500.02, -44807.13, -187500.02, -187500.02, -47846.97, 0.00, 0.00, 0.00, 0.00, 0.00, 0.00
156, -187500.02, -46202.53, -187500.02, -187500.02, -49110.83, 0.00, 0.00, 0.00, 0.00, 0.00, 0.00
157, -187500.02, -45894.97, -187500.02, -187500.02, -48847.95, 0.00, 0.00, 0.00, 0.00, 0.00, 0.00
158, -187500.02, -44488.78, -187500.02, -187500.02, -47582.48, 0.00, 0.00, 0.00, 0.00, 0.00, 0.00
159, -187500.02, -44562.63, -187500.02, -187500.02, -47622.87, 0.00, 0.00, 0.00, 0.00, 0.00, 0.00
160, -187500.02, -46009.59, -187500.02, -187500.02, -48919.96, 0.00, 0.00, 0.00, 0.00, 0.00, 0.00
161, -187500.02, -46037.53, -187500.02, -187500.02, -48975.73, 0.00, 0.00, 0.00, 0.00, 0.00, 0.00
162, -187500.02, -44593.94, -187500.02, -187500.02, -47677.88, 0.00, 0.00, 0.00, 0.00, 0.00, 0.00
163, -187500.02, -44318.79, -187500.02, -187500.02, -47391.75, 0.00, 0.00, 0.00, 0.00, 0.00, 0.00
164, -187500.02, -45737.68, -187500.02, -187500.02, -48659.75, 0.00, 0.00, 0.00, 0.00, 0.00, 0.00
165, -187500.02, -46155.23, -187500.02, -187500.02, -49067.62, 0.00, 0.00, 0.00, 0.00, 0.00, 0.00
166, -187500.02, -44808.29, -187500.02, -187500.02, -47864.45, 0.00, 0.00, 0.00, 0.00, 0.00, 0.00
167, -187500.02, -44224.31, -187500.02, -187500.02, -47302.14, 0.00, 0.00, 0.00, 0.00, 0.00, 0.00
168, -187500.02, -45541.05, -187500.02, -187500.02, -48474.56, 0.00, 0.00, 0.00, 0.00, 0.00, 0.00
169, -187500.02, -46303.94, -187500.02, -187500.02, -49192.81, 0.00, 0.00, 0.00, 0.00, 0.00, 0.00
170, -187500.02, -45157.79, -187500.02, -187500.02, -48189.15, 0.00, 0.00, 0.00, 0.00, 0.00, 0.00
171, -187500.02, -44259.22, -187500.02, -187500.02, -47371.59, 0.00, 0.00, 0.00, 0.00, 0.00, 0.00
172, -187500.02, -45340.00, -187500.02, -187500.02, -48318.08, 0.00, 0.00, 0.00, 0.00, 0.00, 0.00
173, -187500.02, -46424.37, -187500.02, -187500.02, -49315.23, 0.00, 0.00, 0.00, 0.00, 0.00, 0.00
174, -187500.02, -45534.05, -187500.02, -187500.02, -48554.09, 0.00, 0.00, 0.00, 0.00, 0.00, 0.00
175, -187500.02, -44380.59, -187500.02, -187500.02, -47494.41, 0.00, 0.00, 0.00, 0.00, 0.00, 0.00
176, -187500.02, -45155.64, -187500.02, -187500.02, -48149.86, 0.00, 0.00, 0.00, 0.00, 0.00, 0.00
177, -187500.02, -46422.98, -187500.02, -187500.02, -49298.69, 0.00, 0.00, 0.00, 0.00, 0.00, 0.00
178, -187500.02, -45866.54, -187500.02, -187500.02, -48834.11, 0.00, 0.00, 0.00, 0.00, 0.00, 0.00
179, -187500.02, -44535.29, -187500.02, -187500.02, -47642.50, 0.00, 0.00, 0.00, 0.00, 0.00, 0.00
180, -187500.02, -44914.84, -187500.02, -187500.02, -47947.57, 0.00, 0.00, 0.00, 0.00, 0.00, 0.00
181, -187500.02, -46314.73, -187500.02, -187500.02, -49198.85, 0.00, 0.00, 0.00, 0.00, 0.00, 0.00
182, -187500.02, -46086.21, -187500.02, -187500.02, -49027.97, 0.00, 0.00, 0.00, 0.00, 0.00, 0.00
183, -187500.02, -44680.49, -187500.02, -187500.02, -47768.25, 0.00, 0.00, 0.00, 0.00, 0.00, 0.00
184, -187500.02, -44696.38, -187500.02, -187500.02, -47756.22, 0.00, 0.00, 0.00, 0.00, 0.00, 0.00
185, -187500.02, -46155.05, -187500.02, -187500.02, -49056.00, 0.00, 0.00, 0.00, 0.00, 0.00, 0.00
186, -187500.02, -46316.19, -187500.02, -187500.02, -49226.07, 0.00, 0.00, 0.00, 0.00, 0.00, 0.00
187, -187500.02, -44914.78, -187500.02, -187500.02, -47983.18, 0.00, 0.00, 0.00, 0.00, 0.00, 0.00
188, -187500.02, -44529.75, -187500.02, -187500.02, -47614.02, 0.00, 0.00, 0.00, 0.00, 0.00, 0.00
189, -187500.02, -45892.67, -187500.02, -187500.02, -48818.11, 0.00, 0.00, 0.00, 0.00, 0.00, 0.00
190, -187500.02, -46423.25, -187500.02, -187500.02, -49314.63, 0.00, 0.00, 0.00, 0.00, 0.00, 0.00
191, -187500.02, -45140.51, -187500.02, -187500.02, -48187.59, 0.00, 0.00, 0.00, 0.00, 0.00, 0.00
192, -187500.02, -44432.20, -187500.02, -187500.02, -47533.66, 0.00, 0.00, 0.00, 0.00, 0.00, 0.00
193, -187500.02, -45644.74, -187500.02, -187500.02, -48603.04, 0.00, 0.00, 0.00, 0.00, 0.00, 0.00
194, -187500.02, -46503.79, -187500.02, -187500.02, -49400.30, 0.00, 0.00, 0.00, 0.00, 0.00, 0.00
195, -187500.02, -45441.92, -187500.02, -187500.02, -48467.10, 0.00, 0.00, 0.00, 0.00, 0.00, 0.00
196, -187500.02, -44419.87, -187500.02, -187500.02, -47528.34, 0.00, 0.00, 0.00, 0.00, 0.00, 0.00
197, -187500.02, -45362.53, -187500.02, -187500.02, -48343.34, 0.00, 0.00, 0.00, 0.00, 0.00, 0.00
198, -187500.02, -46497.15, -187500.02, -187500.02, -49371.96, 0.00, 0.00, 0.00, 0.00, 0.00, 0.00
199, -187500.02, -45739.29, -187500.02, -187500.02, -48721.04, 0.00, 0.00, 0.00, 0.00, 0.00, 0.00
200, -187500.02, -44525.43, -187500.02, -187500.02, -47629.58, 0.00, 0.00, 0.00, 0.00, 0.00, 0.00
201, -187500.02, -45125.13, -187500.02, -187500.02, -48148.38, 0.00, 0.00, 0.00, 0.00, 0.00, 0.00
202, -187500.02, -46466.84, -187500.02, -187500.02, -49350.28, 0.00, 0.00, 0.00, 0.00, 0.00, 0.00
203, -187500.02, -46061.07, -187500.02, -187500.02, -49007.79, 0.00, 0.00, 0.00, 0.00, 0.00, 0.00
204, -187500.02, -44710.80, -187500.02, -187500.02, -47797.17, 0.00, 0.00, 0.00, 0.00, 0.00, 0.00
205, -187500.02, -44951.64, -187500.02, -187500.02, -47989.73, 0.00, 0.00, 0.00, 0.00, 0.00, 0.00
206, -187500.02, -46396.16, -187500.02, -187500.02, -49298.00, 0.00, 0.00, 0.00, 0.00, 0.00, 0.00
207, -187500.02, -46345.76, -187500.02, -187500.02, -49277.82, 0.00, 0.00, 0.00, 0.00, 0.00, 0.00
208, -187500.02, -44916.45, -187500.02, -187500.02, -47998.85, 0.00, 0.00, 0.00, 0.00, 0.00, 0.00
209, -187500.02, -44762.77, -187500.02, -187500.02, -47833.09, 0.00, 0.00, 0.00, 0.00, 0.00, 0.00
210, -187500.02, -46188.92, -187500.02, -187500.02, -49091.63, 0.00, 0.00, 0.00, 0.00, 0.00, 0.00
211, -187500.02, -46488.92, -187500.02, -187500.02, -49382.36, 0.00, 0.00, 0.00, 0.00, 0.00, 0.00
212, -187500.02, -45120.97, -187500.02, -187500.02, -48164.52, 0.00, 0.00, 0.00, 0.00, 0.00, 0.00
213, -187500.02, -44601.70, -187500.02, -187500.02, -47669.03, 0.00, 0.00, 0.00, 0.00, 0.00, 0.00
214, -187500.02, -45929.04, -187500.02, -187500.02, -48848.91, 0.00, 0.00, 0.00, 0.00, 0.00, 0.00
215, -187500.02, -46593.57, -187500.02, -187500.02, -49474.00, 0.00, 0.00, 0.00, 0.00, 0.00, 0.00
216, -187500.02, -45375.70, -187500.02, -187500.02, -48390.03, 0.00, 0.00, 0.00, 0.00, 0.00, 0.00
217, -187500.02, -44540.88, -187500.02, -187500.02, -47625.57, 0.00, 0.00, 0.00, 0.00, 0.00, 0.00
218, -187500.02, -45657.80, -187500.02, -187500.02, -48608.05, 0.00, 0.00, 0.00, 0.00, 0.00, 0.00
219, -187500.02, -46657.52, -187500.02, -187500.02, -49525.63, 0.00, 0.00, 0.00, 0.00, 0.00, 0.00
220, -187500.02, -45688.77, -187500.02, -187500.02, -48679.55, 0.00, 0.00, 0.00, 0.00, 0.00, 0.00
221, -187500.02, -44574.61, -187500.02, -187500.02, -47666.03, 0.00, 0.00, 0.00, 0.00, 0.00, 0.00
222, -187500.02, -45371.87, -187500.02, -187500.02, -48355.23, 0.00, 0.00, 0.00, 0.00, 0.00, 0.00
223, -187500.02, -46617.11, -187500.02, -187500.02, -49487.77, 0.00, 0.00, 0.00, 0.00, 0.00, 0.00
224, -187500.02, -45973.20, -187500.02, -187500.02, -48933.27, 0.00, 0.00, 0.00, 0.00, 0.00, 0.00
225, -187500.02, -44672.02, -187500.02, -187500.02, -47758.79, 0.00, 0.00, 0.00, 0.00, 0.00, 0.00
226, -187500.02, -45137.83, -187500.02, -187500.02, -48157.10, 0.00, 0.00, 0.00, 0.00, 0.00, 0.00
227, -187500.02, -46524.06, -187500.02, -187500.02, -49412.55, 0.00, 0.00, 0.00, 0.00, 0.00, 0.00
228, -187500.02, -46280.78, -187500.02, -187500.02, -49223.05, 0.00, 0.00, 0.00, 0.00, 0.00, 0.00
229, -187500.02, -44886.14, -187500.02, -187500.02, -47971.07, 0.00, 0.00, 0.00, 0.00, 0.00, 0.00
230, -187500.02, -44972.25, -187500.02, -187500.02, -48017.47, 0.00, 0.00, 0.00, 0.00, 0.00, 0.00
231, -187500.02, -46445.00, -187500.02, -187500.02, -49337.09, 0.00, 0.00, 0.00, 0.00, 0.00, 0.00
232, -187500.02, -46545.94, -187500.02, -187500.02, -49452.56, 0.00, 0.00, 0.00, 0.00, 0.00, 0.00
233, -187500.02, -45140.48, -187500.02, -187500.02, -48201.22, 0.00, 0.00, 0.00, 0.00, 0.00, 0.00
234, -187500.02, -44807.02, -187500.02, -187500.02, -47874.86, 0.00, 0.00, 0.00, 0.00, 0.00, 0.00
235, -187500.02, -46193.12, -187500.02, -187500.02, -49107.70, 0.00, 0.00, 0.00, 0.00, 0.00, 0.00
236, -187500.02, -46660.18, -187500.02, -187500.02, -49552.95, 0.00, 0.00, 0.00, 0.00, 0.00, 0.00
237, -187500.02, -45306.70, -187500.02, -187500.02, -48354.67, 0.00, 0.00, 0.00, 0.00, 0.00, 0.00
238, -187500.02, -44621.03, -187500.02, -187500.02, -47716.01, 0.00, 0.00, 0.00, 0.00, 0.00, 0.00
239, -187500.02, -45865.53, -187500.02, -187500.02, -48811.61, 0.00, 0.00, 0.00, 0.00, 0.00, 0.00
240, -187500.02, -46706.74, -187500.02, -187500.02, -49591.86, 0.00, 0.00, 0.00, 0.00, 0.00, 0.00
241, -187500.02, -45612.36, -187500.02, -187500.02, -48638.09, 0.00, 0.00, 0.00, 0.00, 0.00, 0.00
242, -187500.02, -44635.85, -187500.02, -187500.02, -47744.42, 0.00, 0.00, 0.00, 0.00, 0.00, 0.00
243, -187500.02, -45636.74, -187500.02, -187500.02, -48616.12, 0.00, 0.00, 0.00, 0.00, 0.00, 0.00
244, -187500.02, -46740.89, -187500.02, -187500.02, -49621.12, 0.00, 0.00, 0.00, 0.00, 0.00, 0.00
245, -187500.02, -45913.81, -187500.02, -187500.02, -48908.12, 0.00, 0.00, 0.00, 0.00, 0.00, 0.00
246, -187500.02, -44706.53, -187500.02, -187500.02, -47809.46, 0.00, 0.00, 0.00, 0.00, 0.00, 0.00
247, -187500.02, -45373.01, -187500.02, -187500.02, -48376.73, 0.00, 0.00, 0.00, 0.00, 0.00, 0.00
248, -187500.02, -46671.27, -187500.02, -187500.02, -49557.41, 0.00, 0.00, 0.00, 0.00, 0.00, 0.00
249, -187500.02, -46152.77, -187500.02, -187500.02, -49107.99, 0.00, 0.00, 0.00, 0.00, 0.00, 0.00
250, -187500.02, -44746.43, -187500.02, -187500.02, -47837.70, 0.00, 0.00, 0.00, 0.00, 0.00, 0.00
251, -187500.02, -45030.38, -187500.02, -187500.02, -48069.41, 0.00, 0.00, 0.00, 0.00, 0.00, 0.00
252, -187500.02, -46459.42, -187500.02, -187500.02, -49351.38, 0.00, 0.00, 0.00, 0.00, 0.00, 0.00
253, -187500.02, -46328.32, -187500.02, -187500.02, -49258.80, 0.00, 0.00, 0.00, 0.00, 0.00, 0.00
254, -187500.02, -44885.92, -187500.02, -187500.02, -47968.50, 0.00, 0.00, 0.00, 0.00, 0.00, 0.00
255, -187500.02, -44845.51, -187500.02, -187500.02, -47903.34, 0.00, 0.00, 0.00, 0.00, 0.00, 0.00
0, -187500.02, -46327.63, -187500.02, -187500.02, -49232.71, 0.00, 0.00, 0.00, 0.00, 0.00, 0.00
1, -187500.02, -46552.87, -187500.02, -187500.02, -49468.52, 0.00, 0.00, 0.00, 0.00, 0.00, 0.00
2, -187500.02, -45147.41, -187500.02, -187500.02, -48210.01, 0.00, 0.00, 0.00, 0.00, 0.00, 0.00
3, -187500.02, -44699.57, -187500.02, -187500.02, -47770.88, 0.00, 0.00, 0.00, 0.00, 0.00, 0.00
4, -187500.02, -46077.80, -187500.02, -187500.02, -48995.20, 0.00, 0.00, 0.00, 0.00, 0.00, 0.00
5, -187500.02, -46662.42, -187500.02, -187500.02, -49548.43, 0.00, 0.00, 0.00, 0.00, 0.00, 0.00
6, -187500.02, -45390.02, -187500.02, -187500.02, -48427.31, 0.00, 0.00, 0.00, 0.00, 0.00, 0.00
7, -187500.02, -44582.74, -187500.02, -187500.02, -47679.53, 0.00, 0.00, 0.00, 0.00, 0.00, 0.00
8, -187500.02, -45792.91, -187500.02, -187500.02, -48748.13, 0.00, 0.00, 0.00, 0.00, 0.00, 0.00
9, -187500.02, -46756.63, -187500.02, -187500.02, -49631.84, 0.00, 0.00, 0.00, 0.00, 0.00, 0.00
10, -187500.02, -45723.15, -187500.02, -187500.02, -48724.90, 0.00, 0.00, 0.00, 0.00, 0.00, 0.00
11, -187500.02, -44646.69, -187500.02, -187500.02, -47739.12, 0.00, 0.00, 0.00, 0.00, 0.00, 0.00
12, -187500.02, -45555.83, -187500.02, -187500.02, -48526.39, 0.00, 0.00, 0.00, 0.00, 0.00, 0.00
13, -187500.02, -46767.02, -187500.02, -187500.02, -49625.61, 0.00, 0.00, 0.00, 0.00, 0.00, 0.00
14, -187500.02, -46060.04, -187500.02, -187500.02, -49025.73, 0.00, 0.00, 0.00, 0.00, 0.00, 0.00
15, -187500.02, -44769.74, -187500.02, -187500.02, -47861.45, 0.00, 0.00, 0.00, 0.00, 0.00, 0.00
16, -187500.02, -45316.91, -187500.02, -187500.02, -48320.02, 0.00, 0.00, 0.00, 0.00, 0.00, 0.00
17, -187500.02, -46706.96, -187500.02, -187500.02, -49564.05, 0.00, 0.00, 0.00, 0.00, 0.00, 0.00
18, -187500.02, -46336.53, -187500.02, -187500.02, -49259.27, 0.00, 0.00, 0.00, 0.00, 0.00, 0.00
19, -187500.02, -44935.97, -187500.02, -187500.02, -48007.75, 0.00, 0.00, 0.00, 0.00, 0.00, 0.00
20, -187500.02, -45106.11, -187500.02, -187500.02, -48130.50, 0.00, 0.00, 0.00, 0.00, 0.00, 0.00
21, -187500.02, -46544.36, -187500.02, -187500.02, -49426.23, 0.00, 0.00, 0.00, 0.00, 0.00, 0.00
22, -187500.02, -46549.65, -187500.02, -187500.02, -49459.09, 0.00, 0.00, 0.00, 0.00, 0.00, 0.00
23, -187500.02, -45115.25, -187500.02, -187500.02, -48167.94, 0.00, 0.00, 0.00, 0.00, 0.00, 0.00
24, -187500.02, -44890.50, -187500.02, -187500.02, -47929.78, 0.00, 0.00, 0.00, 0.00, 0.00, 0.00
25, -187500.02, -46336.48, -187500.02, -187500.02, -49219.97, 0.00, 0.00, 0.00, 0.00, 0.00, 0.00
26, -187500.02, -46718.25, -187500.02, -187500.02, -49595.88, 0.00, 0.00, 0.00, 0.00, 0.00, 0.00
27, -187500.02, -45355.18, -187500.02, -187500.02, -48388.04, 0.00, 0.00, 0.00, 0.00, 0.00, 0.00
28, -187500.02, -44773.65, -187500.02, -187500.02, -47833.60, 0.00, 0.00, 0.00, 0.00, 0.00, 0.00
29, -187500.02, -46088.00, -187500.02, -187500.02, -49001.93, 0.00, 0.00, 0.00, 0.00, 0.00, 0.00
30, -187500.02, -46814.41, -187500.02, -187500.02, -49685.85, 0.00, 0.00, 0.00, 0.00, 0.00, 0.00
31, -187500.02, -45625.77, -187500.02, -187500.02, -48625.77, 0.00, 0.00, 0.00, 0.00, 0.00, 0.00
32, -187500.02, -44734.29, -187500.02, -187500.02, -47802.00, 0.00, 0.00, 0.00, 0.00, 0.00, 0.00
33, -187500.02, -45813.18, -187500.02, -187500.02, -48750.98, 0.00, 0.00, 0.00, 0.00, 0.00, 0.00
34, -187500.02, -46861.59, -187500.02, -187500.02, -49713.81, 0.00, 0.00, 0.00, 0.00, 0.00, 0.00
35, -187500.02, -45947.18, -187500.02, -187500.02, -48916.48, 0.00, 0.00, 0.00, 0.00, 0.00, 0.00
36, -187500.02, -44777.49, -187500.02, -187500.02, -47853.16, 0.00, 0.00, 0.00, 0.00, 0.00, 0.00
37, -187500.02, -45544.79, -187500.02, -187500.02, -48516.11, 0.00, 0.00, 0.00, 0.00, 0.00, 0.00
38, -187500.02, -46826.61, -187500.02, -187500.02, -49685.94, 0.00, 0.00, 0.00, 0.00, 0.00, 0.00
39, -187500.02, -46233.55, -187500.02, -187500.02, -49186.93, 0.00, 0.00, 0.00, 0.00, 0.00, 0.00
40, -187500.02, -44911.96, -187500.02, -187500.02, -47993.80, 0.00, 0.00, 0.00, 0.00, 0.00, 0.00
41, -187500.02, -45330.10, -187500.02, -187500.02, -48329.75, 0.00, 0.00, 0.00, 0.00, 0.00, 0.00
42, -187500.02, -46751.80, -187500.02, -187500.02, -49605.70, 0.00, 0.00, 0.00, 0.00, 0.00, 0.00
43, -187500.02, -46543.55, -187500.02, -187500.02, -49459.07, 0.00, 0.00, 0.00, 0.00, 0.00, 0.00
44, -187500.02, -45129.71, -187500.02, -187500.02, -48189.51, 0.00, 0.00, 0.00, 0.00, 0.00, 0.00
45, -187500.02, -45134.81, -187500.02, -187500.02, -48163.83, 0.00, 0.00, 0.00, 0.00, 0.00, 0.00
46, -187500.02, -46588.52, -187500.02, -187500.02, -49464.66, 0.00, 0.00, 0.00, 0.00, 0.00, 0.00
47, -187500.02, -46760.68, -187500.02, -187500.02, -49653.55, 0.00, 0.00, 0.00, 0.00, 0.00, 0.00
48, -187500.02, -45359.96, -187500.02, -187500.02, -48400.78, 0.00, 0.00, 0.00, 0.00, 0.00, 0.00
49, -187500.02, -45002.42, -187500.02, -187500.02, -48049.54, 0.00, 0.00, 0.00, 0.00, 0.00, 0.00
50, -187500.02, -46406.18, -187500.02, -187500.02, -49301.40, 0.00, 0.00, 0.00, 0.00, 0.00, 0.00
51, -187500.02, -46928.98, -187500.02, -187500.02, -49795.64, 0.00, 0.00, 0.00, 0.00, 0.00, 0.00
52, -187500.02, -45634.53, -187500.02, -187500.02, -48654.49, 0.00, 0.00, 0.00, 0.00, 0.00, 0.00
53, -187500.02, -44917.26, -187500.02, -187500.02, -47982.20, 0.00, 0.00, 0.00, 0.00, 0.00, 0.00
54, -187500.02, -46132.12, -187500.02, -187500.02, -49039.93, 0.00, 0.00, 0.00, 0.00, 0.00, 0.00
55, -187500.02, -46962.78, -187500.02, -187500.02, -49806.66, 0.00, 0.00, 0.00, 0.00, 0.00, 0.00
56, -187500.02, -45861.62, -187500.02, -187500.02, -48836.46, 0.00, 0.00, 0.00, 0.00, 0.00, 0.00
57, -187500.02, -44846.45, -187500.02, -187500.02, -47911.66, 0.00, 0.00, 0.00, 0.00, 0.00, 0.00
58, -187500.02, -45820.45, -187500.02, -187500.02, -48758.38, 0.00, 0.00, 0.00, 0.00, 0.00, 0.00
59, -187500.02, -46967.07, -187500.02, -187500.02, -49799.42, 0.00, 0.00, 0.00, 0.00, 0.00, 0.00
60, -187500.02, -46166.10, -187500.02, -187500.02, -49107.72, 0.00, 0.00, 0.00, 0.00, 0.00, 0.00
61, -187500.02, -44930.94, -187500.02, -187500.02, -47987.94, 0.00, 0.00, 0.00, 0.00, 0.00, 0.00
62, -187500.02, -45553.46, -187500.02, -187500.02, -48525.10, 0.00, 0.00, 0.00, 0.00, 0.00, 0.00
63, -187500.02, -46877.39, -187500.02, -187500.02, -49721.39, 0.00, 0.00, 0.00, 0.00, 0.00, 0.00
64, -187500.02, -46419.09, -187500.02, -187500.02, -49338.55, 0.00, 0.00, 0.00, 0.00, 0.00, 0.00
65, -187500.02, -45050.34, -187500.02, -187500.02, -48109.54, 0.00, 0.00, 0.00, 0.00, 0.00, 0.00
66, -187500.02, -45318.36, -187500.02, -187500.02, -48315.44, 0.00, 0.00, 0.00, 0.00, 0.00, 0.00
67, -187500.02, -46764.21, -187500.02, -187500.02, -49611.04, 0.00, 0.00, 0.00, 0.00, 0.00, 0.00
68, -187500.02, -46674.33, -187500.02, -187500.02, -49553.70, 0.00, 0.00, 0.00, 0.00, 0.00, 0.00
69, -187500.02, -45235.05, -187500.02, -187500.02, -48261.37, 0.00, 0.00, 0.00, 0.00, 0.00, 0.00
70, -187500.02, -45110.42, -187500.02, -187500.02, -48127.35, 0.00, 0.00, 0.00, 0.00, 0.00, 0.00
71, -187500.02, -46562.04, -187500.02, -187500.02, -49427.39, 0.00, 0.00, 0.00, 0.00, 0.00, 0.00
72, -187500.02, -46861.46, -187500.02, -187500.02, -49732.77, 0.00, 0.00, 0.00, 0.00, 0.00, 0.00
73, -187500.02, -45481.35, -187500.02, -187500.02, -48507.55, 0.00, 0.00, 0.00, 0.00, 0.00, 0.00
74, -187500.02, -44988.83, -187500.02, -187500.02, -48030.01, 0.00, 0.00, 0.00, 0.00, 0.00, 0.00
75, -187500.02, -46353.58, -187500.02, -187500.02, -49241.43, 0.00, 0.00, 0.00, 0.00, 0.00, 0.00
76, -187500.02, -47014.23, -187500.02, -187500.02, -49865.33, 0.00, 0.00, 0.00, 0.00, 0.00, 0.00
77, -187500.02, -45796.06, -187500.02, -187500.02, -48791.26, 0.00, 0.00, 0.00, 0.00, 0.00, 0.00
78, -187500.02, -44991.80, -187500.02, -187500.02, -48049.34, 0.00, 0.00, 0.00, 0.00, 0.00, 0.00
79, -187500.02, -46115.60, -187500.02, -187500.02, -49028.97, 0.00, 0.00, 0.00, 0.00, 0.00, 0.00
80, -187500.02, -47077.71, -187500.02, -187500.02, -49914.59, 0.00, 0.00, 0.00, 0.00, 0.00, 0.00
81, -187500.02, -46114.57, -187500.02, -187500.02, -49082.24, 0.00, 0.00, 0.00, 0.00, 0.00, 0.00
82, -187500.02, -45042.56, -187500.02, -187500.02, -48110.43, 0.00, 0.00, 0.00, 0.00, 0.00, 0.00
83, -187500.02, -45852.84, -187500.02, -187500.02, -48810.71, 0.00, 0.00, 0.00, 0.00, 0.00, 0.00
84, -187500.02, -47028.49, -187500.02, -187500.02, -49875.73, 0.00, 0.00, 0.00, 0.00, 0.00, 0.00
85, -187500.02, -46354.14, -187500.02, -187500.02, -49291.59, 0.00, 0.00, 0.00, 0.00, 0.00, 0.00
86, -187500.02, -45064.87, -187500.02, -187500.02, -48116.87, 0.00, 0.00, 0.00, 0.00, 0.00, 0.00
87, -187500.02, -45558.02, -187500.02, -187500.02, -48540.97, 0.00, 0.00, 0.00, 0.00, 0.00, 0.00
88, -187500.02, -46936.52, -187500.02, -187500.02, -49794.52, 0.00, 0.00, 0.00, 0.00, 0.00, 0.00
89, -187500.02, -46605.49, -187500.02, -187500.02, -49527.57, 0.00, 0.00, 0.00, 0.00, 0.00, 0.00
90, -187500.02, -45209.22, -187500.02, -187500.02, -48264.43, 0.00, 0.00, 0.00, 0.00, 0.00, 0.00
91, -187500.02, -45325.74, -187500.02, -187500.02, -48329.86, 0.00, 0.00, 0.00, 0.00, 0.00, 0.00
92, -187500.02, -46772.72, -187500.02, -187500.02, -49625.43, 0.00, 0.00, 0.00, 0.00, 0.00, 0.00
93, -187500.02, -46820.53, -187500.02, -187500.02, -49701.20, 0.00, 0.00, 0.00, 0.00, 0.00, 0.00
94, -187500.02, -45402.89, -187500.02, -187500.02, -48443.07, 0.00, 0.00, 0.00, 0.00, 0.00, 0.00
95, -187500.02, -45121.04, -187500.02, -187500.02, -48164.12, 0.00, 0.00, 0.00, 0.00, 0.00, 0.00
96, -187500.02, -46522.58, -187500.02, -187500.02, -49401.46, 0.00, 0.00, 0.00, 0.00, 0.00, 0.00
97, -187500.02, -46955.58, -187500.02, -187500.02, -49815.00, 0.00, 0.00, 0.00, 0.00, 0.00, 0.00
98, -187500.02, -45648.05, -187500.02, -187500.02, -48661.47, 0.00, 0.00, 0.00, 0.00, 0.00, 0.00
99, -187500.02, -45026.27, -187500.02, -187500.02, -48072.36, 0.00, 0.00, 0.00, 0.00, 0.00, 0.00
100, -187500.02, -46305.41, -187500.02, -187500.02, -49193.93, 0.00, 0.00, 0.00, 0.00, 0.00, 0.00
101, -187500.02, -47079.61, -187500.02, -187500.02, -49908.40, 0.00, 0.00, 0.00, 0.00, 0.00, 0.00
102, -187500.02, -45955.66, -187500.02, -187500.02, -48926.60, 0.00, 0.00, 0.00, 0.00, 0.00, 0.00
103, -187500.02, -45052.24, -187500.02, -187500.02, -48106.61, 0.00, 0.00, 0.00, 0.00, 0.00, 0.00
104, -187500.02, -46092.07, -187500.02, -187500.02, -49025.89, 0.00, 0.00, 0.00, 0.00, 0.00, 0.00
105, -187500.02, -47134.06, -187500.02, -187500.02, -49984.24, 0.00, 0.00, 0.00, 0.00, 0.00, 0.00
106, -187500.02, -46258.74, -187500.02, -187500.02, -49225.11, 0.00, 0.00, 0.00, 0.00, 0.00, 0.00
107, -187500.02, -45093.84, -187500.02, -187500.02, -48161.39, 0.00, 0.00, 0.00, 0.00, 0.00, 0.00
108, -187500.02, -45788.60, -187500.02, -187500.02, -48749.09, 0.00, 0.00, 0.00, 0.00, 0.00, 0.00
109, -187500.02, -47045.61, -187500.02, -187500.02, -49892.71, 0.00, 0.00, 0.00, 0.00, 0.00, 0.00
110, -187500.02, -46499.00, -187500.02, -187500.02, -49423.55, 0.00, 0.00, 0.00, 0.00, 0.00, 0.00
111, -187500.02, -45158.01, -187500.02, -187500.02, -48200.73, 0.00, 0.00, 0.00, 0.00, 0.00, 0.00
112, -187500.02, -45508.20, -187500.02, -187500.02, -48475.14, 0.00, 0.00, 0.00, 0.00, 0.00, 0.00
113, -187500.02, -46919.62, -187500.02, -187500.02, -49746.89, 0.00, 0.00, 0.00, 0.00, 0.00, 0.00
114, -187500.02, -46755.46, -187500.02, -187500.02, -49635.67, 0.00, 0.00, 0.00, 0.00, 0.00, 0.00
115, -187500.02, -45345.18, -187500.02, -187500.02, -48376.95, 0.00, 0.00, 0.00, 0.00, 0.00, 0.00
116, -187500.02, -45294.47, -187500.02, -187500.02, -48304.40, 0.00, 0.00, 0.00, 0.00, 0.00, 0.00
117, -187500.02, -46742.55, -187500.02, -187500.02, -49600.48, 0.00, 0.00, 0.00, 0.00, 0.00, 0.00
118, -187500.02, -46939.11, -187500.02, -187500.02, -49811.24, 0.00, 0.00, 0.00, 0.00, 0.00, 0.00
119, -187500.02, -45539.18, -187500.02, -187500.02, -48571.32, 0.00, 0.00, 0.00, 0.00, 0.00, 0.00
120, -187500.02, -45134.27, -187500.02, -187500.02, -48175.96, 0.00, 0.00, 0.00, 0.00, 0.00, 0.00
121, -187500.02, -46495.02, -187500.02, -187500.02, -49383.09, 0.00, 0.00, 0.00, 0.00, 0.00, 0.00
122, -187500.02, -47040.96, -187500.02, -187500.02, -49894.66, 0.00, 0.00, 0.00, 0.00, 0.00, 0.00
123, -187500.02, -45781.55, -187500.02, -187500.02, -48780.69, 0.00, 0.00, 0.00, 0.00, 0.00, 0.00
124, -187500.02, -45042.45, -187500.02, -187500.02, -48090.67, 0.00, 0.00, 0.00, 0.00, 0.00, 0.00
125, -187500.02, -46244.84, -187500.02, -187500.02, -49146.59, 0.00, 0.00, 0.00, 0.00, 0.00, 0.00
126, -187500.02, -47124.49, -187500.02, -187500.02, -49949.38, 0.00, 0.00, 0.00, 0.00, 0.00, 0.00
127, -187500.02, -46097.21, -187500.02, -187500.02, -49052.69, 0.00, 0.00, 0.00, 0.00, 0.00, 0.00
128, -187500.02, -45080.67, -187500.02, -187500.02, -48135.80, 0.00, 0.00, 0.00, 0.00, 0.00, 0.00
129, -187500.02, -46006.41, -187500.02, -187500.02, -48948.08, 0.00, 0.00, 0.00, 0.00, 0.00, 0.00
130, -187500.02, -47139.00, -187500.02, -187500.02, -49977.27, 0.00, 0.00, 0.00, 0.00, 0.00, 0.00
131, -187500.02, -46397.19, -187500.02, -187500.02, -49342.86, 0.00, 0.00, 0.00, 0.00, 0.00, 0.00
132, -187500.02, -45142.01, -187500.02, -187500.02, -48209.89, 0.00, 0.00, 0.00, 0.00, 0.00, 0.00
133, -187500.02, -45717.30, -187500.02, -187500.02, -48690.21, 0.00, 0.00, 0.00, 0.00, 0.00, 0.00
134, -187500.02, -47074.74, -187500.02, -187500.02, -49913.54, 0.00, 0.00, 0.00, 0.00, 0.00, 0.00
135, -187500.02, -46698.85, -187500.02, -187500.02, -49595.10, 0.00, 0.00, 0.00, 0.00, 0.00, 0.00
136, -187500.02, -45318.43, -187500.02, -187500.02, -48348.14, 0.00, 0.00, 0.00, 0.00, 0.00, 0.00
137, -187500.02, -45523.48, -187500.02, -187500.02, -48497.32, 0.00, 0.00, 0.00, 0.00, 0.00, 0.00
138, -187500.02, -46980.26, -187500.02, -187500.02, -49809.54, 0.00, 0.00, 0.00, 0.00, 0.00, 0.00
139, -187500.02, -46946.73, -187500.02, -187500.02, -49813.95, 0.00, 0.00, 0.00, 0.00, 0.00, 0.00
140, -187500.02, -45504.17, -187500.02, -187500.02, -48525.48, 0.00, 0.00, 0.00, 0.00, 0.00, 0.00
141, -187500.02, -45304.01, -187500.02, -187500.02, -48319.13, 0.00, 0.00, 0.00, 0.00, 0.00, 0.00
142, -187500.02, -46709.31, -187500.02, -187500.02, -49573.02, 0.00, 0.00, 0.00, 0.00, 0.00, 0.00
143, -187500.02, -47066.76, -187500.02, -187500.02, -49919.94, 0.00, 0.00, 0.00, 0.00, 0.00, 0.00
144, -187500.02, -45705.52, -187500.02, -187500.02, -48714.17, 0.00, 0.00, 0.00, 0.00, 0.00, 0.00
145, -187500.02, -45150.16, -187500.02, -187500.02, -48183.90, 0.00, 0.00, 0.00, 0.00, 0.00, 0.00
146, -187500.02, -46460.69, -187500.02, -187500.02, -49339.06, 0.00, 0.00, 0.00, 0.00, 0.00, 0.00
147, -187500.02, -47148.90, -187500.02, -187500.02, -49976.87, 0.00, 0.00, 0.00, 0.00, 0.00, 0.00
148, -187500.02, -45966.52, -187500.02, -187500.02, -48932.53, 0.00, 0.00, 0.00, 0.00, 0.00, 0.00
149, -187500.02, -45102.42, -187500.02, -187500.02, -48138.82, 0.00, 0.00, 0.00, 0.00, 0.00, 0.00
150, -187500.02, -46176.55, -187500.02, -187500.02, -49079.45, 0.00, 0.00, 0.00, 0.00, 0.00, 0.00
151, -187500.02, -47172.06, -187500.02, -187500.02, -49991.29, 0.00, 0.00, 0.00, 0.00, 0.00, 0.00
152, -187500.02, -46231.32, -187500.02, -187500.02, -49174.64, 0.00, 0.00, 0.00, 0.00, 0.00, 0.00
153, -187500.02, -45112.50, -187500.02, -187500.02, -48169.48, 0.00, 0.00, 0.00, 0.00, 0.00, 0.00
154, -187500.02, -45909.86, -187500.02, -187500.02, -48855.68, 0.00, 0.00, 0.00, 0.00, 0.00, 0.00
155, -187500.02, -47152.88, -187500.02, -187500.02, -49970.81, 0.00, 0.00, 0.00, 0.00, 0.00, 0.00
156, -187500.02, -46526.36, -187500.02, -187500.02, -49431.37, 0.00, 0.00, 0.00, 0.00, 0.00, 0.00
157, -187500.02, -45212.57, -187500.02, -187500.02, -48246.55, 0.00, 0.00, 0.00, 0.00, 0.00, 0.00
158, -187500.02, -45645.39, -187500.02, -187500.02, -48591.62, 0.00, 0.00, 0.00, 0.00, 0.00, 0.00
159, -187500.02, -47041.86, -187500.02, -187500.02, -49837.46, 0.00, 0.00, 0.00, 0.00, 0.00, 0.00
160, -187500.02, -46795.03, -187500.02, -187500.02, -49652.75, 0.00, 0.00, 0.00, 0.00, 0.00, 0.00
161, -187500.02, -45397.62, -187500.02, -187500.02, -48412.56, 0.00, 0.00, 0.00, 0.00, 0.00, 0.00
162, -187500.02, -45440.13, -187500.02, -187500.02, -48431.00, 0.00, 0.00, 0.00, 0.00, 0.00, 0.00
163, -187500.02, -46869.15, -187500.02, -187500.02, -49704.73, 0.00, 0.00, 0.00, 0.00, 0.00, 0.00
164, -187500.02, -47000.78, -187500.02, -187500.02, -49846.87, 0.00, 0.00, 0.00, 0.00, 0.00, 0.00
165, -187500.02, -45608.02, -187500.02, -187500.02, -48613.19, 0.00, 0.00, 0.00, 0.00, 0.00, 0.00
166, -187500.02, -45271.49, -187500.02, -187500.02, -48285.40, 0.00, 0.00, 0.00, 0.00, 0.00, 0.00
167, -187500.02, -46657.81, -187500.02, -187500.02, -49512.40, 0.00, 0.00, 0.00, 0.00, 0.00, 0.00
168, -187500.02, -47171.19, -187500.02, -187500.02, -50004.74, 0.00, 0.00, 0.00, 0.00, 0.00, 0.00
169, -187500.02, -45865.73, -187500.02, -187500.02, -48844.59, 0.00, 0.00, 0.00, 0.00, 0.00, 0.00
170, -187500.02, -45187.85, -187500.02, -187500.02, -48213.07, 0.00, 0.00, 0.00, 0.00, 0.00, 0.00
171, -187500.02, -46401.21, -187500.02, -187500.02, -49289.86, 0.00, 0.00, 0.00, 0.00, 0.00, 0.00
172, -187500.02, -47206.37, -187500.02, -187500.02, -50030.55, 0.00, 0.00, 0.00, 0.00, 0.00, 0.00
173, -187500.02, -46102.24, -187500.02, -187500.02, -49058.10, 0.00, 0.00, 0.00, 0.00, 0.00, 0.00
174, -187500.02, -45124.97, -187500.02, -187500.02, -48172.28, 0.00, 0.00, 0.00, 0.00, 0.00, 0.00
175, -187500.02, -46098.04, -187500.02, -187500.02, -49015.18, 0.00, 0.00, 0.00, 0.00, 0.00, 0.00
176, -187500.02, -47177.49, -187500.02, -187500.02, -49978.10, 0.00, 0.00, 0.00, 0.00, 0.00, 0.00
177, -187500.02, -46348.82, -187500.02, -187500.02, -49260.61, 0.00, 0.00, 0.00, 0.00, 0.00, 0.00
178, -187500.02, -45159.38, -187500.02, -187500.02, -48189.89, 0.00, 0.00, 0.00, 0.00, 0.00, 0.00
179, -187500.02, -45805.41, -187500.02, -187500.02, -48738.13, 0.00, 0.00, 0.00, 0.00, 0.00, 0.00
180, -187500.02, -47080.82, -187500.02, -187500.02, -49894.88, 0.00, 0.00, 0.00, 0.00, 0.00, 0.00
181, -187500.02, -46599.27, -187500.02, -187500.02, -49497.33, 0.00, 0.00, 0.00, 0.00, 0.00, 0.00
182, -187500.02, -45247.95, -187500.02, -187500.02, -48281.89, 0.00, 0.00, 0.00, 0.00, 0.00, 0.00
183, -187500.02, -45533.83, -187500.02, -187500.02, -48507.96, 0.00, 0.00, 0.00, 0.00, 0.00, 0.00
184, -187500.02, -46946.98, -187500.02, -187500.02, -49773.58, 0.00, 0.00, 0.00, 0.00, 0.00, 0.00
185, -187500.02, -46833.72, -187500.02, -187500.02, -49697.22, 0.00, 0.00, 0.00, 0.00, 0.00, 0.00
186, -187500.02, -45411.97, -187500.02, -187500.02, -48430.46, 0.00, 0.00, 0.00, 0.00, 0.00, 0.00
187, -187500.02, -45315.84, -187500.02, -187500.02, -48309.11, 0.00, 0.00, 0.00, 0.00, 0.00, 0.00
188, -187500.02, -46753.41, -187500.02, -187500.02, -49595.99, 0.00, 0.00, 0.00, 0.00, 0.00, 0.00
189, -187500.02, -47021.61, -187500.02, -187500.02, -49865.53, 0.00, 0.00, 0.00, 0.00, 0.00, 0.00
190, -187500.02, -45671.83, -187500.02, -187500.02, -48673.05, 0.00, 0.00, 0.00, 0.00, 0.00, 0.00
191, -187500.02, -45195.52, -187500.02, -187500.02, -48219.33, 0.00, 0.00, 0.00, 0.00, 0.00, 0.00
192, -187500.02, -46539.23, -187500.02, -187500.02, -49418.72, 0.00, 0.00, 0.00, 0.00, 0.00, 0.00
193, -187500.02, -47184.73, -187500.02, -187500.02, -50034.56, 0.00, 0.00, 0.00, 0.00, 0.00, 0.00
194, -187500.02, -45944.64, -187500.02, -187500.02, -48937.27, 0.00, 0.00, 0.00, 0.00, 0.00, 0.00
195, -187500.02, -45151.77, -187500.02, -187500.02, -48202.68, 0.00, 0.00, 0.00, 0.00, 0.00, 0.00
196, -187500.02, -46301.70, -187500.02, -187500.02, -49194.89, 0.00, 0.00, 0.00, 0.00, 0.00, 0.00
197, -187500.02, -47245.91, -187500.02, -187500.02, -50047.99, 0.00, 0.00, 0.00, 0.00, 0.00, 0.00
198, -187500.02, -46252.06, -187500.02, -187500.02, -49174.73, 0.00, 0.00, 0.00, 0.00, 0.00, 0.00
199, -187500.02, -45195.11, -187500.02, -187500.02, -48218.75, 0.00, 0.00, 0.00, 0.00, 0.00, 0.00
200, -187500.02, -46044.66, -187500.02, -187500.02, -48957.23, 0.00, 0.00, 0.00, 0.00, 0.00, 0.00
201, -187500.02, -47229.48, -187500.02, -187500.02, -50035.92, 0.00, 0.00, 0.00, 0.00, 0.00, 0.00
202, -187500.02, -46562.28, -187500.02, -187500.02, -49464.32, 0.00, 0.00, 0.00, 0.00, 0.00, 0.00
203, -187500.02, -45275.96, -187500.02, -187500.02, -48302.14, 0.00, 0.00, 0.00, 0.00, 0.00, 0.00
204, -187500.02, -45761.98, -187500.02, -187500.02, -48706.15, 0.00, 0.00, 0.00, 0.00, 0.00, 0.00
205, -187500.02, -47117.61, -187500.02, -187500.02, -49930.44, 0.00, 0.00, 0.00, 0.00, 0.00, 0.00
206, -187500.02, -46762.93, -187500.02, -187500.02, -49648.74, 0.00, 0.00, 0.00, 0.00, 0.00, 0.00
207, -187500.02, -45362.30, -187500.02, -187500.02, -48388.95, 0.00, 0.00, 0.00, 0.00, 0.00, 0.00
208, -187500.02, -45495.72, -187500.02, -187500.02, -48474.70, 0.00, 0.00, 0.00, 0.00, 0.00, 0.00
209, -187500.02, -46930.75, -187500.02, -187500.02, -49753.02, 0.00, 0.00, 0.00, 0.00, 0.00, 0.00
210, -187500.02, -46939.69, -187500.02, -187500.02, -49787.77, 0.00, 0.00, 0.00, 0.00, 0.00, 0.00
211, -187500.02, -45525.07, -187500.02, -187500.02, -48535.29, 0.00, 0.00, 0.00, 0.00, 0.00, 0.00
212, -187500.02, -45279.13, -187500.02, -187500.02, -48286.34, 0.00, 0.00, 0.00, 0.00, 0.00, 0.00
213, -187500.02, -46688.57, -187500.02, -187500.02, -49537.01, 0.00, 0.00, 0.00, 0.00, 0.00, 0.00
214, -187500.02, -47098.54, -187500.02, -187500.02, -49933.82, 0.00, 0.00, 0.00, 0.00, 0.00, 0.00
215, -187500.02, -45776.75, -187500.02, -187500.02, -48767.57, 0.00, 0.00, 0.00, 0.00, 0.00, 0.00
216, -187500.02, -45195.65, -187500.02, -187500.02, -48221.54, 0.00, 0.00, 0.00, 0.00, 0.00, 0.00
217, -187500.02, -46471.49, -187500.02, -187500.02, -49344.38, 0.00, 0.00, 0.00, 0.00, 0.00, 0.00
218, -187500.02, -47202.05, -187500.02, -187500.02, -50013.23, 0.00, 0.00, 0.00, 0.00, 0.00, 0.00
219, -187500.02, -46034.67, -187500.02, -187500.02, -48977.79, 0.00, 0.00, 0.00, 0.00, 0.00, 0.00
220, -187500.02, -45130.63, -187500.02, -187500.02, -48152.63, 0.00, 0.00, 0.00, 0.00, 0.00, 0.00
221, -187500.02, -46195.96, -187500.02, -187500.02, -49086.87, 0.00, 0.00, 0.00, 0.00, 0.00, 0.00
222, -187500.02, -47214.80, -187500.02, -187500.02, -50017.43, 0.00, 0.00, 0.00, 0.00, 0.00, 0.00
223, -187500.02, -46353.16, -187500.02, -187500.02, -49274.17, 0.00, 0.00, 0.00, 0.00, 0.00, 0.00
224, -187500.02, -45223.28, -187500.02, -187500.02, -48248.23, 0.00, 0.00, 0.00, 0.00, 0.00, 0.00
225, -187500.02, -45953.38, -187500.02, -187500.02, -48871.06, 0.00, 0.00, 0.00, 0.00, 0.00, 0.00
226, -187500.02, -47214.84, -187500.02, -187500.02, -50011.73, 0.00, 0.00, 0.00, 0.00, 0.00, 0.00
227, -187500.02, -46656.29, -187500.02, -187500.02, -49539.53, 0.00, 0.00, 0.00, 0.00, 0.00, 0.00
228, -187500.02, -45327.64, -187500.02, -187500.02, -48339.02, 0.00, 0.00, 0.00, 0.00, 0.00, 0.00
229, -187500.02, -45695.88, -187500.02, -187500.02, -48647.48, 0.00, 0.00, 0.00, 0.00, 0.00, 0.00
230, -187500.02, -47087.43, -187500.02, -187500.02, -49901.92, 0.00, 0.00, 0.00, 0.00, 0.00, 0.00
231, -187500.02, -46890.70, -187500.02, -187500.02, -49745.79, 0.00, 0.00, 0.00, 0.00, 0.00, 0.00
232, -187500.02, -45489.53, -187500.02, -187500.02, -48495.17, 0.00, 0.00, 0.00, 0.00, 0.00, 0.00
233, -187500.02, -45504.75, -187500.02, -187500.02, -48484.48, 0.00, 0.00, 0.00, 0.00, 0.00, 0.00
234, -187500.02, -46948.30, -187500.02, -187500.02, -49778.65, 0.00, 0.00, 0.00, 0.00, 0.00, 0.00
235, -187500.02, -47095.48, -187500.02, -187500.02, -49937.50, 0.00, 0.00, 0.00, 0.00, 0.00, 0.00
236, -187500.02, -45689.60, -187500.02, -187500.02, -48685.68, 0.00, 0.00, 0.00, 0.00, 0.00, 0.00
237, -187500.02, -45329.54, -187500.02, -187500.02, -48335.89, 0.00, 0.00, 0.00, 0.00, 0.00, 0.00
238, -187500.02, -46700.10, -187500.02, -187500.02, -49546.98, 0.00, 0.00, 0.00, 0.00, 0.00, 0.00
239, -187500.02, -47201.34, -187500.02, -187500.02, -50014.80, 0.00, 0.00, 0.00, 0.00, 0.00, 0.00
240, -187500.02, -45912.05, -187500.02, -187500.02, -48863.62, 0.00, 0.00, 0.00, 0.00, 0.00, 0.00
241, -187500.02, -45227.30, -187500.02, -187500.02, -48232.70, 0.00, 0.00, 0.00, 0.00, 0.00, 0.00
242, -187500.02, -46438.63, -187500.02, -187500.02, -49286.40, 0.00, 0.00, 0.00, 0.00, 0.00, 0.00
243, -187500.02, -47255.72, -187500.02, -187500.02, -50030.71, 0.00, 0.00, 0.00, 0.00, 0.00, 0.00
244, -187500.02, -46183.26, -187500.02, -187500.02, -49095.45, 0.00, 0.00, 0.00, 0.00, 0.00, 0.00
245, -187500.02, -45207.30, -187500.02, -187500.02, -48211.68, 0.00, 0.00, 0.00, 0.00, 0.00, 0.00
246, -187500.02, -46158.38, -187500.02, -187500.02, -49034.83, 0.00, 0.00, 0.00, 0.00, 0.00, 0.00
247, -187500.02, -47255.97, -187500.02, -187500.02, -50029.21, 0.00, 0.00, 0.00, 0.00, 0.00, 0.00
248, -187500.02, -46441.02, -187500.02, -187500.02, -49322.03, 0.00, 0.00, 0.00, 0.00, 0.00, 0.00
249, -187500.02, -45213.58, -187500.02, -187500.02, -48218.88, 0.00, 0.00, 0.00, 0.00, 0.00, 0.00
250, -187500.02, -45827.49, -187500.02, -187500.02, -48741.89, 0.00, 0.00, 0.00, 0.00, 0.00, 0.00
251, -187500.02, -47119.20, -187500.02, -187500.02, -49907.78, 0.00, 0.00, 0.00, 0.00, 0.00, 0.00
252, -187500.02, -46673.61, -187500.02, -187500.02, -49542.73, 0.00, 0.00, 0.00, 0.00, 0.00, 0.00
253, -187500.02, -45298.18, -187500.02, -187500.02, -48319.60, 0.00, 0.00, 0.00, 0.00, 0.00, 0.00
254, -187500.02, -45534.66, -187500.02, -187500.02, -48498.32, 0.00, 0.00, 0.00, 0.00, 0.00, 0.00
255, -187500.02, -46950.42, -187500.02, -187500.02, -49753.06, 0.00, 0.00, 0.00, 0.00, 0.00, 0.00
0, -187500.02, -46878.40, -187500.02, -187500.02, -49723.40, 0.00, 0.00, 0.00, 0.00, 0.00, 0.00
1, -187500.02, -45474.55, -187500.02, -187500.02, -48477.38, 0.00, 0.00, 0.00, 0.00, 0.00, 0.00
2, -187500.02, -45361.30, -187500.02, -187500.02, -48343.22, 0.00, 0.00, 0.00, 0.00, 0.00, 0.00
3, -187500.02, -46805.04, -187500.02, -187500.02, -49632.07, 0.00, 0.00, 0.00, 0.00, 0.00, 0.00
4, -187500.02, -47110.99, -187500.02, -187500.02, -49936.75, 0.00, 0.00, 0.00, 0.00, 0.00, 0.00
5, -187500.02, -45756.39, -187500.02, -187500.02, -48733.30, 0.00, 0.00, 0.00, 0.00, 0.00, 0.00
6, -187500.02, -45283.49, -187500.02, -187500.02, -48287.14, 0.00, 0.00, 0.00, 0.00, 0.00, 0.00
7, -187500.02, -46612.64, -187500.02, -187500.02, -49447.67, 0.00, 0.00, 0.00, 0.00, 0.00, 0.00
8, -187500.02, -47263.95, -187500.02, -187500.02, -50048.50, 0.00, 0.00, 0.00, 0.00, 0.00, 0.00
9, -187500.02, -46078.10, -187500.02, -187500.02, -49010.24, 0.00, 0.00, 0.00, 0.00, 0.00, 0.00
10, -187500.02, -45264.09, -187500.02, -187500.02, -48273.93, 0.00, 0.00, 0.00, 0.00, 0.00, 0.00
11, -187500.02, -46398.40, -187500.02, -187500.02, -49269.05, 0.00, 0.00, 0.00, 0.00, 0.00, 0.00
12, -187500.02, -47356.66, -187500.02, -187500.02, -50147.46, 0.00, 0.00, 0.00, 0.00, 0.00, 0.00
13, -187500.02, -46371.51, -187500.02, -187500.02, -49289.75, 0.00, 0.00, 0.00, 0.00, 0.00, 0.00
14, -187500.02, -45230.23, -187500.02, -187500.02, -48245.68, 0.00, 0.00, 0.00, 0.00, 0.00, 0.00
15, -187500.02, -46032.21, -187500.02, -187500.02, -48939.32, 0.00, 0.00, 0.00, 0.00, 0.00, 0.00
16, -187500.02, -47237.86, -187500.02, -187500.02, -50034.02, 0.00, 0.00, 0.00, 0.00, 0.00, 0.00
17, -187500.02, -46597.48, -187500.02, -187500.02, -49480.01, 0.00, 0.00, 0.00, 0.00, 0.00, 0.00
18, -187500.02, -45282.53, -187500.02, -187500.02, -48281.89, 0.00, 0.00, 0.00, 0.00, 0.00, 0.00
19, -187500.02, -45722.86, -187500.02, -187500.02, -48641.46, 0.00, 0.00, 0.00, 0.00, 0.00, 0.00
20, -187500.02, -47095.04, -187500.02, -187500.02, -49874.09, 0.00, 0.00, 0.00, 0.00, 0.00, 0.00
21, -187500.02, -46822.63, -187500.02, -187500.02, -49662.91, 0.00, 0.00, 0.00, 0.00, 0.00, 0.00
22, -187500.02, -45410.16, -187500.02, -187500.02, -48389.78, 0.00, 0.00, 0.00, 0.00, 0.00, 0.00
23, -187500.02, -45491.48, -187500.02, -187500.02, -48418.97, 0.00, 0.00, 0.00, 0.00, 0.00, 0.00
24, -187500.02, -46977.20, -187500.02, -187500.02, -49742.82, 0.00, 0.00, 0.00, 0.00, 0.00, 0.00
25, -187500.02, -47090.74, -187500.02, -187500.02, -49878.86, 0.00, 0.00, 0.00, 0.00, 0.00, 0.00
26, -187500.02, -45637.52, -187500.02, -187500.02, -48586.30, 0.00, 0.00, 0.00, 0.00, 0.00, 0.00
27, -187500.02, -45321.58, -187500.02, -187500.02, -48275.30, 0.00, 0.00, 0.00, 0.00, 0.00, 0.00
28, -187500.02, -46744.85, -187500.02, -187500.02, -49537.59, 0.00, 0.00, 0.00, 0.00, 0.00, 0.00
29, -187500.02, -47229.10, -187500.02, -187500.02, -50006.80, 0.00, 0.00, 0.00, 0.00, 0.00, 0.00
30, -187500.02, -45900.69, -187500.02, -187500.02, -48834.49, 0.00, 0.00, 0.00, 0.00, 0.00, 0.00
31, -187500.02, -45244.67, -187500.02, -187500.02, -48215.01, 0.00, 0.00, 0.00, 0.00, 0.00, 0.00
32, -187500.02, -46506.07, -187500.02, -187500.02, -49330.45, 0.00, 0.00, 0.00, 0.00, 0.00, 0.00
33, -187500.02, -47316.83, -187500.02, -187500.02, -50081.03, 0.00, 0.00, 0.00, 0.00, 0.00, 0.00
34, -187500.02, -46197.05, -187500.02, -187500.02, -49097.66, 0.00, 0.00, 0.00, 0.00, 0.00, 0.00
35, -187500.02, -45210.61, -187500.02, -187500.02, -48196.33, 0.00, 0.00, 0.00, 0.00, 0.00, 0.00
36, -187500.02, -46210.44, -187500.02, -187500.02, -49067.75, 0.00, 0.00, 0.00, 0.00, 0.00, 0.00
37, -187500.02, -47327.27, -187500.02, -187500.02, -50080.69, 0.00, 0.00, 0.00, 0.00, 0.00, 0.00
38, -187500.02, -46495.65, -187500.02, -187500.02, -49353.50, 0.00, 0.00, 0.00, 0.00, 0.00, 0.00
39, -187500.02, -45267.80, -187500.02, -187500.02, -48247.63, 0.00, 0.00, 0.00, 0.00, 0.00, 0.00
40, -187500.02, -45964.26, -187500.02, -187500.02, -48842.54, 0.00, 0.00, 0.00, 0.00, 0.00, 0.00
41, -187500.02, -47290.86, -187500.02, -187500.02, -50039.77, 0.00, 0.00, 0.00, 0.00, 0.00, 0.00
42, -187500.02, -46796.06, -187500.02, -187500.02, -49626.32, 0.00, 0.00, 0.00, 0.00, 0.00, 0.00
43, -187500.02, -45421.43, -187500.02, -187500.02, -48382.92, 0.00, 0.00, 0.00, 0.00, 0.00, 0.00
44, -187500.02, -45714.19, -187500.02, -187500.02, -48605.25, 0.00, 0.00, 0.00, 0.00, 0.00, 0.00
45, -187500.02, -47141.95, -187500.02, -187500.02, -49894.05, 0.00, 0.00, 0.00, 0.00, 0.00, 0.00
46, -187500.02, -47020.89, -187500.02, -187500.02, -49815.93, 0.00, 0.00, 0.00, 0.00, 0.00, 0.00
47, -187500.02, -45569.24, -187500.02, -187500.02, -48518.21, 0.00, 0.00, 0.00, 0.00, 0.00, 0.00
48, -187500.02, -45462.31, -187500.02, -187500.02, -48400.38, 0.00, 0.00, 0.00, 0.00, 0.00, 0.00
49, -187500.02, -46932.83, -187500.02, -187500.02, -49708.73, 0.00, 0.00, 0.00, 0.00, 0.00, 0.00
50, -187500.02, -47190.81, -187500.02, -187500.02, -49967.26, 0.00, 0.00, 0.00, 0.00, 0.00, 0.00
51, -187500.02, -45770.58, -187500.02, -187500.02, -48702.10, 0.00, 0.00, 0.00, 0.00, 0.00, 0.00
52, -187500.02, -45281.26, -187500.02, -187500.02, -48230.10, 0.00, 0.00, 0.00, 0.00, 0.00, 0.00
53, -187500.02, -46653.92, -187500.02, -187500.02, -49459.36, 0.00, 0.00, 0.00, 0.00, 0.00, 0.00
54, -187500.02, -47296.82, -187500.02, -187500.02, -50049.62, 0.00, 0.00, 0.00, 0.00, 0.00, 0.00
55, -187500.02, -46029.35, -187500.02, -187500.02, -48914.15, 0.00, 0.00, 0.00, 0.00, 0.00, 0.00
56, -187500.02, -45202.73, -187500.02, -187500.02, -48149.41, 0.00, 0.00, 0.00, 0.00, 0.00, 0.00
57, -187500.02, -46388.12, -187500.02, -187500.02, -49199.36, 0.00, 0.00, 0.00, 0.00, 0.00, 0.00
58, -187500.02, -47346.80, -187500.02, -187500.02, -50081.00, 0.00, 0.00, 0.00, 0.00, 0.00, 0.00
59, -187500.02, -46336.35, -187500.02, -187500.02, -49195.56, 0.00, 0.00, 0.00, 0.00, 0.00, 0.00
60, -187500.02, -45224.26, -187500.02, -187500.02, -48183.96, 0.00, 0.00, 0.00, 0.00, 0.00, 0.00
61, -187500.02, -46107.36, -187500.02, -187500.02, -48949.07, 0.00, 0.00, 0.00, 0.00, 0.00, 0.00
62, -187500.02, -47335.41, -187500.02, -187500.02, -50062.03, 0.00, 0.00, 0.00, 0.00, 0.00, 0.00
63, -187500.02, -46630.70, -187500.02, -187500.02, -49456.18, 0.00, 0.00, 0.00, 0.00, 0.00, 0.00
64, -187500.02, -45302.13, -187500.02, -187500.02, -48246.17, 0.00, 0.00, 0.00, 0.00, 0.00, 0.00
65, -187500.02, -45801.23, -187500.02, -187500.02, -48655.21, 0.00, 0.00, 0.00, 0.00, 0.00, 0.00
66, -187500.02, -47177.36, -187500.02, -187500.02, -49899.20, 0.00, 0.00, 0.00, 0.00, 0.00, 0.00
67, -187500.02, -46809.83, -187500.02, -187500.02, -49610.05, 0.00, 0.00, 0.00, 0.00, 0.00, 0.00
68, -187500.02, -45354.06, -187500.02, -187500.02, -48314.59, 0.00, 0.00, 0.00, 0.00, 0.00, 0.00
69, -187500.02, -45473.30, -187500.02, -187500.02, -48391.52, 0.00, 0.00, 0.00, 0.00, 0.00, 0.00
70, -187500.02, -46929.63, -187500.02, -187500.02, -49687.81, 0.00, 0.00, 0.00, 0.00, 0.00, 0.00
71, -187500.02, -46995.23, -187500.02, -187500.02, -49774.02, 0.00, 0.00, 0.00, 0.00, 0.00, 0.00
72, -187500.02, -45544.85, -187500.02, -187500.02, -48477.42, 0.00, 0.00, 0.00, 0.00, 0.00, 0.00
73, -187500.02, -45260.47, -187500.02, -187500.02, -48175.14, 0.00, 0.00, 0.00, 0.00, 0.00, 0.00
74, -187500.02, -46732.89, -187500.02, -187500.02, -49480.57, 0.00, 0.00, 0.00, 0.00, 0.00, 0.00
75, -187500.02, -47178.99, -187500.02, -187500.02, -49908.45, 0.00, 0.00, 0.00, 0.00, 0.00, 0.00
76, -187500.02, -45785.07, -187500.02, -187500.02, -48659.46, 0.00, 0.00, 0.00, 0.00, 0.00, 0.00
77, -187500.02, -45153.72, -187500.02, -187500.02, -48080.66, 0.00, 0.00, 0.00, 0.00, 0.00, 0.00
78, -187500.02, -46472.02, -187500.02, -187500.02, -49262.06, 0.00, 0.00, 0.00, 0.00, 0.00, 0.00
79, -187500.02, -47274.03, -187500.02, -187500.02, -50018.42, 0.00, 0.00, 0.00, 0.00, 0.00, 0.00
80, -187500.02, -46099.82, -187500.02, -187500.02, -48987.94, 0.00, 0.00, 0.00, 0.00, 0.00, 0.00
81, -187500.02, -45154.12, -187500.02, -187500.02, -48113.63, 0.00, 0.00, 0.00, 0.00, 0.00, 0.00
82, -187500.02, -46220.48, -187500.02, -187500.02, -49036.21, 0.00, 0.00, 0.00, 0.00, 0.00, 0.00
83, -187500.02, -47308.63, -187500.02, -187500.02, -50027.43, 0.00, 0.00, 0.00, 0.00, 0.00, 0.00
84, -187500.02, -46401.13, -187500.02, -187500.02, -49242.68, 0.00, 0.00, 0.00, 0.00, 0.00, 0.00
85, -187500.02, -45192.30, -187500.02, -187500.02, -48140.89, 0.00, 0.00, 0.00, 0.00, 0.00, 0.00
86, -187500.02, -45946.31, -187500.02, -187500.02, -48785.90, 0.00, 0.00, 0.00, 0.00, 0.00, 0.00
87, -187500.02, -47279.48, -187500.02, -187500.02, -50001.92, 0.00, 0.00, 0.00, 0.00, 0.00, 0.00
88, -187500.02, -46718.81, -187500.02, -187500.02, -49539.58, 0.00, 0.00, 0.00, 0.00, 0.00, 0.00
89, -187500.02, -45347.87, -187500.02, -187500.02, -48307.50, 0.00, 0.00, 0.00, 0.00, 0.00, 0.00
90, -187500.02, -45730.57, -187500.02, -187500.02, -48614.24, 0.00, 0.00, 0.00, 0.00, 0.00, 0.00
91, -187500.02, -47179.66, -187500.02, -187500.02, -49909.10, 0.00, 0.00, 0.00, 0.00, 0.00, 0.00
92, -187500.02, -46997.31, -187500.02, -187500.02, -49770.49, 0.00, 0.00, 0.00, 0.00, 0.00, 0.00
93, -187500.02, -45540.31, -187500.02, -187500.02, -48468.13, 0.00, 0.00, 0.00, 0.00, 0.00, 0.00
94, -187500.02, -45521.61, -187500.02, -187500.02, -48431.20, 0.00, 0.00, 0.00, 0.00, 0.00, 0.00
95, -187500.02, -47007.44, -187500.02, -187500.02, -49758.20, 0.00, 0.00, 0.00, 0.00, 0.00, 0.00
96, -187500.02, -47207.75, -187500.02, -187500.02, -49973.49, 0.00, 0.00, 0.00, 0.00, 0.00, 0.00
97, -187500.02, -45743.20, -187500.02, -187500.02, -48670.39, 0.00, 0.00, 0.00, 0.00, 0.00, 0.00
98, -187500.02, -45336.09, -187500.02, -187500.02, -48267.63, 0.00, 0.00, 0.00, 0.00, 0.00, 0.00
99, -187500.02, -46749.43, -187500.02, -187500.02, -49524.22, 0.00, 0.00, 0.00, 0.00, 0.00, 0.00
100, -187500.02, -47291.13, -187500.02, -187500.02, -50039.43, 0.00, 0.00, 0.00, 0.00, 0.00, 0.00
101, -187500.02, -45957.33, -187500.02, -187500.02, -48857.83, 0.00, 0.00, 0.00, 0.00, 0.00, 0.00
102, -187500.02, -45155.91, -187500.02, -187500.02, -48106.03, 0.00, 0.00, 0.00, 0.00, 0.00, 0.00
103, -187500.02, -46371.13, -187500.02, -187500.02, -49170.59, 0.00, 0.00, 0.00, 0.00, 0.00, 0.00
104, -187500.02, -47253.64, -187500.02, -187500.02, -49986.41, 0.00, 0.00, 0.00, 0.00, 0.00, 0.00
105, -187500.02, -46118.33, -187500.02, -187500.02, -48997.28, 0.00, 0.00, 0.00, 0.00, 0.00, 0.00
106, -187500.02, -45030.54, -187500.02, -187500.02, -47999.18, 0.00, 0.00, 0.00, 0.00, 0.00, 0.00
107, -187500.02, -45991.86, -187500.02, -187500.02, -48834.85, 0.00, 0.00, 0.00, 0.00, 0.00, 0.00
108, -187500.02, -47180.93, -187500.02, -187500.02, -49919.42, 0.00, 0.00, 0.00, 0.00, 0.00, 0.00
109, -187500.02, -46397.62, -187500.02, -187500.02, -49239.73, 0.00, 0.00, 0.00, 0.00, 0.00, 0.00
110, -187500.02, -45141.89, -187500.02, -187500.02, -48102.27, 0.00, 0.00, 0.00, 0.00, 0.00, 0.00
111, -187500.02, -45787.75, -187500.02, -187500.02, -48655.70, 0.00, 0.00, 0.00, 0.00, 0.00, 0.00
112, -187500.02, -47188.71, -187500.02, -187500.02, -49930.62, 0.00, 0.00, 0.00, 0.00, 0.00, 0.00
113, -187500.02, -46769.19, -187500.02, -187500.02, -49589.78, 0.00, 0.00, 0.00, 0.00, 0.00, 0.00
114, -187500.02, -45352.34, -187500.02, -187500.02, -48307.77, 0.00, 0.00, 0.00, 0.00, 0.00, 0.00
115, -187500.02, -45601.11, -187500.02, -187500.02, -48494.25, 0.00, 0.00, 0.00, 0.00, 0.00, 0.00
116, -187500.02, -47096.55, -187500.02, -187500.02, -49838.84, 0.00, 0.00, 0.00, 0.00, 0.00, 0.00
117, -187500.02, -47056.77, -187500.02, -187500.02, -49832.43, 0.00, 0.00, 0.00, 0.00, 0.00, 0.00
118, -187500.02, -45598.45, -187500.02, -187500.02, -48538.18, 0.00, 0.00, 0.00, 0.00, 0.00, 0.00
119, -187500.02, -45432.54, -187500.02, -187500.02, -48364.52, 0.00, 0.00, 0.00, 0.00, 0.00, 0.00
120, -187500.02, -46913.00, -187500.02, -187500.02, -49677.58, 0.00, 0.00, 0.00, 0.00, 0.00, 0.00
121, -187500.02, -47248.10, -187500.02, -187500.02, -50000.23, 0.00, 0.00, 0.00, 0.00, 0.00, 0.00
122, -187500.02, -45829.10, -187500.02, -187500.02, -48746.34, 0.00, 0.00, 0.00, 0.00, 0.00, 0.00
123, -187500.02, -45279.40, -187500.02, -187500.02, -48233.14, 0.00, 0.00, 0.00, 0.00, 0.00, 0.00
124, -187500.02, -46667.78, -187500.02, -187500.02, -49447.18, 0.00, 0.00, 0.00, 0.00, 0.00, 0.00
125, -187500.02, -47363.03, -187500.02, -187500.02, -50086.82, 0.00, 0.00, 0.00, 0.00, 0.00, 0.00
126, -187500.02, -46105.34, -187500.02, -187500.02, -48975.62, 0.00, 0.00, 0.00, 0.00, 0.00, 0.00
127, -187500.02, -45242.59, -187500.02, -187500.02, -48187.52, 0.00, 0.00, 0.00, 0.00, 0.00, 0.00
128, -187500.02, -46396.90, -187500.02, -187500.02, -49196.88, 0.00, 0.00, 0.00, 0.00, 0.00, 0.00
129, -187500.02, -47416.68, -187500.02, -187500.02, -50131.59, 0.00, 0.00, 0.00, 0.00, 0.00, 0.00
130, -187500.02, -46429.85, -187500.02, -187500.02, -49278.38, 0.00, 0.00, 0.00, 0.00, 0.00, 0.00
131, -187500.02, -45278.38, -187500.02, -187500.02, -48233.54, 0.00, 0.00, 0.00, 0.00, 0.00, 0.00
132, -187500.02, -46100.36, -187500.02, -187500.02, -48938.90, 0.00, 0.00, 0.00, 0.00, 0.00, 0.00
133, -187500.02, -47338.02, -187500.02, -187500.02, -50066.07, 0.00, 0.00, 0.00, 0.00, 0.00, 0.00
134, -187500.02, -46697.96, -187500.02, -187500.02, -49525.70, 0.00, 0.00, 0.00, 0.00, 0.00, 0.00
135, -187500.02, -45432.96, -187500.02, -187500.02, -48389.16, 0.00, 0.00, 0.00, 0.00, 0.00, 0.00
136, -187500.02, -45927.87, -187500.02, -187500.02, -48804.70, 0.00, 0.00, 0.00, 0.00, 0.00, 0.00
137, -187500.02, -47262.36, -187500.02, -187500.02, -50006.71, 0.00, 0.00, 0.00, 0.00, 0.00, 0.00
138, -187500.02, -46971.65, -187500.02, -187500.02, -49771.05, 0.00, 0.00, 0.00, 0.00, 0.00, 0.00
139, -187500.02, -45600.69, -187500.02, -187500.02, -48530.91, 0.00, 0.00, 0.00, 0.00, 0.00, 0.00
140, -187500.02, -45776.55, -187500.02, -187500.02, -48656.59, 0.00, 0.00, 0.00, 0.00, 0.00, 0.00
141, -187500.02, -47222.39, -187500.02, -187500.02, -49969.34, 0.00, 0.00, 0.00, 0.00, 0.00, 0.00
142, -187500.02, -47259.48, -187500.02, -187500.02, -50033.53, 0.00, 0.00, 0.00, 0.00, 0.00, 0.00
143, -187500.02, -45833.79, -187500.02, -187500.02, -48750.25, 0.00, 0.00, 0.00, 0.00, 0.00, 0.00
144, -187500.02, -45616.96, -187500.02, -187500.02, -48523.82, 0.00, 0.00, 0.00, 0.00, 0.00, 0.00
145, -187500.02, -46998.16, -187500.02, -187500.02, -49774.14, 0.00, 0.00, 0.00, 0.00, 0.00, 0.00
146, -187500.02, -47330.73, -187500.02, -187500.02, -50105.01, 0.00, 0.00, 0.00, 0.00, 0.00, 0.00
147, -187500.02, -45964.82, -187500.02, -187500.02, -48867.24, 0.00, 0.00, 0.00, 0.00, 0.00, 0.00
148, -187500.02, -45432.76, -187500.02, -187500.02, -48356.75, 0.00, 0.00, 0.00, 0.00, 0.00, 0.00
149, -187500.02, -46745.59, -187500.02, -187500.02, -49535.22, 0.00, 0.00, 0.00, 0.00, 0.00, 0.00
150, -187500.02, -47426.82, -187500.02, -187500.02, -50179.42, 0.00, 0.00, 0.00, 0.00, 0.00, 0.00
151, -187500.02, -46222.71, -187500.02, -187500.02, -49100.88, 0.00, 0.00, 0.00, 0.00, 0.00, 0.00
152, -187500.02, -45372.88, -187500.02, -187500.02, -48305.65, 0.00, 0.00, 0.00, 0.00, 0.00, 0.00
153, -187500.02, -46465.30, -187500.02, -187500.02, -49268.85, 0.00, 0.00, 0.00, 0.00, 0.00, 0.00
154, -187500.02, -47459.32, -187500.02, -187500.02, -50194.33, 0.00, 0.00, 0.00, 0.00, 0.00, 0.00
155, -187500.02, -46519.03, -187500.02, -187500.02, -49380.23, 0.00, 0.00, 0.00, 0.00, 0.00, 0.00
156, -187500.02, -45398.18, -187500.02, -187500.02, -48352.88, 0.00, 0.00, 0.00, 0.00, 0.00, 0.00
157, -187500.02, -46187.11, -187500.02, -187500.02, -49033.94, 0.00, 0.00, 0.00, 0.00, 0.00, 0.00
158, -187500.02, -47407.76, -187500.02, -187500.02, -50142.83, 0.00, 0.00, 0.00, 0.00, 0.00, 0.00
159, -187500.02, -46792.88, -187500.02, -187500.02, -49612.46, 0.00, 0.00, 0.00, 0.00, 0.00, 0.00
160, -187500.02, -45497.00, -187500.02, -187500.02, -48429.77, 0.00, 0.00, 0.00, 0.00, 0.00, 0.00
161, -187500.02, -45946.11, -187500.02, -187500.02, -48806.17, 0.00, 0.00, 0.00, 0.00, 0.00, 0.00
162, -187500.02, -47342.45, -187500.02, -187500.02, -50073.79, 0.00, 0.00, 0.00, 0.00, 0.00, 0.00
163, -187500.02, -47075.95, -187500.02, -187500.02, -49858.18, 0.00, 0.00, 0.00, 0.00, 0.00, 0.00
164, -187500.02, -45651.56, -187500.02, -187500.02, -48572.17, 0.00, 0.00, 0.00, 0.00, 0.00, 0.00
165, -187500.02, -45712.54, -187500.02, -187500.02, -48606.97, 0.00, 0.00, 0.00, 0.00, 0.00, 0.00
166, -187500.02, -47161.91, -187500.02, -187500.02, -49925.10, 0.00, 0.00, 0.00, 0.00, 0.00, 0.00
167, -187500.02, -47273.71, -187500.02, -187500.02, -50057.91, 0.00, 0.00, 0.00, 0.00, 0.00, 0.00
168, -187500.02, -45855.88, -187500.02, -187500.02, -48777.07, 0.00, 0.00, 0.00, 0.00, 0.00, 0.00
169, -187500.02, -45542.93, -187500.02, -187500.02, -48453.48, 0.00, 0.00, 0.00, 0.00, 0.00, 0.00
170, -187500.02, -46962.15, -187500.02, -187500.02, -49713.30, 0.00, 0.00, 0.00, 0.00, 0.00, 0.00
171, -187500.02, -47432.25, -187500.02, -187500.02, -50171.26, 0.00, 0.00, 0.00, 0.00, 0.00, 0.00
172, -187500.02, -46098.95, -187500.02, -187500.02, -48983.36, 0.00, 0.00, 0.00, 0.00, 0.00, 0.00
173, -187500.02, -45424.58, -187500.02, -187500.02, -48346.46, 0.00, 0.00, 0.00, 0.00, 0.00, 0.00
174, -187500.02, -46662.95, -187500.02, -187500.02, -49445.84, 0.00, 0.00, 0.00, 0.00, 0.00, 0.00
175, -187500.02, -47468.49, -187500.02, -187500.02, -50201.10, 0.00, 0.00, 0.00, 0.00, 0.00, 0.00
176, -187500.02, -46364.80, -187500.02, -187500.02, -49232.40, 0.00, 0.00, 0.00, 0.00, 0.00, 0.00
177, -187500.02, -45400.93, -187500.02, -187500.02, -48352.77, 0.00, 0.00, 0.00, 0.00, 0.00, 0.00
178, -187500.02, -46358.75, -187500.02, -187500.02, -49187.56, 0.00, 0.00, 0.00, 0.00, 0.00, 0.00
179, -187500.02, -47424.41, -187500.02, -187500.02, -50159.37, 0.00, 0.00, 0.00, 0.00, 0.00, 0.00
180, -187500.02, -46591.70, -187500.02, -187500.02, -49428.76, 0.00, 0.00, 0.00, 0.00, 0.00, 0.00
181, -187500.02, -45407.43, -187500.02, -187500.02, -48346.24, 0.00, 0.00, 0.00, 0.00, 0.00, 0.00
182, -187500.02, -46076.42, -187500.02, -187500.02, -48919.92, 0.00, 0.00, 0.00, 0.00, 0.00, 0.00
183, -187500.02, -47346.92, -187500.02, -187500.02, -50077.67, 0.00, 0.00, 0.00, 0.00, 0.00, 0.00
184, -187500.02, -46864.50, -187500.02, -187500.02, -49666.74, 0.00, 0.00, 0.00, 0.00, 0.00, 0.00
185, -187500.02, -45527.06, -187500.02, -187500.02, -48444.43, 0.00, 0.00, 0.00, 0.00, 0.00, 0.00
186, -187500.02, -45833.75, -187500.02, -187500.02, -48691.26, 0.00, 0.00, 0.00, 0.00, 0.00, 0.00
187, -187500.02, -47257.33, -187500.02, -187500.02, -49989.63, 0.00, 0.00, 0.00, 0.00, 0.00, 0.00
188, -187500.02, -47133.28, -187500.02, -187500.02, -49915.73, 0.00, 0.00, 0.00, 0.00, 0.00, 0.00
189, -187500.02, -45723.40, -187500.02, -187500.02, -48650.80, 0.00, 0.00, 0.00, 0.00, 0.00, 0.00
190, -187500.02, -45638.37, -187500.02, -187500.02, -48545.28, 0.00, 0.00, 0.00, 0.00, 0.00, 0.00
191, -187500.02, -47071.81, -187500.02, -187500.02, -49833.04, 0.00, 0.00, 0.00, 0.00, 0.00, 0.00
192, -187500.02, -47323.47, -187500.02, -187500.02, -50099.69, 0.00, 0.00, 0.00, 0.00, 0.00, 0.00
193, -187500.02, -45950.76, -187500.02, -187500.02, -48871.93, 0.00, 0.00, 0.00, 0.00, 0.00, 0.00
194, -187500.02, -45485.75, -187500.02, -187500.02, -48414.75, 0.00, 0.00, 0.00, 0.00, 0.00, 0.00
195, -187500.02, -46825.92, -187500.02, -187500.02, -49605.74, 0.00, 0.00, 0.00, 0.00, 0.00, 0.00
196, -187500.02, -47413.73, -187500.02, -187500.02, -50159.93, 0.00, 0.00, 0.00, 0.00, 0.00, 0.00
197, -187500.02, -46163.44, -187500.02, -187500.02, -49046.86, 0.00, 0.00, 0.00, 0.00, 0.00, 0.00
198, -187500.02, -45383.36, -187500.02, -187500.02, -48312.36, 0.00, 0.00, 0.00, 0.00, 0.00, 0.00
199, -187500.02, -46521.60, -187500.02, -187500.02, -49310.72, 0.00, 0.00, 0.00, 0.00, 0.00, 0.00
200, -187500.02, -47434.67, -187500.02, -187500.02, -50164.27, 0.00, 0.00, 0.00, 0.00, 0.00, 0.00
201, -187500.02, -46452.55, -187500.02, -187500.02, -49303.54, 0.00, 0.00, 0.00, 0.00, 0.00, 0.00
202, -187500.02, -45393.91, -187500.02, -187500.02, -48329.48, 0.00, 0.00, 0.00, 0.00, 0.00, 0.00
203, -187500.02, -46273.00, -187500.02, -187500.02, -49095.36, 0.00, 0.00, 0.00, 0.00, 0.00, 0.00
